Criado como novo conjunto de dados;"1909daniel.spp","-4218641.3 Secs"
cm-1;Abs
10000.000000;1.234321
9999.000000;1.233100
9998.000000;1.232671
9997.000000;1.232659
9996.000000;1.232109
9995.000000;1.230623
9994.000000;1.228700
9993.000000;1.227364
9992.000000;1.227031
9991.000000;1.227351
9990.000000;1.227715
9989.000000;1.227734
9988.000000;1.227260
9987.000000;1.226384
9986.000000;1.225389
9985.000000;1.224413
9984.000000;1.223160
9983.000000;1.221285
9982.000000;1.219074
9981.000000;1.217403
9980.000000;1.216926
9979.000000;1.217522
9978.000000;1.218562
9977.000000;1.219428
9976.000000;1.219722
9975.000000;1.219355
9974.000000;1.218615
9973.000000;1.217956
9972.000000;1.217544
9971.000000;1.217120
9970.000000;1.216391
9969.000000;1.215368
9968.000000;1.214261
9967.000000;1.213210
9966.000000;1.212248
9965.000000;1.211353
9964.000000;1.210419
9963.000000;1.209298
9962.000000;1.207984
9961.000000;1.206700
9960.000000;1.205775
9959.000000;1.205430
9958.000000;1.205623
9957.000000;1.206025
9956.000000;1.206233
9955.000000;1.206129
9954.000000;1.205982
9953.000000;1.206045
9952.000000;1.206145
9951.000000;1.205845
9950.000000;1.204951
9949.000000;1.203636
9948.000000;1.202122
9947.000000;1.200491
9946.000000;1.198856
9945.000000;1.197470
9944.000000;1.196593
9943.000000;1.196341
9942.000000;1.196637
9941.000000;1.197152
9940.000000;1.197392
9939.000000;1.197054
9938.000000;1.196278
9937.000000;1.195412
9936.000000;1.194614
9935.000000;1.193893
9934.000000;1.193352
9933.000000;1.193048
9932.000000;1.192724
9931.000000;1.192128
9930.000000;1.191543
9929.000000;1.191528
9928.000000;1.192036
9927.000000;1.192246
9926.000000;1.191469
9925.000000;1.189887
9924.000000;1.188207
9923.000000;1.186902
9922.000000;1.185986
9921.000000;1.185223
9920.000000;1.184349
9919.000000;1.183300
9918.000000;1.182370
9917.000000;1.181899
9916.000000;1.181713
9915.000000;1.181162
9914.000000;1.179887
9913.000000;1.178293
9912.000000;1.177042
9911.000000;1.176337
9910.000000;1.175881
9909.000000;1.175266
9908.000000;1.174221
9907.000000;1.172748
9906.000000;1.171252
9905.000000;1.170310
9904.000000;1.170067
9903.000000;1.170054
9902.000000;1.169797
9901.000000;1.169315
9900.000000;1.168813
9899.000000;1.168258
9898.000000;1.167645
9897.000000;1.167312
9896.000000;1.167494
9895.000000;1.167795
9894.000000;1.167651
9893.000000;1.167166
9892.000000;1.166890
9891.000000;1.166818
9890.000000;1.166228
9889.000000;1.164721
9888.000000;1.162914
9887.000000;1.161843
9886.000000;1.161970
9885.000000;1.162888
9884.000000;1.163698
9883.000000;1.163567
9882.000000;1.162248
9881.000000;1.160255
9880.000000;1.158338
9879.000000;1.156786
9878.000000;1.155435
9877.000000;1.154329
9876.000000;1.153908
9875.000000;1.154330
9874.000000;1.154940
9873.000000;1.154810
9872.000000;1.153666
9871.000000;1.152029
9870.000000;1.150633
9869.000000;1.149982
9868.000000;1.150183
9867.000000;1.150778
9866.000000;1.150830
9865.000000;1.149660
9864.000000;1.147618
9863.000000;1.145871
9862.000000;1.145329
9861.000000;1.145952
9860.000000;1.146976
9859.000000;1.147480
9858.000000;1.146792
9857.000000;1.144817
9856.000000;1.142206
9855.000000;1.139974
9854.000000;1.138713
9853.000000;1.138274
9852.000000;1.138219
9851.000000;1.138345
9850.000000;1.138589
9849.000000;1.138710
9848.000000;1.138408
9847.000000;1.137690
9846.000000;1.136848
9845.000000;1.136104
9844.000000;1.135435
9843.000000;1.134731
9842.000000;1.133927
9841.000000;1.133009
9840.000000;1.132045
9839.000000;1.131188
9838.000000;1.130516
9837.000000;1.129953
9836.000000;1.129502
9835.000000;1.129472
9834.000000;1.130123
9833.000000;1.131033
9832.000000;1.131167
9831.000000;1.129831
9830.000000;1.127419
9829.000000;1.125039
9828.000000;1.123550
9827.000000;1.123078
9826.000000;1.123240
9825.000000;1.123559
9824.000000;1.123661
9823.000000;1.123310
9822.000000;1.122373
9821.000000;1.120839
9820.000000;1.118955
9819.000000;1.117341
9818.000000;1.116710
9817.000000;1.117239
9816.000000;1.118243
9815.000000;1.118671
9814.000000;1.117975
9813.000000;1.116481
9812.000000;1.114993
9811.000000;1.114129
9810.000000;1.113936
9809.000000;1.113885
9808.000000;1.113309
9807.000000;1.111997
9806.000000;1.110405
9805.000000;1.109187
9804.000000;1.108576
9803.000000;1.108342
9802.000000;1.108250
9801.000000;1.108327
9800.000000;1.108654
9799.000000;1.109090
9798.000000;1.109287
9797.000000;1.108901
9796.000000;1.107797
9795.000000;1.106205
9794.000000;1.104703
9793.000000;1.103873
9792.000000;1.103854
9791.000000;1.104256
9790.000000;1.104492
9789.000000;1.104107
9788.000000;1.102911
9787.000000;1.101068
9786.000000;1.099160
9785.000000;1.097907
9784.000000;1.097601
9783.000000;1.097863
9782.000000;1.098046
9781.000000;1.097782
9780.000000;1.097083
9779.000000;1.096133
9778.000000;1.095175
9777.000000;1.094412
9776.000000;1.093757
9775.000000;1.092764
9774.000000;1.091105
9773.000000;1.089107
9772.000000;1.087542
9771.000000;1.086849
9770.000000;1.086779
9769.000000;1.086797
9768.000000;1.086564
9767.000000;1.085925
9766.000000;1.084801
9765.000000;1.083381
9764.000000;1.082223
9763.000000;1.081780
9762.000000;1.081911
9761.000000;1.082097
9760.000000;1.082065
9759.000000;1.081872
9758.000000;1.081450
9757.000000;1.080565
9756.000000;1.079345
9755.000000;1.078396
9754.000000;1.078066
9753.000000;1.077876
9752.000000;1.077086
9751.000000;1.075649
9750.000000;1.074239
9749.000000;1.073423
9748.000000;1.073202
9747.000000;1.073318
9746.000000;1.073573
9745.000000;1.073765
9744.000000;1.073651
9743.000000;1.073144
9742.000000;1.072330
9741.000000;1.071212
9740.000000;1.069702
9739.000000;1.067976
9738.000000;1.066529
9737.000000;1.065685
9736.000000;1.065309
9735.000000;1.065195
9734.000000;1.065393
9733.000000;1.065843
9732.000000;1.065991
9731.000000;1.065258
9730.000000;1.063805
9729.000000;1.062409
9728.000000;1.061578
9727.000000;1.061130
9726.000000;1.060655
9725.000000;1.060053
9724.000000;1.059522
9723.000000;1.059276
9722.000000;1.059396
9721.000000;1.059765
9720.000000;1.060084
9719.000000;1.060130
9718.000000;1.060055
9717.000000;1.060183
9716.000000;1.060430
9715.000000;1.060181
9714.000000;1.058922
9713.000000;1.056841
9712.000000;1.054660
9711.000000;1.053037
9710.000000;1.052238
9709.000000;1.052140
9708.000000;1.052268
9707.000000;1.051959
9706.000000;1.050811
9705.000000;1.049072
9704.000000;1.047452
9703.000000;1.046527
9702.000000;1.046407
9701.000000;1.046877
9700.000000;1.047628
9699.000000;1.048268
9698.000000;1.048311
9697.000000;1.047437
9696.000000;1.045792
9695.000000;1.043922
9694.000000;1.042327
9693.000000;1.041156
9692.000000;1.040375
9691.000000;1.040050
9690.000000;1.040248
9689.000000;1.040649
9688.000000;1.040603
9687.000000;1.039749
9686.000000;1.038459
9685.000000;1.037428
9684.000000;1.036920
9683.000000;1.036647
9682.000000;1.036303
9681.000000;1.035933
9680.000000;1.035704
9679.000000;1.035612
9678.000000;1.035530
9677.000000;1.035353
9676.000000;1.034939
9675.000000;1.034066
9674.000000;1.032646
9673.000000;1.030927
9672.000000;1.029320
9671.000000;1.028053
9670.000000;1.027106
9669.000000;1.026434
9668.000000;1.026086
9667.000000;1.026069
9666.000000;1.026198
9665.000000;1.026166
9664.000000;1.025757
9663.000000;1.024977
9662.000000;1.024027
9661.000000;1.023154
9660.000000;1.022516
9659.000000;1.022167
9658.000000;1.022100
9657.000000;1.022208
9656.000000;1.022196
9655.000000;1.021627
9654.000000;1.020204
9653.000000;1.018098
9652.000000;1.015981
9651.000000;1.014636
9650.000000;1.014406
9649.000000;1.014931
9648.000000;1.015437
9647.000000;1.015344
9646.000000;1.014645
9645.000000;1.013726
9644.000000;1.012942
9643.000000;1.012426
9642.000000;1.012174
9641.000000;1.012090
9640.000000;1.011946
9639.000000;1.011476
9638.000000;1.010610
9637.000000;1.009550
9636.000000;1.008568
9635.000000;1.007838
9634.000000;1.007432
9633.000000;1.007323
9632.000000;1.007285
9631.000000;1.006944
9630.000000;1.006086
9629.000000;1.004893
9628.000000;1.003805
9627.000000;1.003179
9626.000000;1.003063
9625.000000;1.003187
9624.000000;1.003097
9623.000000;1.002459
9622.000000;1.001372
9621.000000;1.000345
9620.000000;0.999810
9619.000000;0.999672
9618.000000;0.999441
9617.000000;0.998780
9616.000000;0.997833
9615.000000;0.997028
9614.000000;0.996634
9613.000000;0.996503
9612.000000;0.996208
9611.000000;0.995436
9610.000000;0.994236
9609.000000;0.992924
9608.000000;0.991792
9607.000000;0.990955
9606.000000;0.990416
9605.000000;0.990113
9604.000000;0.989916
9603.000000;0.989722
9602.000000;0.989585
9601.000000;0.989565
9600.000000;0.989409
9599.000000;0.988646
9598.000000;0.987223
9597.000000;0.985793
9596.000000;0.985093
9595.000000;0.985135
9594.000000;0.985296
9593.000000;0.985099
9592.000000;0.984604
9591.000000;0.984064
9590.000000;0.983571
9589.000000;0.983129
9588.000000;0.982708
9587.000000;0.982047
9586.000000;0.980726
9585.000000;0.978707
9584.000000;0.976614
9583.000000;0.975235
9582.000000;0.974800
9581.000000;0.974894
9580.000000;0.974964
9579.000000;0.974711
9578.000000;0.974095
9577.000000;0.973244
9576.000000;0.972402
9575.000000;0.971788
9574.000000;0.971416
9573.000000;0.971152
9572.000000;0.970957
9571.000000;0.970924
9570.000000;0.971016
9569.000000;0.970908
9568.000000;0.970243
9567.000000;0.969015
9566.000000;0.967597
9565.000000;0.966395
9564.000000;0.965566
9563.000000;0.965082
9562.000000;0.964951
9561.000000;0.965239
9560.000000;0.965865
9559.000000;0.966509
9558.000000;0.966825
9557.000000;0.966697
9556.000000;0.966189
9555.000000;0.965341
9554.000000;0.964229
9553.000000;0.963160
9552.000000;0.962490
9551.000000;0.962177
9550.000000;0.961738
9549.000000;0.960810
9548.000000;0.959599
9547.000000;0.958617
9546.000000;0.958131
9545.000000;0.958030
9544.000000;0.958048
9543.000000;0.957880
9542.000000;0.957216
9541.000000;0.955984
9540.000000;0.954564
9539.000000;0.953504
9538.000000;0.952958
9537.000000;0.952584
9536.000000;0.951993
9535.000000;0.951133
9534.000000;0.950212
9533.000000;0.949449
9532.000000;0.948940
9531.000000;0.948598
9530.000000;0.948143
9529.000000;0.947313
9528.000000;0.946185
9527.000000;0.945186
9526.000000;0.944679
9525.000000;0.944610
9524.000000;0.944572
9523.000000;0.944189
9522.000000;0.943427
9521.000000;0.942628
9520.000000;0.942216
9519.000000;0.942272
9518.000000;0.942437
9517.000000;0.942338
9516.000000;0.942038
9515.000000;0.941892
9514.000000;0.942060
9513.000000;0.942396
9512.000000;0.942737
9511.000000;0.942951
9510.000000;0.942738
9509.000000;0.941797
9508.000000;0.940366
9507.000000;0.939188
9506.000000;0.938676
9505.000000;0.938428
9504.000000;0.937854
9503.000000;0.937003
9502.000000;0.936352
9501.000000;0.935980
9500.000000;0.935461
9499.000000;0.934623
9498.000000;0.933956
9497.000000;0.934028
9496.000000;0.934719
9495.000000;0.935243
9494.000000;0.934869
9493.000000;0.933566
9492.000000;0.931947
9491.000000;0.930681
9490.000000;0.929979
9489.000000;0.929604
9488.000000;0.929248
9487.000000;0.928769
9486.000000;0.928119
9485.000000;0.927327
9484.000000;0.926633
9483.000000;0.926345
9482.000000;0.926369
9481.000000;0.926127
9480.000000;0.925207
9479.000000;0.923933
9478.000000;0.923009
9477.000000;0.922698
9476.000000;0.922670
9475.000000;0.922550
9474.000000;0.922275
9473.000000;0.921911
9472.000000;0.921466
9471.000000;0.920979
9470.000000;0.920506
9469.000000;0.919916
9468.000000;0.918967
9467.000000;0.917752
9466.000000;0.916851
9465.000000;0.916775
9464.000000;0.917337
9463.000000;0.917741
9462.000000;0.917348
9461.000000;0.916262
9460.000000;0.915141
9459.000000;0.914479
9458.000000;0.914172
9457.000000;0.913808
9456.000000;0.913260
9455.000000;0.912768
9454.000000;0.912426
9453.000000;0.911903
9452.000000;0.910886
9451.000000;0.909599
9450.000000;0.908589
9449.000000;0.908127
9448.000000;0.908103
9447.000000;0.908393
9446.000000;0.908916
9445.000000;0.909278
9444.000000;0.908835
9443.000000;0.907362
9442.000000;0.905499
9441.000000;0.904270
9440.000000;0.904222
9439.000000;0.905034
9438.000000;0.905838
9437.000000;0.905906
9436.000000;0.905161
9435.000000;0.904093
9434.000000;0.903139
9433.000000;0.902221
9432.000000;0.901060
9431.000000;0.899775
9430.000000;0.898841
9429.000000;0.898473
9428.000000;0.898369
9427.000000;0.898152
9426.000000;0.897763
9425.000000;0.897296
9424.000000;0.896768
9423.000000;0.896252
9422.000000;0.895986
9421.000000;0.896065
9420.000000;0.896187
9419.000000;0.895924
9418.000000;0.895224
9417.000000;0.894438
9416.000000;0.893930
9415.000000;0.893760
9414.000000;0.893693
9413.000000;0.893404
9412.000000;0.892753
9411.000000;0.891915
9410.000000;0.891177
9409.000000;0.890637
9408.000000;0.890240
9407.000000;0.890052
9406.000000;0.890176
9405.000000;0.890310
9404.000000;0.889806
9403.000000;0.888441
9402.000000;0.886846
9401.000000;0.885828
9400.000000;0.885425
9399.000000;0.885017
9398.000000;0.884268
9397.000000;0.883574
9396.000000;0.883457
9395.000000;0.883837
9394.000000;0.884098
9393.000000;0.883718
9392.000000;0.882691
9391.000000;0.881423
9390.000000;0.880321
9389.000000;0.879524
9388.000000;0.878963
9387.000000;0.878598
9386.000000;0.878512
9385.000000;0.878752
9384.000000;0.879173
9383.000000;0.879528
9382.000000;0.879645
9381.000000;0.879487
9380.000000;0.879136
9379.000000;0.878745
9378.000000;0.878428
9377.000000;0.878111
9376.000000;0.877583
9375.000000;0.876762
9374.000000;0.875849
9373.000000;0.875138
9372.000000;0.874757
9371.000000;0.874641
9370.000000;0.874619
9369.000000;0.874439
9368.000000;0.873847
9367.000000;0.872780
9366.000000;0.871451
9365.000000;0.870165
9364.000000;0.869147
9363.000000;0.868575
9362.000000;0.868545
9361.000000;0.868830
9360.000000;0.868857
9359.000000;0.868235
9358.000000;0.867267
9357.000000;0.866670
9356.000000;0.866749
9355.000000;0.867043
9354.000000;0.866879
9353.000000;0.866120
9352.000000;0.865220
9351.000000;0.864641
9350.000000;0.864361
9349.000000;0.863991
9348.000000;0.863276
9347.000000;0.862360
9346.000000;0.861523
9345.000000;0.860826
9344.000000;0.860130
9343.000000;0.859403
9342.000000;0.858813
9341.000000;0.858531
9340.000000;0.858601
9339.000000;0.859031
9338.000000;0.859831
9337.000000;0.860831
9336.000000;0.861617
9335.000000;0.861761
9334.000000;0.861091
9333.000000;0.859712
9332.000000;0.857932
9331.000000;0.856216
9330.000000;0.855001
9329.000000;0.854390
9328.000000;0.854139
9327.000000;0.853996
9326.000000;0.853924
9325.000000;0.853901
9324.000000;0.853727
9323.000000;0.853228
9322.000000;0.852544
9321.000000;0.852013
9320.000000;0.851827
9319.000000;0.851923
9318.000000;0.852117
9317.000000;0.852226
9316.000000;0.852130
9315.000000;0.851835
9314.000000;0.851383
9313.000000;0.850698
9312.000000;0.849697
9311.000000;0.848645
9310.000000;0.848087
9309.000000;0.848202
9308.000000;0.848473
9307.000000;0.848271
9306.000000;0.847601
9305.000000;0.846977
9304.000000;0.846715
9303.000000;0.846693
9302.000000;0.846717
9301.000000;0.846736
9300.000000;0.846677
9299.000000;0.846381
9298.000000;0.845778
9297.000000;0.844907
9296.000000;0.843768
9295.000000;0.842443
9294.000000;0.841350
9293.000000;0.841038
9292.000000;0.841576
9291.000000;0.842330
9290.000000;0.842508
9289.000000;0.841868
9288.000000;0.840827
9287.000000;0.840049
9286.000000;0.839969
9285.000000;0.840528
9284.000000;0.841221
9283.000000;0.841445
9282.000000;0.840918
9281.000000;0.839810
9280.000000;0.838567
9279.000000;0.837658
9278.000000;0.837342
9277.000000;0.837483
9276.000000;0.837615
9275.000000;0.837335
9274.000000;0.836639
9273.000000;0.835810
9272.000000;0.835084
9271.000000;0.834572
9270.000000;0.834378
9269.000000;0.834528
9268.000000;0.834778
9267.000000;0.834729
9266.000000;0.834210
9265.000000;0.833421
9264.000000;0.832711
9263.000000;0.832326
9262.000000;0.832268
9261.000000;0.832222
9260.000000;0.831733
9259.000000;0.830672
9258.000000;0.829475
9257.000000;0.828676
9256.000000;0.828320
9255.000000;0.828115
9254.000000;0.827998
9253.000000;0.828138
9252.000000;0.828414
9251.000000;0.828408
9250.000000;0.828067
9249.000000;0.827896
9248.000000;0.828232
9247.000000;0.828685
9246.000000;0.828588
9245.000000;0.827767
9244.000000;0.826636
9243.000000;0.825712
9242.000000;0.825255
9241.000000;0.825179
9240.000000;0.825111
9239.000000;0.824712
9238.000000;0.824114
9237.000000;0.823802
9236.000000;0.823876
9235.000000;0.823752
9234.000000;0.822909
9233.000000;0.821642
9232.000000;0.820671
9231.000000;0.820207
9230.000000;0.819895
9229.000000;0.819547
9228.000000;0.819389
9227.000000;0.819484
9226.000000;0.819449
9225.000000;0.818993
9224.000000;0.818399
9223.000000;0.818155
9222.000000;0.818312
9221.000000;0.818485
9220.000000;0.818410
9219.000000;0.818224
9218.000000;0.818208
9217.000000;0.818403
9216.000000;0.818544
9215.000000;0.818327
9214.000000;0.817707
9213.000000;0.816967
9212.000000;0.816455
9211.000000;0.816261
9210.000000;0.816158
9209.000000;0.815857
9208.000000;0.815279
9207.000000;0.814566
9206.000000;0.813912
9205.000000;0.813433
9204.000000;0.813154
9203.000000;0.813041
9202.000000;0.813029
9201.000000;0.813024
9200.000000;0.812916
9199.000000;0.812649
9198.000000;0.812310
9197.000000;0.812063
9196.000000;0.811941
9195.000000;0.811768
9194.000000;0.811363
9193.000000;0.810769
9192.000000;0.810172
9191.000000;0.809647
9190.000000;0.809123
9189.000000;0.808629
9188.000000;0.808372
9187.000000;0.808468
9186.000000;0.808664
9185.000000;0.808483
9184.000000;0.807674
9183.000000;0.806505
9182.000000;0.805609
9181.000000;0.805525
9180.000000;0.806310
9179.000000;0.807444
9178.000000;0.808106
9177.000000;0.807692
9176.000000;0.806265
9175.000000;0.804554
9174.000000;0.803412
9173.000000;0.803148
9172.000000;0.803378
9171.000000;0.803541
9170.000000;0.803488
9169.000000;0.803431
9168.000000;0.803402
9167.000000;0.803079
9166.000000;0.802261
9165.000000;0.801289
9164.000000;0.800704
9163.000000;0.800612
9162.000000;0.800639
9161.000000;0.800518
9160.000000;0.800385
9159.000000;0.800392
9158.000000;0.800307
9157.000000;0.799773
9156.000000;0.798851
9155.000000;0.798040
9154.000000;0.797759
9153.000000;0.797972
9152.000000;0.798320
9151.000000;0.798442
9150.000000;0.798161
9149.000000;0.797538
9148.000000;0.796860
9147.000000;0.796453
9146.000000;0.796384
9145.000000;0.796386
9144.000000;0.796180
9143.000000;0.795825
9142.000000;0.795625
9141.000000;0.795744
9140.000000;0.796047
9139.000000;0.796307
9138.000000;0.796450
9137.000000;0.796532
9136.000000;0.796579
9135.000000;0.796509
9134.000000;0.796167
9133.000000;0.795444
9132.000000;0.794411
9131.000000;0.793364
9130.000000;0.792644
9129.000000;0.792358
9128.000000;0.792323
9127.000000;0.792307
9126.000000;0.792234
9125.000000;0.792143
9124.000000;0.792050
9123.000000;0.791954
9122.000000;0.791899
9121.000000;0.791887
9120.000000;0.791744
9119.000000;0.791226
9118.000000;0.790316
9117.000000;0.789342
9116.000000;0.788719
9115.000000;0.788604
9114.000000;0.788841
9113.000000;0.789211
9112.000000;0.789637
9111.000000;0.790106
9110.000000;0.790459
9109.000000;0.790407
9108.000000;0.789832
9107.000000;0.788983
9106.000000;0.788251
9105.000000;0.787778
9104.000000;0.787397
9103.000000;0.786929
9102.000000;0.786439
9101.000000;0.786168
9100.000000;0.786308
9099.000000;0.786824
9098.000000;0.787373
9097.000000;0.787407
9096.000000;0.786594
9095.000000;0.785263
9094.000000;0.784253
9093.000000;0.784144
9092.000000;0.784727
9091.000000;0.785303
9090.000000;0.785393
9089.000000;0.785011
9088.000000;0.784407
9087.000000;0.783790
9086.000000;0.783286
9085.000000;0.782904
9084.000000;0.782516
9083.000000;0.782026
9082.000000;0.781596
9081.000000;0.781514
9080.000000;0.781799
9079.000000;0.782108
9078.000000;0.782106
9077.000000;0.781780
9076.000000;0.781317
9075.000000;0.780838
9074.000000;0.780388
9073.000000;0.780086
9072.000000;0.780136
9071.000000;0.780655
9070.000000;0.781542
9069.000000;0.782469
9068.000000;0.783007
9067.000000;0.782870
9066.000000;0.782110
9065.000000;0.781035
9064.000000;0.779920
9063.000000;0.778866
9062.000000;0.777947
9061.000000;0.777329
9060.000000;0.777127
9059.000000;0.777251
9058.000000;0.777525
9057.000000;0.777882
9056.000000;0.778320
9055.000000;0.778702
9054.000000;0.778786
9053.000000;0.778500
