Criado como novo conjunto de dados;"1909daniel.spp","-4265264.0 Secs"
cm-1;Abs
10000.000000;1.654973
9999.000000;1.654766
9998.000000;1.652656
9997.000000;1.649152
9996.000000;1.646316
9995.000000;1.645097
9994.000000;1.644976
9993.000000;1.644818
9992.000000;1.644507
9991.000000;1.644600
9990.000000;1.645339
9989.000000;1.646190
9988.000000;1.646544
9987.000000;1.646373
9986.000000;1.646113
9985.000000;1.646029
9984.000000;1.645894
9983.000000;1.645224
9982.000000;1.643770
9981.000000;1.641818
9980.000000;1.640010
9979.000000;1.638803
9978.000000;1.638051
9977.000000;1.637082
9976.000000;1.635240
9975.000000;1.632492
9974.000000;1.629693
9973.000000;1.628194
9972.000000;1.628884
9971.000000;1.631338
9970.000000;1.633929
9969.000000;1.635045
9968.000000;1.634347
9967.000000;1.632766
9966.000000;1.631364
9965.000000;1.630497
9964.000000;1.629874
9963.000000;1.628993
9962.000000;1.627470
9961.000000;1.625285
9960.000000;1.622871
9959.000000;1.620865
9958.000000;1.619718
9957.000000;1.619591
9956.000000;1.620450
9955.000000;1.622003
9954.000000;1.623543
9953.000000;1.624178
9952.000000;1.623488
9951.000000;1.621918
9950.000000;1.620421
9949.000000;1.619771
9948.000000;1.620034
9947.000000;1.620411
9946.000000;1.619772
9945.000000;1.617822
9944.000000;1.615636
9943.000000;1.614562
9942.000000;1.614537
9941.000000;1.613995
9940.000000;1.611693
9939.000000;1.608189
9938.000000;1.605251
9937.000000;1.604189
9936.000000;1.605031
9935.000000;1.606824
9934.000000;1.608243
9933.000000;1.608202
9932.000000;1.606539
9931.000000;1.604175
9930.000000;1.602334
9929.000000;1.601586
9928.000000;1.601686
9927.000000;1.602065
9926.000000;1.602311
9925.000000;1.602359
9924.000000;1.602469
9923.000000;1.602950
9922.000000;1.603619
9921.000000;1.603627
9920.000000;1.602182
9919.000000;1.599549
9918.000000;1.596999
9917.000000;1.595584
9916.000000;1.595109
9915.000000;1.594542
9914.000000;1.593422
9913.000000;1.592509
9912.000000;1.592720
9911.000000;1.593727
9910.000000;1.594235
9909.000000;1.593652
9908.000000;1.592696
9907.000000;1.591933
9906.000000;1.590608
9905.000000;1.587888
9904.000000;1.584762
9903.000000;1.583322
9902.000000;1.584097
9901.000000;1.585270
9900.000000;1.584978
9899.000000;1.583473
9898.000000;1.582198
9897.000000;1.581588
9896.000000;1.580919
9895.000000;1.579818
9894.000000;1.578734
9893.000000;1.577963
9892.000000;1.577227
9891.000000;1.576427
9890.000000;1.575997
9889.000000;1.576161
9888.000000;1.576347
9887.000000;1.575795
9886.000000;1.574454
9885.000000;1.572894
9884.000000;1.571554
9883.000000;1.570438
9882.000000;1.569489
9881.000000;1.569095
9880.000000;1.569955
9879.000000;1.572247
9878.000000;1.574926
9877.000000;1.576212
9876.000000;1.575139
9875.000000;1.572549
9874.000000;1.570221
9873.000000;1.569102
9872.000000;1.568596
9871.000000;1.567449
9870.000000;1.565076
9869.000000;1.562046
9868.000000;1.559536
9867.000000;1.558512
9866.000000;1.559243
9865.000000;1.561284
9864.000000;1.563777
9863.000000;1.565736
9862.000000;1.566211
9861.000000;1.564592
9860.000000;1.561163
9859.000000;1.557339
9858.000000;1.554942
9857.000000;1.554844
9856.000000;1.556181
9855.000000;1.557096
9854.000000;1.556431
9853.000000;1.554636
9852.000000;1.552925
9851.000000;1.551838
9850.000000;1.550893
9849.000000;1.549519
9848.000000;1.547847
9847.000000;1.546366
9846.000000;1.545220
9845.000000;1.544275
9844.000000;1.543568
9843.000000;1.543233
9842.000000;1.543121
9841.000000;1.542944
9840.000000;1.542749
9839.000000;1.542812
9838.000000;1.543070
9837.000000;1.543070
9836.000000;1.542495
9835.000000;1.541414
9834.000000;1.540077
9833.000000;1.538819
9832.000000;1.538057
9831.000000;1.537945
9830.000000;1.538110
9829.000000;1.538181
9828.000000;1.538457
9827.000000;1.539420
9826.000000;1.540691
9825.000000;1.541158
9824.000000;1.540236
9823.000000;1.538435
9822.000000;1.536373
9821.000000;1.533930
9820.000000;1.531022
9819.000000;1.528406
9818.000000;1.526996
9817.000000;1.526890
9816.000000;1.527455
9815.000000;1.527941
9814.000000;1.527671
9813.000000;1.526181
9812.000000;1.523779
9811.000000;1.521577
9810.000000;1.520482
9809.000000;1.520419
9808.000000;1.520758
9807.000000;1.520982
9806.000000;1.520556
9805.000000;1.518808
9804.000000;1.515746
9803.000000;1.512658
9802.000000;1.511180
9801.000000;1.511808
9800.000000;1.513670
9799.000000;1.515458
9798.000000;1.516224
9797.000000;1.515647
9796.000000;1.514104
9795.000000;1.512404
9794.000000;1.511074
9793.000000;1.510036
9792.000000;1.509112
9791.000000;1.508399
9790.000000;1.507815
9789.000000;1.506900
9788.000000;1.505619
9787.000000;1.504785
9786.000000;1.504986
9785.000000;1.505547
9784.000000;1.505335
9783.000000;1.504256
9782.000000;1.503136
9781.000000;1.502433
9780.000000;1.501978
9779.000000;1.501740
9778.000000;1.501809
9777.000000;1.501687
9776.000000;1.500620
9775.000000;1.498817
9774.000000;1.497428
9773.000000;1.497037
9772.000000;1.496979
9771.000000;1.496443
9770.000000;1.495508
9769.000000;1.494675
9768.000000;1.494016
9767.000000;1.493313
9766.000000;1.492571
9765.000000;1.491921
9764.000000;1.491267
9763.000000;1.490468
9762.000000;1.489651
9761.000000;1.489114
9760.000000;1.489041
9759.000000;1.489450
9758.000000;1.490138
9757.000000;1.490537
9756.000000;1.489938
9755.000000;1.488226
9754.000000;1.486237
9753.000000;1.485110
9752.000000;1.485293
9751.000000;1.486227
9750.000000;1.486864
9749.000000;1.486440
9748.000000;1.484884
9747.000000;1.482663
9746.000000;1.480401
9745.000000;1.478724
9744.000000;1.478194
9743.000000;1.478901
9742.000000;1.479996
9741.000000;1.480245
9740.000000;1.479420
9739.000000;1.478632
9738.000000;1.478763
9737.000000;1.479067
9736.000000;1.478088
9735.000000;1.475716
9734.000000;1.473343
9733.000000;1.471930
9732.000000;1.471020
9731.000000;1.469990
9730.000000;1.469350
9729.000000;1.469980
9728.000000;1.471548
9727.000000;1.472513
9726.000000;1.471716
9725.000000;1.469443
9724.000000;1.466782
9723.000000;1.464421
9722.000000;1.462400
9721.000000;1.460754
9720.000000;1.459864
9719.000000;1.460012
9718.000000;1.460831
9717.000000;1.461446
9716.000000;1.461167
9715.000000;1.459911
9714.000000;1.458036
9713.000000;1.456157
9712.000000;1.455127
9711.000000;1.455579
9710.000000;1.457113
9709.000000;1.458279
9708.000000;1.457903
9707.000000;1.456241
9706.000000;1.454422
9705.000000;1.453100
9704.000000;1.452239
9703.000000;1.451909
9702.000000;1.452448
9701.000000;1.453662
9700.000000;1.454524
9699.000000;1.454081
9698.000000;1.452371
9697.000000;1.450196
9696.000000;1.448260
9695.000000;1.446808
9694.000000;1.445876
9693.000000;1.445446
9692.000000;1.445351
9691.000000;1.445154
9690.000000;1.444233
9689.000000;1.442208
9688.000000;1.439419
9687.000000;1.436885
9686.000000;1.435577
9685.000000;1.435761
9684.000000;1.437056
9683.000000;1.438855
9682.000000;1.440414
9681.000000;1.440817
9680.000000;1.439507
9679.000000;1.437034
9678.000000;1.434778
9677.000000;1.433697
9676.000000;1.433465
9675.000000;1.432987
9674.000000;1.431654
9673.000000;1.429935
9672.000000;1.428717
9671.000000;1.428244
9670.000000;1.427876
9669.000000;1.426988
9668.000000;1.425895
9667.000000;1.425519
9666.000000;1.426142
9665.000000;1.426915
9664.000000;1.426815
9663.000000;1.425759
9662.000000;1.424507
9661.000000;1.423761
9660.000000;1.423669
9659.000000;1.423943
9658.000000;1.424084
9657.000000;1.423626
9656.000000;1.422486
9655.000000;1.421046
9654.000000;1.419783
9653.000000;1.418985
9652.000000;1.418851
9651.000000;1.419405
9650.000000;1.420069
9649.000000;1.419808
9648.000000;1.418216
9647.000000;1.416118
9646.000000;1.414620
9645.000000;1.413912
9644.000000;1.413474
9643.000000;1.413075
9642.000000;1.412903
9641.000000;1.412891
9640.000000;1.412674
9639.000000;1.412138
9638.000000;1.411377
9637.000000;1.410228
9636.000000;1.408560
9635.000000;1.406949
9634.000000;1.406310
9633.000000;1.406760
9632.000000;1.407511
9631.000000;1.408045
9630.000000;1.408624
9629.000000;1.409323
9628.000000;1.409344
9627.000000;1.407941
9626.000000;1.405573
9625.000000;1.403480
9624.000000;1.402322
9623.000000;1.401723
9622.000000;1.400998
9621.000000;1.399991
9620.000000;1.399125
9619.000000;1.398848
9618.000000;1.399176
9617.000000;1.399791
9616.000000;1.400493
9615.000000;1.401317
9614.000000;1.402079
9613.000000;1.402069
9612.000000;1.400613
9611.000000;1.397850
9610.000000;1.394619
9609.000000;1.391659
9608.000000;1.389303
9607.000000;1.387776
9606.000000;1.387227
9605.000000;1.387354
9604.000000;1.387510
9603.000000;1.387424
9602.000000;1.387503
9601.000000;1.388182
9600.000000;1.389224
9599.000000;1.389930
9598.000000;1.389854
9597.000000;1.389053
9596.000000;1.387750
9595.000000;1.386048
9594.000000;1.384067
9593.000000;1.382190
9592.000000;1.380881
9591.000000;1.380199
9590.000000;1.379697
9589.000000;1.379005
9588.000000;1.378373
9587.000000;1.378308
9586.000000;1.378704
9585.000000;1.378810
9584.000000;1.378252
9583.000000;1.377547
9582.000000;1.377301
9581.000000;1.377375
9580.000000;1.377286
9579.000000;1.376938
9578.000000;1.376346
9577.000000;1.375111
9576.000000;1.373024
9575.000000;1.370896
9574.000000;1.369827
9573.000000;1.369643
9572.000000;1.368955
9571.000000;1.367023
9570.000000;1.364776
9569.000000;1.363665
9568.000000;1.364211
9567.000000;1.365910
9566.000000;1.367842
9565.000000;1.369087
9564.000000;1.369111
9563.000000;1.368225
9562.000000;1.367344
9561.000000;1.366973
9560.000000;1.366787
9559.000000;1.366442
9558.000000;1.366191
9557.000000;1.366231
9556.000000;1.366001
9555.000000;1.364830
9554.000000;1.362988
9553.000000;1.361379
9552.000000;1.360301
9551.000000;1.359145
9550.000000;1.357366
9549.000000;1.355213
9548.000000;1.353341
9547.000000;1.352155
9546.000000;1.351764
9545.000000;1.352212
9544.000000;1.353328
9543.000000;1.354451
9542.000000;1.354691
9541.000000;1.353691
9540.000000;1.352025
9539.000000;1.350676
9538.000000;1.350173
9537.000000;1.350330
9536.000000;1.350633
9535.000000;1.350630
9534.000000;1.350018
9533.000000;1.348675
9532.000000;1.346854
9531.000000;1.345161
9530.000000;1.344082
9529.000000;1.343576
9528.000000;1.343231
9527.000000;1.342743
9526.000000;1.342144
9525.000000;1.341737
9524.000000;1.341920
9523.000000;1.342856
9522.000000;1.344086
9521.000000;1.344675
9520.000000;1.344041
9519.000000;1.342593
9518.000000;1.341329
9517.000000;1.340886
9516.000000;1.341148
9515.000000;1.341516
9514.000000;1.341312
9513.000000;1.340121
9512.000000;1.338091
9511.000000;1.335856
9510.000000;1.334007
9509.000000;1.332796
9508.000000;1.332346
9507.000000;1.332730
9506.000000;1.333514
9505.000000;1.333671
9504.000000;1.332468
9503.000000;1.330337
9502.000000;1.328513
9501.000000;1.327889
9500.000000;1.328449
9499.000000;1.329573
9498.000000;1.330421
9497.000000;1.330243
9496.000000;1.328904
9495.000000;1.327095
9494.000000;1.325681
9493.000000;1.324934
9492.000000;1.324636
9491.000000;1.324555
9490.000000;1.324409
9489.000000;1.323738
9488.000000;1.322456
9487.000000;1.321267
9486.000000;1.320912
9485.000000;1.321209
9484.000000;1.321438
9483.000000;1.321376
9482.000000;1.321243
9481.000000;1.320894
9480.000000;1.320077
9479.000000;1.319387
9478.000000;1.319849
9477.000000;1.321300
9476.000000;1.322181
9475.000000;1.321403
9474.000000;1.319581
9473.000000;1.317922
9472.000000;1.316739
9471.000000;1.315688
9470.000000;1.314768
9469.000000;1.314244
9468.000000;1.313963
9467.000000;1.313499
9466.000000;1.312811
9465.000000;1.312181
9464.000000;1.311621
9463.000000;1.310817
9462.000000;1.309641
9461.000000;1.308319
9460.000000;1.307085
9459.000000;1.305955
9458.000000;1.304898
9457.000000;1.304055
9456.000000;1.303684
9455.000000;1.303842
9454.000000;1.304119
9453.000000;1.303893
9452.000000;1.303067
9451.000000;1.302325
9450.000000;1.302257
9449.000000;1.302415
9448.000000;1.301832
9447.000000;1.300448
9446.000000;1.299344
9445.000000;1.299383
9444.000000;1.300231
9443.000000;1.300919
9442.000000;1.300808
9441.000000;1.299720
9440.000000;1.297739
9439.000000;1.295403
9438.000000;1.293618
9437.000000;1.292878
9436.000000;1.292868
9435.000000;1.293164
9434.000000;1.293976
9433.000000;1.295642
9432.000000;1.297602
9431.000000;1.298469
9430.000000;1.297195
9429.000000;1.294008
9428.000000;1.290306
9427.000000;1.287778
9426.000000;1.287358
9425.000000;1.288600
9424.000000;1.290097
9423.000000;1.290729
9422.000000;1.290461
9421.000000;1.289887
9420.000000;1.289382
9419.000000;1.288963
9418.000000;1.288608
9417.000000;1.288252
9416.000000;1.287610
9415.000000;1.286451
9414.000000;1.284997
9413.000000;1.283738
9412.000000;1.282910
9411.000000;1.282454
9410.000000;1.282347
9409.000000;1.282563
9408.000000;1.282704
9407.000000;1.282110
9406.000000;1.280604
9405.000000;1.278970
9404.000000;1.278415
9403.000000;1.279444
9402.000000;1.281166
9401.000000;1.281825
9400.000000;1.280360
9399.000000;1.277615
9398.000000;1.275700
9397.000000;1.275964
9396.000000;1.277686
9395.000000;1.278836
9394.000000;1.278054
9393.000000;1.275721
9392.000000;1.273203
9391.000000;1.271439
9390.000000;1.270353
9389.000000;1.269337
9388.000000;1.268046
9387.000000;1.266762
9386.000000;1.266081
9385.000000;1.266330
9384.000000;1.267286
9383.000000;1.268418
9382.000000;1.269286
9381.000000;1.269741
9380.000000;1.269823
9379.000000;1.269540
9378.000000;1.268800
9377.000000;1.267636
9376.000000;1.266381
9375.000000;1.265422
9374.000000;1.264810
9373.000000;1.264414
9372.000000;1.264442
9371.000000;1.265276
9370.000000;1.266530
9369.000000;1.266850
9368.000000;1.265295
9367.000000;1.262619
9366.000000;1.260461
9365.000000;1.259486
9364.000000;1.259070
9363.000000;1.258665
9362.000000;1.258584
9361.000000;1.259157
9360.000000;1.259863
9359.000000;1.259853
9358.000000;1.258979
9357.000000;1.257846
9356.000000;1.257085
9355.000000;1.256870
9354.000000;1.256886
9353.000000;1.256482
9352.000000;1.255121
9351.000000;1.252976
9350.000000;1.250874
9349.000000;1.249515
9348.000000;1.249022
9347.000000;1.249298
9346.000000;1.250287
9345.000000;1.251551
9344.000000;1.252108
9343.000000;1.251302
9342.000000;1.249669
9341.000000;1.248480
9340.000000;1.248507
9339.000000;1.249488
9338.000000;1.250588
9337.000000;1.251058
9336.000000;1.250561
9335.000000;1.249281
9334.000000;1.247773
9333.000000;1.246538
9332.000000;1.245728
9331.000000;1.245271
9330.000000;1.245120
9329.000000;1.245290
9328.000000;1.245755
9327.000000;1.246389
9326.000000;1.246867
9325.000000;1.246653
9324.000000;1.245457
9323.000000;1.243779
9322.000000;1.242574
9321.000000;1.242151
9320.000000;1.241784
9319.000000;1.240698
9318.000000;1.239177
9317.000000;1.238255
9316.000000;1.238519
9315.000000;1.239506
9314.000000;1.240097
9313.000000;1.239324
9312.000000;1.237060
9311.000000;1.234213
9310.000000;1.232122
9309.000000;1.231520
9308.000000;1.232112
9307.000000;1.233178
9306.000000;1.234227
9305.000000;1.234923
9304.000000;1.234891
9303.000000;1.234059
9302.000000;1.232948
9301.000000;1.232199
9300.000000;1.231953
9299.000000;1.231919
9298.000000;1.231804
9297.000000;1.231340
9296.000000;1.230221
9295.000000;1.228492
9294.000000;1.226849
9293.000000;1.226099
9292.000000;1.226371
9291.000000;1.227125
9290.000000;1.227778
9289.000000;1.227953
9288.000000;1.227420
9287.000000;1.226386
9286.000000;1.225726
9285.000000;1.226267
9284.000000;1.227740
9283.000000;1.228920
9282.000000;1.228919
9281.000000;1.227919
9280.000000;1.226547
9279.000000;1.225071
9278.000000;1.223511
9277.000000;1.222050
9276.000000;1.220923
9275.000000;1.220138
9274.000000;1.219625
9273.000000;1.219529
9272.000000;1.220054
9271.000000;1.220985
9270.000000;1.221689
9269.000000;1.221684
9268.000000;1.221046
9267.000000;1.220272
9266.000000;1.219817
9265.000000;1.219812
9264.000000;1.220151
9263.000000;1.220633
9262.000000;1.220911
9261.000000;1.220513
9260.000000;1.219269
9259.000000;1.217719
9258.000000;1.216710
9257.000000;1.216415
9256.000000;1.216086
9255.000000;1.215058
9254.000000;1.213711
9253.000000;1.213008
9252.000000;1.213230
9251.000000;1.213613
9250.000000;1.213253
9249.000000;1.211987
9248.000000;1.210333
9247.000000;1.208943
9246.000000;1.208259
9245.000000;1.208409
9244.000000;1.209188
9243.000000;1.210182
9242.000000;1.210980
9241.000000;1.211270
9240.000000;1.210849
9239.000000;1.209823
9238.000000;1.208784
9237.000000;1.208471
9236.000000;1.209112
9235.000000;1.210208
9234.000000;1.210987
9233.000000;1.210931
9232.000000;1.209958
9231.000000;1.208433
9230.000000;1.207072
9229.000000;1.206493
9228.000000;1.206629
9227.000000;1.206769
9226.000000;1.206348
9225.000000;1.205575
9224.000000;1.205063
9223.000000;1.204977
9222.000000;1.204854
9221.000000;1.204239
9220.000000;1.203276
9219.000000;1.202510
9218.000000;1.202239
9217.000000;1.202210
9216.000000;1.201938
9215.000000;1.201214
9214.000000;1.200285
9213.000000;1.199628
9212.000000;1.199598
9211.000000;1.200160
9210.000000;1.200800
9209.000000;1.200826
9208.000000;1.200019
9207.000000;1.198941
9206.000000;1.198369
9205.000000;1.198421
9204.000000;1.198514
9203.000000;1.198222
9202.000000;1.197782
9201.000000;1.197585
9200.000000;1.197612
9199.000000;1.197690
9198.000000;1.197921
9197.000000;1.198329
9196.000000;1.198359
9195.000000;1.197362
9194.000000;1.195562
9193.000000;1.193976
9192.000000;1.193324
9191.000000;1.193451
9190.000000;1.193886
9189.000000;1.194379
9188.000000;1.194693
9187.000000;1.194427
9186.000000;1.193531
9185.000000;1.192627
9184.000000;1.192354
9183.000000;1.192582
9182.000000;1.192649
9181.000000;1.192222
9180.000000;1.191491
9179.000000;1.190654
9178.000000;1.189651
9177.000000;1.188490
9176.000000;1.187483
9175.000000;1.186967
9174.000000;1.186972
9173.000000;1.187231
9172.000000;1.187395
9171.000000;1.187259
9170.000000;1.186927
9169.000000;1.186721
9168.000000;1.186742
9167.000000;1.186611
9166.000000;1.185896
9165.000000;1.184782
9164.000000;1.183948
9163.000000;1.183721
9162.000000;1.183740
9161.000000;1.183601
9160.000000;1.183495
9159.000000;1.183863
9158.000000;1.184632
9157.000000;1.185196
9156.000000;1.185117
9155.000000;1.184508
9154.000000;1.183691
9153.000000;1.182759
9152.000000;1.181606
9151.000000;1.180207
9150.000000;1.178730
9149.000000;1.177492
9148.000000;1.176819
9147.000000;1.176838
9146.000000;1.177372
9145.000000;1.178107
9144.000000;1.178807
9143.000000;1.179245
9142.000000;1.179076
9141.000000;1.178132
9140.000000;1.176874
9139.000000;1.176158
9138.000000;1.176347
9137.000000;1.176893
9136.000000;1.176980
9135.000000;1.176349
9134.000000;1.175259
9133.000000;1.173957
9132.000000;1.172631
9131.000000;1.171706
9130.000000;1.171666
9129.000000;1.172474
9128.000000;1.173501
9127.000000;1.174123
9126.000000;1.174133
9125.000000;1.173546
9124.000000;1.172397
9123.000000;1.170916
9122.000000;1.169619
9121.000000;1.168958
9120.000000;1.168983
9119.000000;1.169473
9118.000000;1.170255
9117.000000;1.171247
9116.000000;1.172320
9115.000000;1.173298
9114.000000;1.174018
9113.000000;1.174282
9112.000000;1.173863
9111.000000;1.172736
9110.000000;1.171236
9109.000000;1.169837
9108.000000;1.168810
9107.000000;1.168177
9106.000000;1.167887
9105.000000;1.167824
9104.000000;1.167728
9103.000000;1.167312
9102.000000;1.166585
9101.000000;1.165951
9100.000000;1.165888
9099.000000;1.166538
9098.000000;1.167569
9097.000000;1.168398
9096.000000;1.168618
9095.000000;1.168268
9094.000000;1.167708
9093.000000;1.167232
9092.000000;1.166872
9091.000000;1.166538
9090.000000;1.166174
9089.000000;1.165722
9088.000000;1.165116
9087.000000;1.164440
9086.000000;1.163957
9085.000000;1.163744
9084.000000;1.163443
9083.000000;1.162672
9082.000000;1.161668
9081.000000;1.161192
9080.000000;1.161592
9079.000000;1.162254
9078.000000;1.162276
9077.000000;1.161596
9076.000000;1.161087
9075.000000;1.161496
9074.000000;1.162574
9073.000000;1.163453
9072.000000;1.163638
9071.000000;1.163302
9070.000000;1.162699
9069.000000;1.161735
9068.000000;1.160364
9067.000000;1.159080
9066.000000;1.158594
9065.000000;1.159035
9064.000000;1.159750
9063.000000;1.159986
9062.000000;1.159642
9061.000000;1.159208
9060.000000;1.159109
9059.000000;1.159298
9058.000000;1.159480
9057.000000;1.159531
9056.000000;1.159562
9055.000000;1.159569
9054.000000;1.159191
9053.000000;1.158019
