Criado como novo conjunto de dados;"1909daniel.spp","-4292445.2 Secs"
cm-1;Abs
10000.000000;0.971444
9999.000000;0.970953
9998.000000;0.970846
9997.000000;0.970920
9996.000000;0.970526
9995.000000;0.969234
9994.000000;0.967245
9993.000000;0.965338
9992.000000;0.964171
9991.000000;0.963833
9990.000000;0.963910
9989.000000;0.963983
9988.000000;0.963912
9987.000000;0.963728
9986.000000;0.963410
9985.000000;0.962881
9984.000000;0.962123
9983.000000;0.961199
9982.000000;0.960177
9981.000000;0.959083
9980.000000;0.957936
9979.000000;0.956818
9978.000000;0.955901
9977.000000;0.955334
9976.000000;0.955056
9975.000000;0.954784
9974.000000;0.954352
9973.000000;0.953948
9972.000000;0.953784
9971.000000;0.953602
9970.000000;0.952879
9969.000000;0.951585
9968.000000;0.950360
9967.000000;0.949717
9966.000000;0.949437
9965.000000;0.948997
9964.000000;0.948305
9963.000000;0.947638
9962.000000;0.947094
9961.000000;0.946561
9960.000000;0.946100
9959.000000;0.945886
9958.000000;0.945762
9957.000000;0.945266
9956.000000;0.944222
9955.000000;0.942997
9954.000000;0.942028
9953.000000;0.941326
9952.000000;0.940544
9951.000000;0.939376
9950.000000;0.937834
9949.000000;0.936308
9948.000000;0.935385
9947.000000;0.935400
9946.000000;0.936061
9945.000000;0.936626
9944.000000;0.936500
9943.000000;0.935602
9942.000000;0.934215
9941.000000;0.932705
9940.000000;0.931390
9939.000000;0.930469
9938.000000;0.929983
9937.000000;0.929893
9936.000000;0.930129
9935.000000;0.930438
9934.000000;0.930318
9933.000000;0.929401
9932.000000;0.927892
9931.000000;0.926382
9930.000000;0.925213
9929.000000;0.924224
9928.000000;0.923122
9927.000000;0.921882
9926.000000;0.920728
9925.000000;0.919953
9924.000000;0.919748
9923.000000;0.920027
9922.000000;0.920400
9921.000000;0.920476
9920.000000;0.920200
9919.000000;0.919728
9918.000000;0.919061
9917.000000;0.918077
9916.000000;0.916858
9915.000000;0.915662
9914.000000;0.914583
9913.000000;0.913560
9912.000000;0.912744
9911.000000;0.912445
9910.000000;0.912591
9909.000000;0.912623
9908.000000;0.912117
9907.000000;0.911224
9906.000000;0.910278
9905.000000;0.909281
9904.000000;0.908058
9903.000000;0.906685
9902.000000;0.905456
9901.000000;0.904537
9900.000000;0.903904
9899.000000;0.903551
9898.000000;0.903502
9897.000000;0.903629
9896.000000;0.903646
9895.000000;0.903335
9894.000000;0.902684
9893.000000;0.901843
9892.000000;0.900996
9891.000000;0.900261
9890.000000;0.899629
9889.000000;0.898993
9888.000000;0.898233
9887.000000;0.897239
9886.000000;0.895982
9885.000000;0.894692
9884.000000;0.893877
9883.000000;0.893852
9882.000000;0.894240
9881.000000;0.894223
9880.000000;0.893420
9879.000000;0.892245
9878.000000;0.891290
9877.000000;0.890658
9876.000000;0.890105
9875.000000;0.889588
9874.000000;0.889294
9873.000000;0.889243
9872.000000;0.889181
9871.000000;0.888891
9870.000000;0.888369
9869.000000;0.887690
9868.000000;0.886874
9867.000000;0.885951
9866.000000;0.884996
9865.000000;0.884034
9864.000000;0.883027
9863.000000;0.882054
9862.000000;0.881379
9861.000000;0.881199
9860.000000;0.881299
9859.000000;0.881090
9858.000000;0.880125
9857.000000;0.878557
9856.000000;0.876966
9855.000000;0.875736
9854.000000;0.874782
9853.000000;0.873925
9852.000000;0.873234
9851.000000;0.872768
9850.000000;0.872221
9849.000000;0.871244
9848.000000;0.870049
9847.000000;0.869269
9846.000000;0.869150
9845.000000;0.869255
9844.000000;0.869064
9843.000000;0.868497
9842.000000;0.867645
9841.000000;0.866379
9840.000000;0.864606
9839.000000;0.862689
9838.000000;0.861237
9837.000000;0.860521
9836.000000;0.860381
9835.000000;0.860561
9834.000000;0.860864
9833.000000;0.861030
9832.000000;0.860860
9831.000000;0.860507
9830.000000;0.860361
9829.000000;0.860500
9828.000000;0.860471
9827.000000;0.859753
9826.000000;0.858323
9825.000000;0.856667
9824.000000;0.855368
9823.000000;0.854739
9822.000000;0.854680
9821.000000;0.854731
9820.000000;0.854348
9819.000000;0.853345
9818.000000;0.852083
9817.000000;0.851109
9816.000000;0.850590
9815.000000;0.850210
9814.000000;0.849639
9813.000000;0.848950
9812.000000;0.848432
9811.000000;0.848105
9810.000000;0.847625
9809.000000;0.846722
9808.000000;0.845535
9807.000000;0.844387
9806.000000;0.843361
9805.000000;0.842302
9804.000000;0.841198
9803.000000;0.840321
9802.000000;0.839925
9801.000000;0.839928
9800.000000;0.839988
9799.000000;0.839782
9798.000000;0.839147
9797.000000;0.838065
9796.000000;0.836698
9795.000000;0.835407
9794.000000;0.834551
9793.000000;0.834223
9792.000000;0.834236
9791.000000;0.834376
9790.000000;0.834574
9789.000000;0.834792
9788.000000;0.834817
9787.000000;0.834320
9786.000000;0.833189
9785.000000;0.831753
9784.000000;0.830596
9783.000000;0.830098
9782.000000;0.830122
9781.000000;0.830148
9780.000000;0.829709
9779.000000;0.828738
9778.000000;0.827513
9777.000000;0.826309
9776.000000;0.825154
9775.000000;0.823958
9774.000000;0.822807
9773.000000;0.821953
9772.000000;0.821464
9771.000000;0.821067
9770.000000;0.820500
9769.000000;0.819884
9768.000000;0.819507
9767.000000;0.819324
9766.000000;0.818981
9765.000000;0.818388
9764.000000;0.817885
9763.000000;0.817681
9762.000000;0.817435
9761.000000;0.816670
9760.000000;0.815412
9759.000000;0.814122
9758.000000;0.813120
9757.000000;0.812376
9756.000000;0.811780
9755.000000;0.811319
9754.000000;0.810962
9753.000000;0.810635
9752.000000;0.810321
9751.000000;0.809989
9750.000000;0.809430
9749.000000;0.808417
9748.000000;0.807072
9747.000000;0.805833
9746.000000;0.804947
9745.000000;0.804209
9744.000000;0.803319
9743.000000;0.802322
9742.000000;0.801542
9741.000000;0.801204
9740.000000;0.801217
9739.000000;0.801252
9738.000000;0.800955
9737.000000;0.800191
9736.000000;0.799178
9735.000000;0.798309
9734.000000;0.797766
9733.000000;0.797343
9732.000000;0.796741
9731.000000;0.795954
9730.000000;0.795283
9729.000000;0.794989
9728.000000;0.794979
9727.000000;0.794841
9726.000000;0.794182
9725.000000;0.792971
9724.000000;0.791546
9723.000000;0.790280
9722.000000;0.789282
9721.000000;0.788463
9720.000000;0.787783
9719.000000;0.787320
9718.000000;0.787118
9717.000000;0.787113
9716.000000;0.787211
9715.000000;0.787288
9714.000000;0.787152
9713.000000;0.786648
9712.000000;0.785848
9711.000000;0.784995
9710.000000;0.784215
9709.000000;0.783400
9708.000000;0.782427
9707.000000;0.781340
9706.000000;0.780271
9705.000000;0.779295
9704.000000;0.778428
9703.000000;0.777663
9702.000000;0.776932
9701.000000;0.776153
9700.000000;0.775413
9699.000000;0.774994
9698.000000;0.775075
9697.000000;0.775440
9696.000000;0.775585
9695.000000;0.775135
9694.000000;0.774101
9693.000000;0.772821
9692.000000;0.771724
9691.000000;0.771106
9690.000000;0.770968
9689.000000;0.770982
9688.000000;0.770652
9687.000000;0.769612
9686.000000;0.767876
9685.000000;0.765887
9684.000000;0.764279
9683.000000;0.763469
9682.000000;0.763383
9681.000000;0.763557
9680.000000;0.763530
9679.000000;0.763144
9678.000000;0.762543
9677.000000;0.761954
9676.000000;0.761514
9675.000000;0.761254
9674.000000;0.761122
9673.000000;0.760974
9672.000000;0.760564
9671.000000;0.759661
9670.000000;0.758281
9669.000000;0.756797
9668.000000;0.755709
9667.000000;0.755219
9666.000000;0.755067
9665.000000;0.754835
9664.000000;0.754370
9663.000000;0.753811
9662.000000;0.753289
9661.000000;0.752750
9660.000000;0.752081
9659.000000;0.751309
9658.000000;0.750592
9657.000000;0.750060
9656.000000;0.749681
9655.000000;0.749264
9654.000000;0.748616
9653.000000;0.747732
9652.000000;0.746798
9651.000000;0.745978
9650.000000;0.745248
9649.000000;0.744514
9648.000000;0.743791
9647.000000;0.743172
9646.000000;0.742654
9645.000000;0.742134
9644.000000;0.741546
9643.000000;0.740909
9642.000000;0.740232
9641.000000;0.739503
9640.000000;0.738789
9639.000000;0.738237
9638.000000;0.737917
9637.000000;0.737727
9636.000000;0.737484
9635.000000;0.737069
9634.000000;0.736487
9633.000000;0.735847
9632.000000;0.735260
9631.000000;0.734693
9630.000000;0.733972
9629.000000;0.733021
9628.000000;0.732061
9627.000000;0.731422
9626.000000;0.731151
9625.000000;0.730915
9624.000000;0.730347
9623.000000;0.729399
9622.000000;0.728333
9621.000000;0.727472
9620.000000;0.727004
9619.000000;0.726907
9618.000000;0.726965
9617.000000;0.726874
9616.000000;0.726415
9615.000000;0.725573
9614.000000;0.724518
9613.000000;0.723492
9612.000000;0.722657
9611.000000;0.722004
9610.000000;0.721405
9609.000000;0.720803
9608.000000;0.720287
9607.000000;0.719947
9606.000000;0.719673
9605.000000;0.719218
9604.000000;0.718457
9603.000000;0.717517
9602.000000;0.716650
9601.000000;0.716029
9600.000000;0.715648
9599.000000;0.715323
9598.000000;0.714793
9597.000000;0.713907
9596.000000;0.712744
9595.000000;0.711559
9594.000000;0.710618
9593.000000;0.710092
9592.000000;0.709983
9591.000000;0.710055
9590.000000;0.709930
9589.000000;0.709401
9588.000000;0.708620
9587.000000;0.707892
9586.000000;0.707318
9585.000000;0.706772
9584.000000;0.706150
9583.000000;0.705468
9582.000000;0.704755
9581.000000;0.704053
9580.000000;0.703515
9579.000000;0.703269
9578.000000;0.703143
9577.000000;0.702741
9576.000000;0.701906
9575.000000;0.700925
9574.000000;0.700162
9573.000000;0.699649
9572.000000;0.699174
9571.000000;0.698634
9570.000000;0.698095
9569.000000;0.697592
9568.000000;0.697069
9567.000000;0.696499
9566.000000;0.695928
9565.000000;0.695372
9564.000000;0.694816
9563.000000;0.694307
9562.000000;0.693917
9561.000000;0.693573
9560.000000;0.693045
9559.000000;0.692226
9558.000000;0.691318
9557.000000;0.690644
9556.000000;0.690283
9555.000000;0.689996
9554.000000;0.689516
9553.000000;0.688831
9552.000000;0.688129
9551.000000;0.687550
9550.000000;0.687092
9549.000000;0.686695
9548.000000;0.686297
9547.000000;0.685804
9546.000000;0.685125
9545.000000;0.684274
9544.000000;0.683363
9543.000000;0.682457
9542.000000;0.681526
9541.000000;0.680579
9540.000000;0.679760
9539.000000;0.679242
9538.000000;0.679089
9537.000000;0.679244
9536.000000;0.679532
9535.000000;0.679630
9534.000000;0.679212
9533.000000;0.678267
9532.000000;0.677196
9531.000000;0.676412
9530.000000;0.675919
9529.000000;0.675384
9528.000000;0.674554
9527.000000;0.673451
9526.000000;0.672242
9525.000000;0.671143
9524.000000;0.670416
9523.000000;0.670217
9522.000000;0.670355
9521.000000;0.670365
9520.000000;0.669922
9519.000000;0.669102
9518.000000;0.668208
9517.000000;0.667479
9516.000000;0.667027
9515.000000;0.666903
9514.000000;0.667057
9513.000000;0.667267
9512.000000;0.667225
9511.000000;0.666751
9510.000000;0.665933
9509.000000;0.665077
9508.000000;0.664463
9507.000000;0.664106
9506.000000;0.663760
9505.000000;0.663182
9504.000000;0.662358
9503.000000;0.661432
9502.000000;0.660512
9501.000000;0.659645
9500.000000;0.658881
9499.000000;0.658227
9498.000000;0.657604
9497.000000;0.656997
9496.000000;0.656576
9495.000000;0.656495
9494.000000;0.656582
9493.000000;0.656435
9492.000000;0.655843
9491.000000;0.654948
9490.000000;0.653978
9489.000000;0.653047
9488.000000;0.652235
9487.000000;0.651614
9486.000000;0.651089
9485.000000;0.650449
9484.000000;0.649707
9483.000000;0.649187
9482.000000;0.649095
9481.000000;0.649133
9480.000000;0.648786
9479.000000;0.647921
9478.000000;0.646906
9477.000000;0.646152
9476.000000;0.645711
9475.000000;0.645339
9474.000000;0.644824
9473.000000;0.644209
9472.000000;0.643727
9471.000000;0.643520
9470.000000;0.643420
9469.000000;0.643076
9468.000000;0.642333
9467.000000;0.641407
9466.000000;0.640646
9465.000000;0.640214
9464.000000;0.640064
9463.000000;0.640064
9462.000000;0.640015
9461.000000;0.639658
9460.000000;0.638868
9459.000000;0.637826
9458.000000;0.636880
9457.000000;0.636254
9456.000000;0.635959
9455.000000;0.635883
9454.000000;0.635813
9453.000000;0.635437
9452.000000;0.634570
9451.000000;0.633427
9450.000000;0.632472
9449.000000;0.631938
9448.000000;0.631643
9447.000000;0.631358
9446.000000;0.631157
9445.000000;0.631222
9444.000000;0.631428
9443.000000;0.631369
9442.000000;0.630826
9441.000000;0.630019
9440.000000;0.629307
9439.000000;0.628762
9438.000000;0.628203
9437.000000;0.627568
9436.000000;0.627052
9435.000000;0.626819
9434.000000;0.626720
9433.000000;0.626416
9432.000000;0.625733
9431.000000;0.624758
9430.000000;0.623652
9429.000000;0.622519
9428.000000;0.621471
9427.000000;0.620648
9426.000000;0.620104
9425.000000;0.619757
9424.000000;0.619537
9423.000000;0.619437
9422.000000;0.619359
9421.000000;0.619065
9420.000000;0.618441
9419.000000;0.617722
9418.000000;0.617250
9417.000000;0.617058
9416.000000;0.616888
9415.000000;0.616606
9414.000000;0.616355
9413.000000;0.616219
9412.000000;0.615966
9411.000000;0.615310
9410.000000;0.614329
9409.000000;0.613432
9408.000000;0.612942
9407.000000;0.612821
9406.000000;0.612812
9405.000000;0.612705
9404.000000;0.612435
9403.000000;0.612002
9402.000000;0.611407
9401.000000;0.610649
9400.000000;0.609786
9399.000000;0.608957
9398.000000;0.608332
9397.000000;0.608017
9396.000000;0.607952
9395.000000;0.607903
9394.000000;0.607581
9393.000000;0.606832
9392.000000;0.605761
9391.000000;0.604665
9390.000000;0.603798
9389.000000;0.603224
9388.000000;0.602893
9387.000000;0.602772
9386.000000;0.602807
9385.000000;0.602829
9384.000000;0.602653
9383.000000;0.602282
9382.000000;0.601878
9381.000000;0.601525
9380.000000;0.601161
9379.000000;0.600782
9378.000000;0.600518
9377.000000;0.600386
9376.000000;0.600130
9375.000000;0.599482
9374.000000;0.598520
9373.000000;0.597581
9372.000000;0.596886
9371.000000;0.596400
9370.000000;0.595998
9369.000000;0.595584
9368.000000;0.595063
9367.000000;0.594400
9366.000000;0.593738
9365.000000;0.593299
9364.000000;0.593127
9363.000000;0.593059
9362.000000;0.592951
9361.000000;0.592779
9360.000000;0.592478
9359.000000;0.591914
9358.000000;0.591149
9357.000000;0.590526
9356.000000;0.590283
9355.000000;0.590181
9354.000000;0.589714
9353.000000;0.588675
9352.000000;0.587384
9351.000000;0.586354
9350.000000;0.585847
9349.000000;0.585737
9348.000000;0.585678
9347.000000;0.585355
9346.000000;0.584685
9345.000000;0.583832
9344.000000;0.583046
9343.000000;0.582474
9342.000000;0.582154
9341.000000;0.582093
9340.000000;0.582260
9339.000000;0.582519
9338.000000;0.582648
9337.000000;0.582476
9336.000000;0.581988
9335.000000;0.581305
9334.000000;0.580579
9333.000000;0.579900
9332.000000;0.579273
9331.000000;0.578696
9330.000000;0.578221
9329.000000;0.577880
9328.000000;0.577563
9327.000000;0.577090
9326.000000;0.576427
9325.000000;0.575772
9324.000000;0.575341
9323.000000;0.575149
9322.000000;0.575053
9321.000000;0.574934
9320.000000;0.574746
9319.000000;0.574467
9318.000000;0.574117
9317.000000;0.573787
9316.000000;0.573557
9315.000000;0.573372
9314.000000;0.573095
9313.000000;0.572650
9312.000000;0.572062
9311.000000;0.571385
9310.000000;0.570668
9309.000000;0.569969
9308.000000;0.569309
9307.000000;0.568660
9306.000000;0.568030
9305.000000;0.567541
9304.000000;0.567315
9303.000000;0.567325
9302.000000;0.567405
9301.000000;0.567392
9300.000000;0.567190
9299.000000;0.566752
9298.000000;0.566107
9297.000000;0.565383
9296.000000;0.564727
9295.000000;0.564199
9294.000000;0.563804
9293.000000;0.563562
9292.000000;0.563454
9291.000000;0.563356
9290.000000;0.563129
9289.000000;0.562741
9288.000000;0.562240
9287.000000;0.561676
9286.000000;0.561161
9285.000000;0.560877
9284.000000;0.560865
9283.000000;0.560840
9282.000000;0.560418
9281.000000;0.559536
9280.000000;0.558522
9279.000000;0.557741
9278.000000;0.557307
9277.000000;0.557099
9276.000000;0.556903
9275.000000;0.556541
9274.000000;0.556054
9273.000000;0.555760
9272.000000;0.555933
9271.000000;0.556373
9270.000000;0.556530
9269.000000;0.556127
9268.000000;0.555463
9267.000000;0.554954
9266.000000;0.554625
9265.000000;0.554220
9264.000000;0.553663
9263.000000;0.553147
9262.000000;0.552833
9261.000000;0.552664
9260.000000;0.552477
9259.000000;0.552154
9258.000000;0.551637
9257.000000;0.550933
9256.000000;0.550146
9255.000000;0.549430
9254.000000;0.548880
9253.000000;0.548494
9252.000000;0.548241
9251.000000;0.548104
9250.000000;0.548092
9249.000000;0.548210
9248.000000;0.548395
9247.000000;0.548440
9246.000000;0.548061
9245.000000;0.547147
9244.000000;0.545958
9243.000000;0.544955
9242.000000;0.544425
9241.000000;0.544297
9240.000000;0.544319
9239.000000;0.544344
9238.000000;0.544408
9237.000000;0.544580
9236.000000;0.544807
9235.000000;0.544927
9234.000000;0.544790
9233.000000;0.544363
9232.000000;0.543718
9231.000000;0.542962
9230.000000;0.542202
9229.000000;0.541546
9228.000000;0.541080
9227.000000;0.540791
9226.000000;0.540548
9225.000000;0.540184
9224.000000;0.539634
9223.000000;0.539011
9222.000000;0.538537
9221.000000;0.538358
9220.000000;0.538394
9219.000000;0.538375
9218.000000;0.538087
9217.000000;0.537589
9216.000000;0.537175
9215.000000;0.537076
9214.000000;0.537200
9213.000000;0.537173
9212.000000;0.536681
9211.000000;0.535801
9210.000000;0.534979
9209.000000;0.534598
9208.000000;0.534595
9207.000000;0.534567
9206.000000;0.534252
9205.000000;0.533784
9204.000000;0.533447
9203.000000;0.533310
9202.000000;0.533203
9201.000000;0.532953
9200.000000;0.532541
9199.000000;0.532092
9198.000000;0.531803
9197.000000;0.531786
9196.000000;0.531886
9195.000000;0.531753
9194.000000;0.531206
9193.000000;0.530467
9192.000000;0.529887
9191.000000;0.529545
9190.000000;0.529282
9189.000000;0.529048
9188.000000;0.528935
9187.000000;0.528900
9186.000000;0.528698
9185.000000;0.528215
9184.000000;0.527660
9183.000000;0.527325
9182.000000;0.527280
9181.000000;0.527386
9180.000000;0.527486
9179.000000;0.527480
9178.000000;0.527295
9177.000000;0.526900
9176.000000;0.526321
9175.000000;0.525636
9174.000000;0.524970
9173.000000;0.524490
9172.000000;0.524291
9171.000000;0.524278
9170.000000;0.524238
9169.000000;0.524074
9168.000000;0.523859
9167.000000;0.523680
9166.000000;0.523531
9165.000000;0.523371
9164.000000;0.523140
9163.000000;0.522694
9162.000000;0.521904
9161.000000;0.520908
9160.000000;0.520104
9159.000000;0.519777
9158.000000;0.519805
9157.000000;0.519855
9156.000000;0.519762
9155.000000;0.519623
9154.000000;0.519567
9153.000000;0.519564
9152.000000;0.519460
9151.000000;0.519125
9150.000000;0.518588
9149.000000;0.518021
9148.000000;0.517573
9147.000000;0.517207
9146.000000;0.516777
9145.000000;0.516264
9144.000000;0.515826
9143.000000;0.515563
9142.000000;0.515367
9141.000000;0.515102
9140.000000;0.514842
9139.000000;0.514817
9138.000000;0.515140
9137.000000;0.515660
9136.000000;0.516057
9135.000000;0.516017
9134.000000;0.515384
9133.000000;0.514248
9132.000000;0.512957
9131.000000;0.511985
9130.000000;0.511683
9129.000000;0.512012
9128.000000;0.512490
9127.000000;0.512507
9126.000000;0.511871
9125.000000;0.511028
9124.000000;0.510626
9123.000000;0.510860
9122.000000;0.511357
9121.000000;0.511651
9120.000000;0.511601
9119.000000;0.511317
9118.000000;0.510924
9117.000000;0.510531
9116.000000;0.510272
9115.000000;0.510195
9114.000000;0.510168
9113.000000;0.510026
9112.000000;0.509757
9111.000000;0.509446
9110.000000;0.509126
9109.000000;0.508799
9108.000000;0.508555
9107.000000;0.508498
9106.000000;0.508557
9105.000000;0.508489
9104.000000;0.508103
9103.000000;0.507427
9102.000000;0.506666
9101.000000;0.506073
9100.000000;0.505822
9099.000000;0.505894
9098.000000;0.506072
9097.000000;0.506112
9096.000000;0.505960
9095.000000;0.505740
9094.000000;0.505539
9093.000000;0.505265
9092.000000;0.504763
9091.000000;0.504030
9090.000000;0.503271
9089.000000;0.502722
9088.000000;0.502439
9087.000000;0.502268
9086.000000;0.502005
9085.000000;0.501574
9084.000000;0.501046
9083.000000;0.500547
9082.000000;0.500208
9081.000000;0.500151
9080.000000;0.500405
9079.000000;0.500782
9078.000000;0.500956
9077.000000;0.500737
9076.000000;0.500277
9075.000000;0.499933
9074.000000;0.499921
9073.000000;0.500147
9072.000000;0.500369
9071.000000;0.500474
9070.000000;0.500547
9069.000000;0.500661
9068.000000;0.500706
9067.000000;0.500512
9066.000000;0.500102
9065.000000;0.499657
9064.000000;0.499195
9063.000000;0.498479
9062.000000;0.497410
9061.000000;0.496369
9060.000000;0.495903
9059.000000;0.496110
9058.000000;0.496539
9057.000000;0.496726
9056.000000;0.496589
9055.000000;0.496280
9054.000000;0.495899
9053.000000;0.495544
