Criado como novo conjunto de dados;"1909daniel.spp","-4282004.4 Secs"
cm-1;Abs
10000.000000;1.235561
9999.000000;1.235469
9998.000000;1.235378
9997.000000;1.235286
9996.000000;1.235194
9995.000000;1.235102
9994.000000;1.235011
9993.000000;1.234918
9992.000000;1.234831
9991.000000;1.234583
9990.000000;1.234315
9989.000000;1.234136
9988.000000;1.233797
9987.000000;1.232978
9986.000000;1.231640
9985.000000;1.229909
9984.000000;1.227955
9983.000000;1.226279
9982.000000;1.225607
9981.000000;1.226029
9980.000000;1.226598
9979.000000;1.226315
9978.000000;1.225310
9977.000000;1.224566
9976.000000;1.224688
9975.000000;1.225353
9974.000000;1.225762
9973.000000;1.225284
9972.000000;1.223818
9971.000000;1.221921
9970.000000;1.220415
9969.000000;1.219610
9968.000000;1.219086
9967.000000;1.218406
9966.000000;1.217686
9965.000000;1.217143
9964.000000;1.216528
9963.000000;1.215541
9962.000000;1.214477
9961.000000;1.213835
9960.000000;1.213515
9959.000000;1.212966
9958.000000;1.211999
9957.000000;1.210923
9956.000000;1.209949
9955.000000;1.208966
9954.000000;1.207950
9953.000000;1.207150
9952.000000;1.206751
9951.000000;1.206638
9950.000000;1.206579
9949.000000;1.206469
9948.000000;1.206359
9947.000000;1.206320
9946.000000;1.206200
9945.000000;1.205587
9944.000000;1.204237
9943.000000;1.202538
9942.000000;1.201193
9941.000000;1.200413
9940.000000;1.199849
9939.000000;1.199355
9938.000000;1.199203
9937.000000;1.199268
9936.000000;1.198708
9935.000000;1.197005
9934.000000;1.194820
9933.000000;1.193254
9932.000000;1.192649
9931.000000;1.192602
9930.000000;1.192689
9929.000000;1.192563
9928.000000;1.191720
9927.000000;1.189936
9926.000000;1.187778
9925.000000;1.186073
9924.000000;1.185089
9923.000000;1.184721
9922.000000;1.185092
9921.000000;1.186170
9920.000000;1.186993
9919.000000;1.186253
9918.000000;1.183866
9917.000000;1.181222
9916.000000;1.179582
9915.000000;1.178891
9914.000000;1.178376
9913.000000;1.177706
9912.000000;1.177100
9911.000000;1.176689
9910.000000;1.176339
9909.000000;1.176013
9908.000000;1.175892
9907.000000;1.176021
9906.000000;1.176060
9905.000000;1.175541
9904.000000;1.174319
9903.000000;1.172631
9902.000000;1.170782
9901.000000;1.169020
9900.000000;1.167787
9899.000000;1.167724
9898.000000;1.168951
9897.000000;1.170443
9896.000000;1.170715
9895.000000;1.169315
9894.000000;1.167185
9893.000000;1.165423
9892.000000;1.164248
9891.000000;1.163431
9890.000000;1.163069
9889.000000;1.163322
9888.000000;1.163681
9887.000000;1.163286
9886.000000;1.161994
9885.000000;1.160610
9884.000000;1.159918
9883.000000;1.159770
9882.000000;1.159269
9881.000000;1.157726
9880.000000;1.155457
9879.000000;1.153629
9878.000000;1.153203
9877.000000;1.153970
9876.000000;1.154730
9875.000000;1.154464
9874.000000;1.153092
9873.000000;1.151080
9872.000000;1.148851
9871.000000;1.146882
9870.000000;1.145884
9869.000000;1.146291
9868.000000;1.147647
9867.000000;1.148885
9866.000000;1.149173
9865.000000;1.148352
9864.000000;1.146758
9863.000000;1.144954
9862.000000;1.143487
9861.000000;1.142559
9860.000000;1.141924
9859.000000;1.141252
9858.000000;1.140509
9857.000000;1.139888
9856.000000;1.139487
9855.000000;1.139208
9854.000000;1.138825
9853.000000;1.138108
9852.000000;1.137103
9851.000000;1.136329
9850.000000;1.136296
9849.000000;1.136683
9848.000000;1.136412
9847.000000;1.134849
9846.000000;1.132598
9845.000000;1.130816
9844.000000;1.130039
9843.000000;1.129935
9842.000000;1.129896
9841.000000;1.129519
9840.000000;1.128720
9839.000000;1.127721
9838.000000;1.126843
9837.000000;1.126137
9836.000000;1.125367
9835.000000;1.124447
9834.000000;1.123607
9833.000000;1.122974
9832.000000;1.122324
9831.000000;1.121452
9830.000000;1.120499
9829.000000;1.119694
9828.000000;1.119041
9827.000000;1.118464
9826.000000;1.117971
9825.000000;1.117452
9824.000000;1.116678
9823.000000;1.115656
9822.000000;1.114687
9821.000000;1.113910
9820.000000;1.113199
9819.000000;1.112587
9818.000000;1.112293
9817.000000;1.112141
9816.000000;1.111569
9815.000000;1.110557
9814.000000;1.109952
9813.000000;1.110358
9812.000000;1.111215
9811.000000;1.111520
9810.000000;1.111055
9809.000000;1.110282
9808.000000;1.109408
9807.000000;1.108294
9806.000000;1.107078
9805.000000;1.106211
9804.000000;1.105850
9803.000000;1.105679
9802.000000;1.105275
9801.000000;1.104377
9800.000000;1.102932
9799.000000;1.101225
9798.000000;1.099781
9797.000000;1.098850
9796.000000;1.098188
9795.000000;1.097547
9794.000000;1.097067
9793.000000;1.096862
9792.000000;1.096584
9791.000000;1.095818
9790.000000;1.094609
9789.000000;1.093216
9788.000000;1.091728
9787.000000;1.090379
9786.000000;1.089797
9785.000000;1.090296
9784.000000;1.091147
9783.000000;1.091223
9782.000000;1.090265
9781.000000;1.088942
9780.000000;1.087809
9779.000000;1.086844
9778.000000;1.085911
9777.000000;1.085045
9776.000000;1.084274
9775.000000;1.083675
9774.000000;1.083555
9773.000000;1.084051
9772.000000;1.084565
9771.000000;1.084134
9770.000000;1.082479
9769.000000;1.080266
9768.000000;1.078313
9767.000000;1.076980
9766.000000;1.076333
9765.000000;1.076339
9764.000000;1.076758
9763.000000;1.077209
9762.000000;1.077487
9761.000000;1.077565
9760.000000;1.077277
9759.000000;1.076354
9758.000000;1.074835
9757.000000;1.073112
9756.000000;1.071524
9755.000000;1.070119
9754.000000;1.068838
9753.000000;1.067668
9752.000000;1.066659
9751.000000;1.065982
9750.000000;1.065843
9749.000000;1.066115
9748.000000;1.066213
9747.000000;1.065656
9746.000000;1.064627
9745.000000;1.063620
9744.000000;1.062698
9743.000000;1.061533
9742.000000;1.060104
9741.000000;1.058842
9740.000000;1.058071
9739.000000;1.057698
9738.000000;1.057499
9737.000000;1.057326
9736.000000;1.056974
9735.000000;1.056239
9734.000000;1.055260
9733.000000;1.054528
9732.000000;1.054425
9731.000000;1.054887
9730.000000;1.055469
9729.000000;1.055541
9728.000000;1.054591
9727.000000;1.052711
9726.000000;1.050721
9725.000000;1.049455
9724.000000;1.048946
9723.000000;1.048600
9722.000000;1.048079
9721.000000;1.047613
9720.000000;1.047453
9719.000000;1.047508
9718.000000;1.047637
9717.000000;1.047841
9716.000000;1.047969
9715.000000;1.047587
9714.000000;1.046422
9713.000000;1.044723
9712.000000;1.042992
9711.000000;1.041572
9710.000000;1.040597
9709.000000;1.040069
9708.000000;1.039760
9707.000000;1.039238
9706.000000;1.038214
9705.000000;1.036812
9704.000000;1.035421
9703.000000;1.034437
9702.000000;1.034153
9701.000000;1.034610
9700.000000;1.035338
9699.000000;1.035487
9698.000000;1.034519
9697.000000;1.032735
9696.000000;1.030952
9695.000000;1.029712
9694.000000;1.028922
9693.000000;1.028156
9692.000000;1.027139
9691.000000;1.025955
9690.000000;1.024910
9689.000000;1.024268
9688.000000;1.024082
9687.000000;1.024194
9686.000000;1.024313
9685.000000;1.024124
9684.000000;1.023422
9683.000000;1.022305
9682.000000;1.021185
9681.000000;1.020483
9680.000000;1.020197
9679.000000;1.019831
9678.000000;1.018834
9677.000000;1.017172
9676.000000;1.015437
9675.000000;1.014339
9674.000000;1.014078
9673.000000;1.014209
9672.000000;1.014141
9671.000000;1.013666
9670.000000;1.012929
9669.000000;1.012023
9668.000000;1.010917
9667.000000;1.009800
9666.000000;1.009106
9665.000000;1.008995
9664.000000;1.009001
9663.000000;1.008520
9662.000000;1.007562
9661.000000;1.006753
9660.000000;1.006515
9659.000000;1.006468
9658.000000;1.005823
9657.000000;1.004251
9656.000000;1.002217
9655.000000;1.000478
9654.000000;0.999408
9653.000000;0.998897
9652.000000;0.998753
9651.000000;0.998962
9650.000000;0.999458
9649.000000;0.999878
9648.000000;0.999794
9647.000000;0.999148
9646.000000;0.998241
9645.000000;0.997305
9644.000000;0.996300
9643.000000;0.995171
9642.000000;0.994069
9641.000000;0.993210
9640.000000;0.992646
9639.000000;0.992229
9638.000000;0.991720
9637.000000;0.990922
9636.000000;0.989870
9635.000000;0.988896
9634.000000;0.988349
9633.000000;0.988169
9632.000000;0.987922
9631.000000;0.987320
9630.000000;0.986522
9629.000000;0.985829
9628.000000;0.985286
9627.000000;0.984728
9626.000000;0.984091
9625.000000;0.983462
9624.000000;0.982885
9623.000000;0.982242
9622.000000;0.981370
9621.000000;0.980302
9620.000000;0.979384
9619.000000;0.979056
9618.000000;0.979382
9617.000000;0.979843
9616.000000;0.979775
9615.000000;0.979041
9614.000000;0.978121
9613.000000;0.977523
9612.000000;0.977255
9611.000000;0.976936
9610.000000;0.976268
9609.000000;0.975349
9608.000000;0.974608
9607.000000;0.974427
9606.000000;0.974676
9605.000000;0.974634
9604.000000;0.973579
9603.000000;0.971565
9602.000000;0.969460
9601.000000;0.968131
9600.000000;0.967689
9599.000000;0.967553
9598.000000;0.967097
9597.000000;0.966180
9596.000000;0.965106
9595.000000;0.964135
9594.000000;0.963122
9593.000000;0.961788
9592.000000;0.960333
9591.000000;0.959464
9590.000000;0.959594
9589.000000;0.960283
9588.000000;0.960734
9587.000000;0.960663
9586.000000;0.960330
9585.000000;0.959927
9584.000000;0.959402
9583.000000;0.958759
9582.000000;0.958027
9581.000000;0.956980
9580.000000;0.955415
9579.000000;0.953748
9578.000000;0.952775
9577.000000;0.952704
9576.000000;0.952879
9575.000000;0.952600
9574.000000;0.951795
9573.000000;0.950739
9572.000000;0.949646
9571.000000;0.948809
9570.000000;0.948662
9569.000000;0.949268
9568.000000;0.949992
9567.000000;0.950044
9566.000000;0.949187
9565.000000;0.947750
9564.000000;0.946244
9563.000000;0.945167
9562.000000;0.944814
9561.000000;0.944923
9560.000000;0.944720
9559.000000;0.943668
9558.000000;0.942036
9557.000000;0.940524
9556.000000;0.939503
9555.000000;0.938854
9554.000000;0.938315
9553.000000;0.937729
9552.000000;0.937082
9551.000000;0.936541
9550.000000;0.936317
9549.000000;0.936376
9548.000000;0.936431
9547.000000;0.936356
9546.000000;0.936329
9545.000000;0.936369
9544.000000;0.936066
9543.000000;0.935083
9542.000000;0.933699
9541.000000;0.932477
9540.000000;0.931554
9539.000000;0.930585
9538.000000;0.929331
9537.000000;0.927961
9536.000000;0.926794
9535.000000;0.926017
9534.000000;0.925653
9533.000000;0.925619
9532.000000;0.925750
9531.000000;0.925898
9530.000000;0.925986
9529.000000;0.925905
9528.000000;0.925414
9527.000000;0.924316
9526.000000;0.922727
9525.000000;0.921065
9524.000000;0.919748
9523.000000;0.918927
9522.000000;0.918430
9521.000000;0.917936
9520.000000;0.917261
9519.000000;0.916506
9518.000000;0.915905
9517.000000;0.915604
9516.000000;0.915636
9515.000000;0.915989
9514.000000;0.916458
9513.000000;0.916557
9512.000000;0.915917
9511.000000;0.914785
9510.000000;0.913822
9509.000000;0.913383
9508.000000;0.913232
9507.000000;0.912998
9506.000000;0.912562
9505.000000;0.911896
9504.000000;0.910911
9503.000000;0.909666
9502.000000;0.908458
9501.000000;0.907522
9500.000000;0.906829
9499.000000;0.906307
9498.000000;0.906039
9497.000000;0.906089
9496.000000;0.906344
9495.000000;0.906636
9494.000000;0.906842
9493.000000;0.906770
9492.000000;0.906186
9491.000000;0.905076
9490.000000;0.903701
9489.000000;0.902300
9488.000000;0.900968
9487.000000;0.899808
9486.000000;0.898907
9485.000000;0.898097
9484.000000;0.897126
9483.000000;0.896140
9482.000000;0.895609
9481.000000;0.895628
9480.000000;0.895690
9479.000000;0.895358
9478.000000;0.894776
9477.000000;0.894251
9476.000000;0.893738
9475.000000;0.893076
9474.000000;0.892413
9473.000000;0.891977
9472.000000;0.891669
9471.000000;0.891233
9470.000000;0.890677
9469.000000;0.890183
9468.000000;0.889726
9467.000000;0.889059
9466.000000;0.888043
9465.000000;0.886782
9464.000000;0.885559
9463.000000;0.884746
9462.000000;0.884607
9461.000000;0.885003
9460.000000;0.885435
9459.000000;0.885506
9458.000000;0.885179
9457.000000;0.884557
9456.000000;0.883766
9455.000000;0.883149
9454.000000;0.883091
9453.000000;0.883357
9452.000000;0.883055
9451.000000;0.881682
9450.000000;0.879862
9449.000000;0.878615
9448.000000;0.878202
9447.000000;0.878148
9446.000000;0.878079
9445.000000;0.877954
9444.000000;0.877669
9443.000000;0.877068
9442.000000;0.876348
9441.000000;0.875898
9440.000000;0.875663
9439.000000;0.875140
9438.000000;0.874116
9437.000000;0.872996
9436.000000;0.872239
9435.000000;0.871846
9434.000000;0.871553
9433.000000;0.871202
9432.000000;0.870707
9431.000000;0.869903
9430.000000;0.868703
9429.000000;0.867290
9428.000000;0.865982
9427.000000;0.864976
9426.000000;0.864341
9425.000000;0.864125
9424.000000;0.864286
9423.000000;0.864537
9422.000000;0.864442
9421.000000;0.863805
9420.000000;0.862941
9419.000000;0.862405
9418.000000;0.862396
9417.000000;0.862508
9416.000000;0.862201
9415.000000;0.861407
9414.000000;0.860476
9413.000000;0.859588
9412.000000;0.858546
9411.000000;0.857236
9410.000000;0.856005
9409.000000;0.855352
9408.000000;0.855396
9407.000000;0.855789
9406.000000;0.856022
9405.000000;0.855739
9404.000000;0.854956
9403.000000;0.854132
9402.000000;0.853822
9401.000000;0.854093
9400.000000;0.854384
9399.000000;0.854113
9398.000000;0.853292
9397.000000;0.852373
9396.000000;0.851671
9395.000000;0.851140
9394.000000;0.850576
9393.000000;0.849806
9392.000000;0.848774
9391.000000;0.847642
9390.000000;0.846749
9389.000000;0.846289
9388.000000;0.846084
9387.000000;0.845821
9386.000000;0.845457
9385.000000;0.845216
9384.000000;0.845250
9383.000000;0.845434
9382.000000;0.845480
9381.000000;0.845165
9380.000000;0.844507
9379.000000;0.843764
9378.000000;0.843151
9377.000000;0.842573
9376.000000;0.841772
9375.000000;0.840768
9374.000000;0.839945
9373.000000;0.839589
9372.000000;0.839556
9371.000000;0.839545
9370.000000;0.839434
9369.000000;0.839143
9368.000000;0.838444
9367.000000;0.837243
9366.000000;0.835904
9365.000000;0.834981
9364.000000;0.834626
9363.000000;0.834493
9362.000000;0.834157
9361.000000;0.833484
9360.000000;0.832637
9359.000000;0.831926
9358.000000;0.831585
9357.000000;0.831533
9356.000000;0.831377
9355.000000;0.830788
9354.000000;0.829846
9353.000000;0.828899
9352.000000;0.828175
9351.000000;0.827654
9350.000000;0.827210
9349.000000;0.826756
9348.000000;0.826344
9347.000000;0.826187
9346.000000;0.826426
9345.000000;0.826781
9344.000000;0.826661
9343.000000;0.825833
9342.000000;0.824767
9341.000000;0.824092
9340.000000;0.823903
9339.000000;0.823862
9338.000000;0.823767
9337.000000;0.823663
9336.000000;0.823480
9335.000000;0.822975
9334.000000;0.822080
9333.000000;0.820998
9332.000000;0.819945
9331.000000;0.819065
9330.000000;0.818612
9329.000000;0.818858
9328.000000;0.819692
9327.000000;0.820534
9326.000000;0.820799
9325.000000;0.820320
9324.000000;0.819261
9323.000000;0.817860
9322.000000;0.816434
9321.000000;0.815423
9320.000000;0.815113
9319.000000;0.815305
9318.000000;0.815434
9317.000000;0.815117
9316.000000;0.814459
9315.000000;0.813776
9314.000000;0.813110
9313.000000;0.812227
9312.000000;0.811073
9311.000000;0.810016
9310.000000;0.809450
9309.000000;0.809279
9308.000000;0.809035
9307.000000;0.808483
9306.000000;0.807828
9305.000000;0.807297
9304.000000;0.806822
9303.000000;0.806300
9302.000000;0.805879
9301.000000;0.805719
9300.000000;0.805637
9299.000000;0.805281
9298.000000;0.804598
9297.000000;0.803885
9296.000000;0.803421
9295.000000;0.803257
9294.000000;0.803309
9293.000000;0.803407
9292.000000;0.803257
9291.000000;0.802649
9290.000000;0.801784
9289.000000;0.801155
9288.000000;0.801010
9287.000000;0.801112
9286.000000;0.801141
9285.000000;0.801112
9284.000000;0.801174
9283.000000;0.801170
9282.000000;0.800686
9281.000000;0.799587
9280.000000;0.798294
9279.000000;0.797419
9278.000000;0.797165
9277.000000;0.797178
9276.000000;0.796934
9275.000000;0.796210
9274.000000;0.795241
9273.000000;0.794491
9272.000000;0.794274
9271.000000;0.794506
9270.000000;0.794794
9269.000000;0.794820
9268.000000;0.794603
9267.000000;0.794318
9266.000000;0.793944
9265.000000;0.793259
9264.000000;0.792241
9263.000000;0.791265
9262.000000;0.790757
9261.000000;0.790737
9260.000000;0.790852
9259.000000;0.790780
9258.000000;0.790435
9257.000000;0.789856
9256.000000;0.789096
9255.000000;0.788264
9254.000000;0.787516
9253.000000;0.786936
9252.000000;0.786503
9251.000000;0.786181
9250.000000;0.785946
9249.000000;0.785734
9248.000000;0.785435
9247.000000;0.784971
9246.000000;0.784350
9245.000000;0.783670
9244.000000;0.783101
9243.000000;0.782755
9242.000000;0.782484
9241.000000;0.781935
9240.000000;0.780990
9239.000000;0.780047
9238.000000;0.779663
9237.000000;0.779911
9236.000000;0.780279
9235.000000;0.780236
9234.000000;0.779730
9233.000000;0.779120
9232.000000;0.778768
9231.000000;0.778736
9230.000000;0.778761
9229.000000;0.778532
9228.000000;0.778041
9227.000000;0.777578
9226.000000;0.777314
9225.000000;0.777051
9224.000000;0.776583
9223.000000;0.776105
9222.000000;0.775931
9221.000000;0.775928
9220.000000;0.775638
9219.000000;0.774969
9218.000000;0.774340
9217.000000;0.774060
9216.000000;0.773937
9215.000000;0.773652
9214.000000;0.773141
9213.000000;0.772418
9212.000000;0.771384
9211.000000;0.770135
9210.000000;0.769236
9209.000000;0.769271
9208.000000;0.770135
9207.000000;0.771036
9206.000000;0.771201
9205.000000;0.770473
9204.000000;0.769277
9203.000000;0.768179
9202.000000;0.767508
9201.000000;0.767263
9200.000000;0.767275
9199.000000;0.767396
9198.000000;0.767489
9197.000000;0.767339
9196.000000;0.766746
9195.000000;0.765769
9194.000000;0.764723
9193.000000;0.763887
9192.000000;0.763343
9191.000000;0.763099
9190.000000;0.763183
9189.000000;0.763538
9188.000000;0.763950
9187.000000;0.764196
9186.000000;0.764150
9185.000000;0.763713
9184.000000;0.762816
9183.000000;0.761620
9182.000000;0.760557
9181.000000;0.760023
9180.000000;0.760084
9179.000000;0.760498
9178.000000;0.760894
9177.000000;0.760891
9176.000000;0.760265
9175.000000;0.759160
9174.000000;0.758041
9173.000000;0.757316
9172.000000;0.757044
9171.000000;0.757033
9170.000000;0.757088
9169.000000;0.757085
9168.000000;0.756967
9167.000000;0.756810
9166.000000;0.756770
9165.000000;0.756798
9164.000000;0.756524
9163.000000;0.755597
9162.000000;0.754119
9161.000000;0.752624
9160.000000;0.751639
9159.000000;0.751337
9158.000000;0.751535
9157.000000;0.751950
9156.000000;0.752412
9155.000000;0.752866
9154.000000;0.753175
9153.000000;0.753032
9152.000000;0.752244
9151.000000;0.751076
9150.000000;0.750118
9149.000000;0.749716
9148.000000;0.749690
9147.000000;0.749674
9146.000000;0.749557
9145.000000;0.749430
9144.000000;0.749270
9143.000000;0.748907
9142.000000;0.748320
9141.000000;0.747761
9140.000000;0.747517
9139.000000;0.747608
9138.000000;0.747770
9137.000000;0.747713
9136.000000;0.747407
9135.000000;0.747083
9134.000000;0.746926
9133.000000;0.746808
9132.000000;0.746438
9131.000000;0.745800
9130.000000;0.745284
9129.000000;0.745249
9128.000000;0.745503
9127.000000;0.745388
9126.000000;0.744477
9125.000000;0.743120
9124.000000;0.742168
9123.000000;0.742084
9122.000000;0.742442
9121.000000;0.742436
9120.000000;0.741811
9119.000000;0.741088
9118.000000;0.740865
9117.000000;0.741173
9116.000000;0.741640
9115.000000;0.742010
9114.000000;0.742224
9113.000000;0.742182
9112.000000;0.741786
9111.000000;0.741182
9110.000000;0.740660
9109.000000;0.740332
9108.000000;0.740125
9107.000000;0.740035
9106.000000;0.740101
9105.000000;0.740112
9104.000000;0.739670
9103.000000;0.738646
9102.000000;0.737406
9101.000000;0.736494
9100.000000;0.736244
9099.000000;0.736670
9098.000000;0.737475
9097.000000;0.738118
9096.000000;0.738139
9095.000000;0.737541
9094.000000;0.736720
9093.000000;0.735965
9092.000000;0.735248
9091.000000;0.734513
9090.000000;0.733868
9089.000000;0.733390
9088.000000;0.732985
9087.000000;0.732605
9086.000000;0.732411
9085.000000;0.732540
9084.000000;0.732848
9083.000000;0.733041
9082.000000;0.732985
9081.000000;0.732759
9080.000000;0.732487
9079.000000;0.732168
9078.000000;0.731645
9077.000000;0.730752
9076.000000;0.729612
9075.000000;0.728734
9074.000000;0.728579
9073.000000;0.729019
9072.000000;0.729481
9071.000000;0.729623
9070.000000;0.729607
9069.000000;0.729648
9068.000000;0.729658
9067.000000;0.729514
9066.000000;0.729362
9065.000000;0.729356
9064.000000;0.729293
9063.000000;0.728820
9062.000000;0.727933
9061.000000;0.727045
9060.000000;0.726555
9059.000000;0.726532
9058.000000;0.726767
9057.000000;0.726951
9056.000000;0.726821
9055.000000;0.726291
9054.000000;0.725522
9053.000000;0.724813
