Criado como novo conjunto de dados;"1909daniel.spp","-4229621.9 Secs"
cm-1;Abs
10000.000000;1.497662
9999.000000;1.498466
9998.000000;1.500092
9997.000000;1.501173
9996.000000;1.501309
9995.000000;1.501045
9994.000000;1.500556
9993.000000;1.499344
9992.000000;1.497361
9991.000000;1.495729
9990.000000;1.495763
9989.000000;1.497423
9988.000000;1.499060
9987.000000;1.498854
9986.000000;1.496485
9985.000000;1.493245
9984.000000;1.490609
9983.000000;1.489060
9982.000000;1.488362
9981.000000;1.488375
9980.000000;1.488962
9979.000000;1.489400
9978.000000;1.488796
9977.000000;1.487311
9976.000000;1.486233
9975.000000;1.486430
9974.000000;1.487278
9973.000000;1.487626
9972.000000;1.487220
9971.000000;1.486501
9970.000000;1.485525
9969.000000;1.483982
9968.000000;1.482147
9967.000000;1.480979
9966.000000;1.481055
9965.000000;1.481839
9964.000000;1.482136
9963.000000;1.481133
9962.000000;1.479098
9961.000000;1.477346
9960.000000;1.477286
9959.000000;1.479010
9958.000000;1.480874
9957.000000;1.480923
9956.000000;1.478839
9955.000000;1.476052
9954.000000;1.474073
9953.000000;1.473353
9952.000000;1.473537
9951.000000;1.473992
9950.000000;1.473857
9949.000000;1.472355
9948.000000;1.469641
9947.000000;1.466999
9946.000000;1.465687
9945.000000;1.465669
9944.000000;1.465735
9943.000000;1.464849
9942.000000;1.463183
9941.000000;1.461857
9940.000000;1.461736
9939.000000;1.462467
9938.000000;1.462819
9937.000000;1.462142
9936.000000;1.461197
9935.000000;1.461018
9934.000000;1.461207
9933.000000;1.460199
9932.000000;1.457457
9931.000000;1.454633
9930.000000;1.453888
9929.000000;1.455463
9928.000000;1.457410
9927.000000;1.457596
9926.000000;1.455650
9925.000000;1.453000
9924.000000;1.451387
9923.000000;1.451435
9922.000000;1.452330
9921.000000;1.452622
9920.000000;1.451479
9919.000000;1.449304
9918.000000;1.447253
9917.000000;1.446290
9916.000000;1.446595
9915.000000;1.447483
9914.000000;1.447804
9913.000000;1.446817
9912.000000;1.444911
9911.000000;1.443171
9910.000000;1.442184
9909.000000;1.441616
9908.000000;1.441123
9907.000000;1.441154
9906.000000;1.442255
9905.000000;1.443906
9904.000000;1.444710
9903.000000;1.443790
9902.000000;1.441463
9901.000000;1.438510
9900.000000;1.435429
9899.000000;1.432588
9898.000000;1.430519
9897.000000;1.429632
9896.000000;1.429837
9895.000000;1.430648
9894.000000;1.431508
9893.000000;1.431913
9892.000000;1.431635
9891.000000;1.431067
9890.000000;1.430980
9889.000000;1.431547
9888.000000;1.431846
9887.000000;1.430801
9886.000000;1.428477
9885.000000;1.425970
9884.000000;1.424110
9883.000000;1.422845
9882.000000;1.421930
9881.000000;1.421602
9880.000000;1.422155
9879.000000;1.423138
9878.000000;1.423526
9877.000000;1.422819
9876.000000;1.421648
9875.000000;1.421097
9874.000000;1.421511
9873.000000;1.422101
9872.000000;1.421789
9871.000000;1.420374
9870.000000;1.418634
9869.000000;1.417293
9868.000000;1.416196
9867.000000;1.414783
9866.000000;1.413131
9865.000000;1.412015
9864.000000;1.411926
9863.000000;1.412521
9862.000000;1.413235
9861.000000;1.413906
9860.000000;1.414428
9859.000000;1.414328
9858.000000;1.413250
9857.000000;1.411586
9856.000000;1.410009
9855.000000;1.408551
9854.000000;1.406795
9853.000000;1.404976
9852.000000;1.404073
9851.000000;1.404503
9850.000000;1.405377
9849.000000;1.405490
9848.000000;1.404621
9847.000000;1.403359
9846.000000;1.402084
9845.000000;1.400772
9844.000000;1.399584
9843.000000;1.398904
9842.000000;1.398684
9841.000000;1.398294
9840.000000;1.397267
9839.000000;1.395868
9838.000000;1.394796
9837.000000;1.394517
9836.000000;1.394971
9835.000000;1.395678
9834.000000;1.395993
9833.000000;1.395493
9832.000000;1.394283
9831.000000;1.392823
9830.000000;1.391434
9829.000000;1.390196
9828.000000;1.389267
9827.000000;1.388915
9826.000000;1.389037
9825.000000;1.388916
9824.000000;1.387884
9823.000000;1.386177
9822.000000;1.384758
9821.000000;1.384361
9820.000000;1.384925
9819.000000;1.385837
9818.000000;1.386431
9817.000000;1.386277
9816.000000;1.385327
9815.000000;1.383935
9814.000000;1.382575
9813.000000;1.381428
9812.000000;1.380384
9811.000000;1.379359
9810.000000;1.378424
9809.000000;1.377609
9808.000000;1.376833
9807.000000;1.376146
9806.000000;1.375742
9805.000000;1.375482
9804.000000;1.374753
9803.000000;1.373248
9802.000000;1.371702
9801.000000;1.371329
9800.000000;1.372388
9799.000000;1.373685
9798.000000;1.373713
9797.000000;1.372091
9796.000000;1.369761
9795.000000;1.368017
9794.000000;1.367533
9793.000000;1.367976
9792.000000;1.368271
9791.000000;1.367491
9790.000000;1.365806
9789.000000;1.364342
9788.000000;1.363873
9787.000000;1.363912
9786.000000;1.363401
9785.000000;1.362091
9784.000000;1.360774
9783.000000;1.360221
9782.000000;1.360382
9781.000000;1.360697
9780.000000;1.360672
9779.000000;1.359961
9778.000000;1.358402
9777.000000;1.356353
9776.000000;1.354703
9775.000000;1.354090
9774.000000;1.354183
9773.000000;1.354041
9772.000000;1.353189
9771.000000;1.352085
9770.000000;1.351517
9769.000000;1.351735
9768.000000;1.352190
9767.000000;1.351967
9766.000000;1.350509
9765.000000;1.348144
9764.000000;1.345958
9763.000000;1.344973
9762.000000;1.345314
9761.000000;1.346188
9760.000000;1.346678
9759.000000;1.346512
9758.000000;1.346018
9757.000000;1.345482
9756.000000;1.344822
9755.000000;1.343941
9754.000000;1.343127
9753.000000;1.342792
9752.000000;1.342857
9751.000000;1.342606
9750.000000;1.341343
9749.000000;1.339196
9748.000000;1.337185
9747.000000;1.336450
9746.000000;1.337324
9745.000000;1.339019
9744.000000;1.340194
9743.000000;1.339979
9742.000000;1.338548
9741.000000;1.336711
9740.000000;1.335093
9739.000000;1.333840
9738.000000;1.332951
9737.000000;1.332484
9736.000000;1.332374
9735.000000;1.332464
9734.000000;1.332929
9733.000000;1.334187
9732.000000;1.335977
9731.000000;1.337007
9730.000000;1.336153
9729.000000;1.333821
9728.000000;1.331394
9727.000000;1.329439
9726.000000;1.327333
9725.000000;1.324827
9724.000000;1.322963
9723.000000;1.322749
9722.000000;1.323567
9721.000000;1.323794
9720.000000;1.322765
9719.000000;1.321243
9718.000000;1.319970
9717.000000;1.318771
9716.000000;1.317390
9715.000000;1.316321
9714.000000;1.316135
9713.000000;1.316406
9712.000000;1.316101
9711.000000;1.314974
9710.000000;1.313916
9709.000000;1.313790
9708.000000;1.314452
9707.000000;1.315168
9706.000000;1.315582
9705.000000;1.315865
9704.000000;1.316141
9703.000000;1.316200
9702.000000;1.315772
9701.000000;1.314795
9700.000000;1.313409
9699.000000;1.311897
9698.000000;1.310566
9697.000000;1.309413
9696.000000;1.307954
9695.000000;1.305799
9694.000000;1.303428
9693.000000;1.301977
9692.000000;1.302019
9691.000000;1.302873
9690.000000;1.303371
9689.000000;1.303049
9688.000000;1.302252
9687.000000;1.301372
9686.000000;1.300495
9685.000000;1.299653
9684.000000;1.298843
9683.000000;1.297817
9682.000000;1.296383
9681.000000;1.294964
9680.000000;1.294334
9679.000000;1.294599
9678.000000;1.294893
9677.000000;1.294415
9676.000000;1.293386
9675.000000;1.292611
9674.000000;1.292415
9673.000000;1.292444
9672.000000;1.292303
9671.000000;1.291903
9670.000000;1.291207
9669.000000;1.290141
9668.000000;1.288932
9667.000000;1.288195
9666.000000;1.288380
9665.000000;1.289183
9664.000000;1.289670
9663.000000;1.289034
9662.000000;1.287279
9661.000000;1.285191
9660.000000;1.283641
9659.000000;1.282929
9658.000000;1.282773
9657.000000;1.282775
9656.000000;1.282718
9655.000000;1.282422
9654.000000;1.281627
9653.000000;1.280263
9652.000000;1.278721
9651.000000;1.277607
9650.000000;1.277175
9649.000000;1.277122
9648.000000;1.276923
9647.000000;1.276303
9646.000000;1.275403
9645.000000;1.274557
9644.000000;1.273945
9643.000000;1.273464
9642.000000;1.272947
9641.000000;1.272435
9640.000000;1.272148
9639.000000;1.272187
9638.000000;1.272388
9637.000000;1.272501
9636.000000;1.272367
9635.000000;1.271831
9634.000000;1.270680
9633.000000;1.268887
9632.000000;1.266866
9631.000000;1.265265
9630.000000;1.264514
9629.000000;1.264647
9628.000000;1.265442
9627.000000;1.266561
9626.000000;1.267503
9625.000000;1.267606
9624.000000;1.266430
9623.000000;1.264271
9622.000000;1.262162
9621.000000;1.261100
9620.000000;1.261163
9619.000000;1.261507
9618.000000;1.261289
9617.000000;1.260473
9616.000000;1.259626
9615.000000;1.259164
9614.000000;1.259106
9613.000000;1.259322
9612.000000;1.259549
9611.000000;1.259200
9610.000000;1.257741
9609.000000;1.255483
9608.000000;1.253521
9607.000000;1.252571
9606.000000;1.252209
9605.000000;1.251576
9604.000000;1.250467
9603.000000;1.249366
9602.000000;1.248696
9601.000000;1.248497
9600.000000;1.248687
9599.000000;1.249160
9598.000000;1.249603
9597.000000;1.249623
9596.000000;1.249166
9595.000000;1.248512
9594.000000;1.247794
9593.000000;1.246885
9592.000000;1.245855
9591.000000;1.245137
9590.000000;1.245004
9589.000000;1.245142
9588.000000;1.244955
9587.000000;1.244160
9586.000000;1.242892
9585.000000;1.241350
9584.000000;1.239611
9583.000000;1.237770
9582.000000;1.236094
9581.000000;1.234914
9580.000000;1.234353
9579.000000;1.234178
9578.000000;1.233970
9577.000000;1.233530
9576.000000;1.233111
9575.000000;1.233190
9574.000000;1.233954
9573.000000;1.235040
9572.000000;1.235760
9571.000000;1.235636
9570.000000;1.234822
9569.000000;1.234001
9568.000000;1.233719
9567.000000;1.233709
9566.000000;1.233029
9565.000000;1.231088
9564.000000;1.228482
9563.000000;1.226506
9562.000000;1.225863
9561.000000;1.226045
9560.000000;1.226000
9559.000000;1.225164
9558.000000;1.223760
9557.000000;1.222333
9556.000000;1.221282
9555.000000;1.220692
9554.000000;1.220315
9553.000000;1.219704
9552.000000;1.218607
9551.000000;1.217306
9550.000000;1.216419
9549.000000;1.216270
9548.000000;1.216527
9547.000000;1.216576
9546.000000;1.216193
9545.000000;1.215756
9544.000000;1.215736
9543.000000;1.216079
9542.000000;1.216180
9541.000000;1.215492
9540.000000;1.214098
9539.000000;1.212616
9538.000000;1.211621
9537.000000;1.211253
9536.000000;1.211328
9535.000000;1.211608
9534.000000;1.211863
9533.000000;1.211889
9532.000000;1.211677
9531.000000;1.211511
9530.000000;1.211674
9529.000000;1.212053
9528.000000;1.212170
9527.000000;1.211654
9526.000000;1.210571
9525.000000;1.209219
9524.000000;1.207743
9523.000000;1.206123
9522.000000;1.204395
9521.000000;1.202703
9520.000000;1.201207
9519.000000;1.200155
9518.000000;1.199934
9517.000000;1.200739
9516.000000;1.202088
9515.000000;1.202929
9514.000000;1.202498
9513.000000;1.201000
9512.000000;1.199293
9511.000000;1.198032
9510.000000;1.197290
9509.000000;1.196913
9508.000000;1.196879
9507.000000;1.197139
9506.000000;1.197277
9505.000000;1.196689
9504.000000;1.195236
9503.000000;1.193581
9502.000000;1.192657
9501.000000;1.192746
9500.000000;1.193149
9499.000000;1.192903
9498.000000;1.191820
9497.000000;1.190719
9496.000000;1.190595
9495.000000;1.191601
9494.000000;1.192848
9493.000000;1.193140
9492.000000;1.191950
9491.000000;1.189796
9490.000000;1.187759
9489.000000;1.186593
9488.000000;1.186251
9487.000000;1.186162
9486.000000;1.185887
9485.000000;1.185402
9484.000000;1.184844
9483.000000;1.184241
9482.000000;1.183579
9481.000000;1.182963
9480.000000;1.182542
9479.000000;1.182328
9478.000000;1.182183
9477.000000;1.181896
9476.000000;1.181215
9475.000000;1.179989
9474.000000;1.178437
9473.000000;1.177151
9472.000000;1.176604
9471.000000;1.176601
9470.000000;1.176383
9469.000000;1.175349
9468.000000;1.173646
9467.000000;1.172052
9466.000000;1.171394
9465.000000;1.172014
9464.000000;1.173536
9463.000000;1.175017
9462.000000;1.175487
9461.000000;1.174592
9460.000000;1.172827
9459.000000;1.171091
9458.000000;1.169979
9457.000000;1.169483
9456.000000;1.169267
9455.000000;1.169073
9454.000000;1.168793
9453.000000;1.168287
9452.000000;1.167408
9451.000000;1.166272
9450.000000;1.165265
9449.000000;1.164584
9448.000000;1.163932
9447.000000;1.162949
9446.000000;1.161878
9445.000000;1.161441
9444.000000;1.162011
9443.000000;1.163161
9442.000000;1.164125
9441.000000;1.164413
9440.000000;1.163917
9439.000000;1.162797
9438.000000;1.161536
9437.000000;1.160801
9436.000000;1.160815
9435.000000;1.160949
9434.000000;1.160267
9433.000000;1.158523
9432.000000;1.156415
9431.000000;1.154835
9430.000000;1.154050
9429.000000;1.153626
9428.000000;1.152989
9427.000000;1.152055
9426.000000;1.151345
9425.000000;1.151368
9424.000000;1.151950
9423.000000;1.152342
9422.000000;1.152071
9421.000000;1.151482
9420.000000;1.151186
9419.000000;1.151169
9418.000000;1.150825
9417.000000;1.149873
9416.000000;1.148883
9415.000000;1.148680
9414.000000;1.149413
9413.000000;1.150370
9412.000000;1.150637
9411.000000;1.149871
9410.000000;1.148456
9409.000000;1.147049
9408.000000;1.146123
9407.000000;1.145901
9406.000000;1.146363
9405.000000;1.147040
9404.000000;1.147051
9403.000000;1.145866
9402.000000;1.144055
9401.000000;1.142785
9400.000000;1.142464
9399.000000;1.142322
9398.000000;1.141467
9397.000000;1.139883
9396.000000;1.138149
9395.000000;1.136691
9394.000000;1.135738
9393.000000;1.135488
9392.000000;1.135728
9391.000000;1.135673
9390.000000;1.134876
9389.000000;1.134068
9388.000000;1.134419
9387.000000;1.136061
9386.000000;1.137920
9385.000000;1.138948
9384.000000;1.138940
9383.000000;1.138185
9382.000000;1.137023
9381.000000;1.135893
9380.000000;1.135156
9379.000000;1.134627
9378.000000;1.133761
9377.000000;1.132465
9376.000000;1.131288
9375.000000;1.130651
9374.000000;1.130378
9373.000000;1.130143
9372.000000;1.129956
9371.000000;1.129966
9370.000000;1.130103
9369.000000;1.130106
9368.000000;1.129689
9367.000000;1.128625
9366.000000;1.127020
9365.000000;1.125459
9364.000000;1.124403
9363.000000;1.123497
9362.000000;1.122136
9361.000000;1.120745
9360.000000;1.120596
9359.000000;1.122041
9358.000000;1.123750
9357.000000;1.124286
9356.000000;1.123774
9355.000000;1.123292
9354.000000;1.123195
9353.000000;1.122964
9352.000000;1.122303
9351.000000;1.121484
9350.000000;1.120691
9349.000000;1.119853
9348.000000;1.119137
9347.000000;1.118872
9346.000000;1.118852
9345.000000;1.118359
9344.000000;1.117108
9343.000000;1.115666
9342.000000;1.114761
9341.000000;1.114594
9340.000000;1.114950
9339.000000;1.115531
9338.000000;1.115962
9337.000000;1.115838
9336.000000;1.115096
9335.000000;1.114118
9334.000000;1.113292
9333.000000;1.112623
9332.000000;1.111939
9331.000000;1.111247
9330.000000;1.110729
9329.000000;1.110534
9328.000000;1.110706
9327.000000;1.111160
9326.000000;1.111562
9325.000000;1.111413
9324.000000;1.110532
9323.000000;1.109395
9322.000000;1.108749
9321.000000;1.108872
9320.000000;1.109286
9319.000000;1.109239
9318.000000;1.108389
9317.000000;1.107018
9316.000000;1.105693
9315.000000;1.104793
9314.000000;1.104283
9313.000000;1.103820
9312.000000;1.103069
9311.000000;1.102036
9310.000000;1.101170
9309.000000;1.100994
9308.000000;1.101522
9307.000000;1.102129
9306.000000;1.102160
9305.000000;1.101648
9304.000000;1.101215
9303.000000;1.101250
9302.000000;1.101463
9301.000000;1.101347
9300.000000;1.100825
9299.000000;1.100227
9298.000000;1.099783
9297.000000;1.099361
9296.000000;1.098705
9295.000000;1.097775
9294.000000;1.096856
9293.000000;1.096389
9292.000000;1.096613
9291.000000;1.097240
9290.000000;1.097514
9289.000000;1.096730
9288.000000;1.094811
9287.000000;1.092419
9286.000000;1.090563
9285.000000;1.090020
9284.000000;1.090839
9283.000000;1.092195
9282.000000;1.092909
9281.000000;1.092373
9280.000000;1.091033
9279.000000;1.089880
9278.000000;1.089494
9277.000000;1.089649
9276.000000;1.089789
9275.000000;1.089734
9274.000000;1.089807
9273.000000;1.090326
9272.000000;1.091089
9271.000000;1.091497
9270.000000;1.091224
9269.000000;1.090603
9268.000000;1.090190
9267.000000;1.090066
9266.000000;1.089761
9265.000000;1.088848
9264.000000;1.087405
9263.000000;1.085947
9262.000000;1.085050
9261.000000;1.084982
9260.000000;1.085406
9259.000000;1.085451
9258.000000;1.084450
9257.000000;1.082761
9256.000000;1.081512
9255.000000;1.081350
9254.000000;1.081757
9253.000000;1.081806
9252.000000;1.081307
9251.000000;1.080854
9250.000000;1.080930
9249.000000;1.081399
9248.000000;1.081850
9247.000000;1.082050
9246.000000;1.081927
9245.000000;1.081385
9244.000000;1.080368
9243.000000;1.079074
9242.000000;1.077939
9241.000000;1.077314
9240.000000;1.077155
9239.000000;1.077101
9238.000000;1.076890
9237.000000;1.076614
9236.000000;1.076411
9235.000000;1.076062
9234.000000;1.075253
9233.000000;1.074229
9232.000000;1.073713
9231.000000;1.073955
9230.000000;1.074272
9229.000000;1.073874
9228.000000;1.072901
9227.000000;1.072180
9226.000000;1.072127
9225.000000;1.072329
9224.000000;1.072208
9223.000000;1.071687
9222.000000;1.071118
9221.000000;1.070867
9220.000000;1.071088
9219.000000;1.071651
9218.000000;1.072152
9217.000000;1.072185
9216.000000;1.071731
9215.000000;1.071137
9214.000000;1.070689
9213.000000;1.070338
9212.000000;1.069891
9211.000000;1.069295
9210.000000;1.068646
9209.000000;1.068086
9208.000000;1.067824
9207.000000;1.068091
9206.000000;1.068832
9205.000000;1.069459
9204.000000;1.069158
9203.000000;1.067634
9202.000000;1.065528
9201.000000;1.063975
9200.000000;1.063692
9199.000000;1.064448
9198.000000;1.065348
9197.000000;1.065598
9196.000000;1.065025
9195.000000;1.063988
9194.000000;1.062951
9193.000000;1.062139
9192.000000;1.061477
9191.000000;1.060797
9190.000000;1.060170
9189.000000;1.060012
9188.000000;1.060714
9187.000000;1.062086
9186.000000;1.063305
9185.000000;1.063529
9184.000000;1.062587
9183.000000;1.061033
9182.000000;1.059623
9181.000000;1.058798
9180.000000;1.058503
9179.000000;1.058348
9178.000000;1.057973
9177.000000;1.057367
9176.000000;1.056796
9175.000000;1.056420
9174.000000;1.056105
9173.000000;1.055683
9172.000000;1.055258
9171.000000;1.055117
9170.000000;1.055372
9169.000000;1.055761
9168.000000;1.055855
9167.000000;1.055442
9166.000000;1.054768
9165.000000;1.054361
9164.000000;1.054457
9163.000000;1.054660
9162.000000;1.054344
9161.000000;1.053413
9160.000000;1.052411
9159.000000;1.051800
9158.000000;1.051427
9157.000000;1.050911
9156.000000;1.050276
9155.000000;1.049848
9154.000000;1.049705
9153.000000;1.049609
9152.000000;1.049457
9151.000000;1.049443
9150.000000;1.049697
9149.000000;1.049972
9148.000000;1.049837
9147.000000;1.049102
9146.000000;1.047996
9145.000000;1.046971
9144.000000;1.046310
9143.000000;1.045874
9142.000000;1.045313
9141.000000;1.044607
9140.000000;1.044274
9139.000000;1.044841
9138.000000;1.046184
9137.000000;1.047571
9136.000000;1.048325
9135.000000;1.048228
9134.000000;1.047380
9133.000000;1.046048
9132.000000;1.044799
9131.000000;1.044400
9130.000000;1.045160
9129.000000;1.046388
9128.000000;1.046819
9127.000000;1.045751
9126.000000;1.043721
9125.000000;1.041970
9124.000000;1.041326
9123.000000;1.041625
9122.000000;1.042108
9121.000000;1.042212
9120.000000;1.041921
9119.000000;1.041492
9118.000000;1.041079
9117.000000;1.040702
9116.000000;1.040424
9115.000000;1.040372
9114.000000;1.040572
9113.000000;1.040839
9112.000000;1.040906
9111.000000;1.040660
9110.000000;1.040245
9109.000000;1.039932
9108.000000;1.039902
9107.000000;1.040143
9106.000000;1.040510
9105.000000;1.040776
9104.000000;1.040633
9103.000000;1.039845
9102.000000;1.038549
9101.000000;1.037322
9100.000000;1.036694
9099.000000;1.036592
9098.000000;1.036412
9097.000000;1.035693
9096.000000;1.034571
9095.000000;1.033596
9094.000000;1.033289
9093.000000;1.033861
9092.000000;1.035071
9091.000000;1.036273
9090.000000;1.036832
9089.000000;1.036703
9088.000000;1.036413
9087.000000;1.036313
9086.000000;1.036082
9085.000000;1.035196
9084.000000;1.033707
9083.000000;1.032296
9082.000000;1.031619
9081.000000;1.031816
9080.000000;1.032533
9079.000000;1.033180
9078.000000;1.033204
9077.000000;1.032455
9076.000000;1.031379
9075.000000;1.030663
9074.000000;1.030605
9073.000000;1.030931
9072.000000;1.031204
9071.000000;1.031239
9070.000000;1.031123
9069.000000;1.031004
9068.000000;1.030952
9067.000000;1.030872
9066.000000;1.030535
9065.000000;1.029840
9064.000000;1.029059
9063.000000;1.028650
9062.000000;1.028735
9061.000000;1.028956
9060.000000;1.028919
9059.000000;1.028666
9058.000000;1.028535
9057.000000;1.028683
9056.000000;1.028889
9055.000000;1.028809
9054.000000;1.028299
9053.000000;1.027492
