Criado como novo conjunto de dados;"1909daniel.spp","-4218821.3 Secs"
cm-1;Abs
10000.000000;1.357593
9999.000000;1.356125
9998.000000;1.354661
9997.000000;1.353203
9996.000000;1.351749
9995.000000;1.350301
9994.000000;1.348855
9993.000000;1.347421
9992.000000;1.345967
9991.000000;1.345252
9990.000000;1.345162
9989.000000;1.344965
9988.000000;1.344126
9987.000000;1.342749
9986.000000;1.341266
9985.000000;1.339828
9984.000000;1.338266
9983.000000;1.336607
9982.000000;1.335395
9981.000000;1.335300
9980.000000;1.336450
9979.000000;1.338247
9978.000000;1.339872
9977.000000;1.340831
9976.000000;1.341013
9975.000000;1.340446
9974.000000;1.339337
9973.000000;1.338235
9972.000000;1.337691
9971.000000;1.337637
9970.000000;1.337408
9969.000000;1.336451
9968.000000;1.334790
9967.000000;1.332727
9966.000000;1.330451
9965.000000;1.328244
9964.000000;1.326784
9963.000000;1.326734
9962.000000;1.327929
9961.000000;1.329304
9960.000000;1.329747
9959.000000;1.328900
9958.000000;1.327099
9957.000000;1.324864
9956.000000;1.322676
9955.000000;1.321057
9954.000000;1.320527
9953.000000;1.321258
9952.000000;1.322757
9951.000000;1.323995
9950.000000;1.324034
9949.000000;1.322665
9948.000000;1.320560
9947.000000;1.318766
9946.000000;1.317974
9945.000000;1.318111
9944.000000;1.318509
9943.000000;1.318453
9942.000000;1.317702
9941.000000;1.316545
9940.000000;1.315374
9939.000000;1.314289
9938.000000;1.313245
9937.000000;1.312442
9936.000000;1.312219
9935.000000;1.312515
9934.000000;1.312802
9933.000000;1.312694
9932.000000;1.312262
9931.000000;1.311544
9930.000000;1.310161
9929.000000;1.307902
9928.000000;1.305425
9927.000000;1.303692
9926.000000;1.302890
9925.000000;1.302561
9924.000000;1.302671
9923.000000;1.303678
9922.000000;1.305309
9921.000000;1.306131
9920.000000;1.305013
9919.000000;1.302577
9918.000000;1.300524
9917.000000;1.299775
9916.000000;1.299847
9915.000000;1.299739
9914.000000;1.298819
9913.000000;1.297008
9912.000000;1.294750
9911.000000;1.292967
9910.000000;1.292451
9909.000000;1.293037
9908.000000;1.293666
9907.000000;1.293467
9906.000000;1.292503
9905.000000;1.291311
9904.000000;1.290130
9903.000000;1.288910
9902.000000;1.287790
9901.000000;1.287066
9900.000000;1.286716
9899.000000;1.286345
9898.000000;1.285754
9897.000000;1.285225
9896.000000;1.285055
9895.000000;1.285042
9894.000000;1.284667
9893.000000;1.283732
9892.000000;1.282647
9891.000000;1.282059
9890.000000;1.282259
9889.000000;1.282931
9888.000000;1.283369
9887.000000;1.282970
9886.000000;1.281668
9885.000000;1.280010
9884.000000;1.278730
9883.000000;1.278173
9882.000000;1.278096
9881.000000;1.277980
9880.000000;1.277460
9879.000000;1.276494
9878.000000;1.275322
9877.000000;1.274336
9876.000000;1.273820
9875.000000;1.273702
9874.000000;1.273622
9873.000000;1.273311
9872.000000;1.272767
9871.000000;1.272059
9870.000000;1.271168
9869.000000;1.270157
9868.000000;1.269295
9867.000000;1.268728
9866.000000;1.268138
9865.000000;1.267004
9864.000000;1.265248
9863.000000;1.263436
9862.000000;1.262359
9861.000000;1.262493
9860.000000;1.263722
9859.000000;1.265316
9858.000000;1.266243
9857.000000;1.265815
9856.000000;1.264162
9855.000000;1.262005
9854.000000;1.260044
9853.000000;1.258641
9852.000000;1.257851
9851.000000;1.257480
9850.000000;1.257173
9849.000000;1.256706
9848.000000;1.256192
9847.000000;1.255785
9846.000000;1.255315
9845.000000;1.254500
9844.000000;1.253408
9843.000000;1.252371
9842.000000;1.251547
9841.000000;1.250914
9840.000000;1.250572
9839.000000;1.250624
9838.000000;1.250764
9837.000000;1.250406
9836.000000;1.249330
9835.000000;1.247888
9834.000000;1.246525
9833.000000;1.245464
9832.000000;1.244896
9831.000000;1.244997
9830.000000;1.245588
9829.000000;1.246121
9828.000000;1.246202
9827.000000;1.245833
9826.000000;1.245094
9825.000000;1.244030
9824.000000;1.242993
9823.000000;1.242564
9822.000000;1.242785
9821.000000;1.242864
9820.000000;1.242027
9819.000000;1.240417
9818.000000;1.238808
9817.000000;1.237721
9816.000000;1.237151
9815.000000;1.236921
9814.000000;1.236878
9813.000000;1.236872
9812.000000;1.236852
9811.000000;1.236893
9810.000000;1.236865
9809.000000;1.236256
9808.000000;1.234665
9807.000000;1.232402
9806.000000;1.230312
9805.000000;1.229003
9804.000000;1.228458
9803.000000;1.228281
9802.000000;1.228105
9801.000000;1.227750
9800.000000;1.227158
9799.000000;1.226242
9798.000000;1.224812
9797.000000;1.222841
9796.000000;1.220837
9795.000000;1.219653
9794.000000;1.219738
9793.000000;1.220751
9792.000000;1.221994
9791.000000;1.222967
9790.000000;1.223340
9789.000000;1.222813
9788.000000;1.221425
9787.000000;1.219786
9786.000000;1.218604
9785.000000;1.218038
9784.000000;1.217754
9783.000000;1.217432
9782.000000;1.216915
9781.000000;1.216078
9780.000000;1.214930
9779.000000;1.213744
9778.000000;1.212737
9777.000000;1.211754
9776.000000;1.210599
9775.000000;1.209551
9774.000000;1.209058
9773.000000;1.208954
9772.000000;1.208495
9771.000000;1.207284
9770.000000;1.205762
9769.000000;1.204615
9768.000000;1.204049
9767.000000;1.203826
9766.000000;1.203715
9765.000000;1.203674
9764.000000;1.203743
9763.000000;1.203918
9762.000000;1.204040
9761.000000;1.203732
9760.000000;1.202685
9759.000000;1.201158
9758.000000;1.199936
9757.000000;1.199585
9756.000000;1.199861
9755.000000;1.200054
9754.000000;1.199852
9753.000000;1.199588
9752.000000;1.199605
9751.000000;1.199640
9750.000000;1.199053
9749.000000;1.197643
9748.000000;1.196002
9747.000000;1.194919
9746.000000;1.194549
9745.000000;1.194378
9744.000000;1.193979
9743.000000;1.193496
9742.000000;1.193209
9741.000000;1.192877
9740.000000;1.191943
9739.000000;1.190373
9738.000000;1.188890
9737.000000;1.188194
9736.000000;1.188243
9735.000000;1.188546
9734.000000;1.188901
9733.000000;1.189414
9732.000000;1.189837
9731.000000;1.189375
9730.000000;1.187486
9729.000000;1.184615
9728.000000;1.181790
9727.000000;1.179621
9726.000000;1.178069
9725.000000;1.177074
9724.000000;1.176882
9723.000000;1.177514
9722.000000;1.178340
9721.000000;1.178606
9720.000000;1.178210
9719.000000;1.177570
9718.000000;1.176950
9717.000000;1.176340
9716.000000;1.175853
9715.000000;1.175676
9714.000000;1.175556
9713.000000;1.174836
9712.000000;1.173233
9711.000000;1.171242
9710.000000;1.169606
9709.000000;1.168704
9708.000000;1.168570
9707.000000;1.169027
9706.000000;1.169534
9705.000000;1.169327
9704.000000;1.168169
9703.000000;1.166740
9702.000000;1.165902
9701.000000;1.165744
9700.000000;1.165704
9699.000000;1.165404
9698.000000;1.164952
9697.000000;1.164503
9696.000000;1.163957
9695.000000;1.163116
9694.000000;1.161866
9693.000000;1.160234
9692.000000;1.158557
9691.000000;1.157508
9690.000000;1.157590
9689.000000;1.158503
9688.000000;1.159271
9687.000000;1.159105
9686.000000;1.158017
9685.000000;1.156605
9684.000000;1.155484
9683.000000;1.154954
9682.000000;1.154916
9681.000000;1.154991
9680.000000;1.154843
9679.000000;1.154497
9678.000000;1.154190
9677.000000;1.153905
9676.000000;1.153277
9675.000000;1.152090
9674.000000;1.150643
9673.000000;1.149419
9672.000000;1.148457
9671.000000;1.147337
9670.000000;1.145808
9669.000000;1.144282
9668.000000;1.143516
9667.000000;1.143787
9666.000000;1.144507
9665.000000;1.144746
9664.000000;1.144105
9663.000000;1.142951
9662.000000;1.141866
9661.000000;1.141080
9660.000000;1.140532
9659.000000;1.140240
9658.000000;1.140298
9657.000000;1.140538
9656.000000;1.140469
9655.000000;1.139698
9654.000000;1.138365
9653.000000;1.137020
9652.000000;1.136046
9651.000000;1.135317
9650.000000;1.134523
9649.000000;1.133713
9648.000000;1.133217
9647.000000;1.133042
9646.000000;1.132699
9645.000000;1.131874
9644.000000;1.130981
9643.000000;1.130625
9642.000000;1.130725
9641.000000;1.130652
9640.000000;1.130215
9639.000000;1.129873
9638.000000;1.129809
9637.000000;1.129408
9636.000000;1.128093
9635.000000;1.126263
9634.000000;1.124911
9633.000000;1.124479
9632.000000;1.124516
9631.000000;1.124366
9630.000000;1.123796
9629.000000;1.122943
9628.000000;1.122026
9627.000000;1.121247
9626.000000;1.120708
9625.000000;1.120315
9624.000000;1.119878
9623.000000;1.119374
9622.000000;1.119015
9621.000000;1.118993
9620.000000;1.119226
9619.000000;1.119395
9618.000000;1.119218
9617.000000;1.118632
9616.000000;1.117687
9615.000000;1.116333
9614.000000;1.114531
9613.000000;1.112660
9612.000000;1.111530
9611.000000;1.111616
9610.000000;1.112362
9609.000000;1.112678
9608.000000;1.112123
9607.000000;1.111191
9606.000000;1.110366
9605.000000;1.109546
9604.000000;1.108676
9603.000000;1.108319
9602.000000;1.109023
9601.000000;1.110405
9600.000000;1.111377
9599.000000;1.111184
9598.000000;1.109821
9597.000000;1.107675
9596.000000;1.105315
9595.000000;1.103491
9594.000000;1.102748
9593.000000;1.102885
9592.000000;1.103139
9591.000000;1.102982
9590.000000;1.102416
9589.000000;1.101555
9588.000000;1.100394
9587.000000;1.099151
9586.000000;1.098410
9585.000000;1.098591
9584.000000;1.099415
9583.000000;1.100048
9582.000000;1.099803
9581.000000;1.098700
9580.000000;1.097391
9579.000000;1.096509
9578.000000;1.096048
9577.000000;1.095489
9576.000000;1.094529
9575.000000;1.093394
9574.000000;1.092268
9573.000000;1.090810
9572.000000;1.088698
9571.000000;1.086413
9570.000000;1.084959
9569.000000;1.084848
9568.000000;1.085752
9567.000000;1.087064
9566.000000;1.088341
9565.000000;1.089166
9564.000000;1.089157
9563.000000;1.088354
9562.000000;1.087261
9561.000000;1.086269
9560.000000;1.085309
9559.000000;1.084238
9558.000000;1.083271
9557.000000;1.082749
9556.000000;1.082652
9555.000000;1.082534
9554.000000;1.081888
9553.000000;1.080533
9552.000000;1.078825
9551.000000;1.077517
9550.000000;1.077209
9549.000000;1.077800
9548.000000;1.078581
9547.000000;1.078901
9546.000000;1.078583
9545.000000;1.077728
9544.000000;1.076456
9543.000000;1.074995
9542.000000;1.073753
9541.000000;1.073082
9540.000000;1.073047
9539.000000;1.073476
9538.000000;1.074060
9537.000000;1.074335
9536.000000;1.073830
9535.000000;1.072481
9534.000000;1.070760
9533.000000;1.069247
9532.000000;1.068252
9531.000000;1.067900
9530.000000;1.068267
9529.000000;1.069114
9528.000000;1.069685
9527.000000;1.069206
9526.000000;1.067680
9525.000000;1.065943
9524.000000;1.064874
9523.000000;1.064672
9522.000000;1.064902
9521.000000;1.065031
9520.000000;1.064782
9519.000000;1.064060
9518.000000;1.062788
9517.000000;1.061020
9516.000000;1.059220
9515.000000;1.058147
9514.000000;1.058232
9513.000000;1.059103
9512.000000;1.059913
9511.000000;1.060112
9510.000000;1.059763
9509.000000;1.059155
9508.000000;1.058383
9507.000000;1.057365
9506.000000;1.056055
9505.000000;1.054523
9504.000000;1.053049
9503.000000;1.052161
9502.000000;1.052277
9501.000000;1.053125
9500.000000;1.053753
9499.000000;1.053407
9498.000000;1.052294
9497.000000;1.051227
9496.000000;1.050677
9495.000000;1.050452
9494.000000;1.050201
9493.000000;1.049850
9492.000000;1.049456
9491.000000;1.048949
9490.000000;1.048259
9489.000000;1.047563
9488.000000;1.047176
9487.000000;1.047132
9486.000000;1.047019
9485.000000;1.046362
9484.000000;1.045173
9483.000000;1.044000
9482.000000;1.043338
9481.000000;1.043082
9480.000000;1.042702
9479.000000;1.041968
9478.000000;1.041280
9477.000000;1.041142
9476.000000;1.041488
9475.000000;1.041721
9474.000000;1.041329
9473.000000;1.040281
9472.000000;1.038906
9471.000000;1.037599
9470.000000;1.036642
9469.000000;1.036091
9468.000000;1.035715
9467.000000;1.035206
9466.000000;1.034549
9465.000000;1.034032
9464.000000;1.033801
9463.000000;1.033561
9462.000000;1.032916
9461.000000;1.031920
9460.000000;1.031037
9459.000000;1.030531
9458.000000;1.030191
9457.000000;1.029805
9456.000000;1.029668
9455.000000;1.030237
9454.000000;1.031301
9453.000000;1.031865
9452.000000;1.031142
9451.000000;1.029488
9450.000000;1.028011
9449.000000;1.027348
9448.000000;1.027127
9447.000000;1.026694
9446.000000;1.025994
9445.000000;1.025462
9444.000000;1.025240
9443.000000;1.024959
9442.000000;1.024326
9441.000000;1.023563
9440.000000;1.023066
9439.000000;1.022858
9438.000000;1.022701
9437.000000;1.022610
9436.000000;1.022891
9435.000000;1.023588
9434.000000;1.024180
9433.000000;1.024041
9432.000000;1.023023
9431.000000;1.021434
9430.000000;1.019611
9429.000000;1.017770
9428.000000;1.016218
9427.000000;1.015360
9426.000000;1.015337
9425.000000;1.015760
9424.000000;1.015945
9423.000000;1.015461
9422.000000;1.014462
9421.000000;1.013546
9420.000000;1.013253
9419.000000;1.013614
9418.000000;1.014177
9417.000000;1.014458
9416.000000;1.014282
9415.000000;1.013644
9414.000000;1.012490
9413.000000;1.010889
9412.000000;1.009304
9411.000000;1.008328
9410.000000;1.008087
9409.000000;1.008154
9408.000000;1.008127
9407.000000;1.008029
9406.000000;1.008029
9405.000000;1.008020
9404.000000;1.007734
9403.000000;1.007148
9402.000000;1.006524
9401.000000;1.006090
9400.000000;1.005851
9399.000000;1.005660
9398.000000;1.005293
9397.000000;1.004483
9396.000000;1.003072
9395.000000;1.001258
9394.000000;0.999642
9393.000000;0.998897
9392.000000;0.999188
9391.000000;0.999871
9390.000000;0.999933
9389.000000;0.999001
9388.000000;0.997853
9387.000000;0.997658
9386.000000;0.998695
9385.000000;1.000068
9384.000000;1.000697
9383.000000;1.000275
9382.000000;0.999127
9381.000000;0.997570
9380.000000;0.995840
9379.000000;0.994400
9378.000000;0.993817
9377.000000;0.994253
9376.000000;0.995286
9375.000000;0.996253
9374.000000;0.996608
9373.000000;0.996062
9372.000000;0.994704
9371.000000;0.993050
9370.000000;0.991747
9369.000000;0.991046
9368.000000;0.990616
9367.000000;0.989959
9366.000000;0.988935
9365.000000;0.987872
9364.000000;0.987217
9363.000000;0.987094
9362.000000;0.987194
9361.000000;0.987124
9360.000000;0.986840
9359.000000;0.986617
9358.000000;0.986613
9357.000000;0.986634
9356.000000;0.986419
9355.000000;0.985979
9354.000000;0.985498
9353.000000;0.985041
9352.000000;0.984533
9351.000000;0.983927
9350.000000;0.983239
9349.000000;0.982483
9348.000000;0.981732
9347.000000;0.981136
9346.000000;0.980715
9345.000000;0.980235
9344.000000;0.979450
9343.000000;0.978438
9342.000000;0.977528
9341.000000;0.976983
9340.000000;0.976878
9339.000000;0.977175
9338.000000;0.977703
9337.000000;0.978138
9336.000000;0.978208
9335.000000;0.977893
9334.000000;0.977297
9333.000000;0.976486
9332.000000;0.975641
9331.000000;0.975189
9330.000000;0.975423
9329.000000;0.976050
9328.000000;0.976409
9327.000000;0.976128
9326.000000;0.975279
9325.000000;0.973979
9324.000000;0.972309
9323.000000;0.970694
9322.000000;0.969893
9321.000000;0.970276
9320.000000;0.971280
9319.000000;0.971821
9318.000000;0.971241
9317.000000;0.969810
9316.000000;0.968453
9315.000000;0.967976
9314.000000;0.968326
9313.000000;0.968538
9312.000000;0.967662
9311.000000;0.965869
9310.000000;0.964338
9309.000000;0.963900
9308.000000;0.964157
9307.000000;0.964182
9306.000000;0.963728
9305.000000;0.963320
9304.000000;0.963331
9303.000000;0.963477
9302.000000;0.963296
9301.000000;0.962711
9300.000000;0.961985
9299.000000;0.961402
9298.000000;0.961143
9297.000000;0.961200
9296.000000;0.961258
9295.000000;0.960882
9294.000000;0.960066
9293.000000;0.959396
9292.000000;0.959384
9291.000000;0.959768
9290.000000;0.959768
9289.000000;0.959043
9288.000000;0.958093
9287.000000;0.957609
9286.000000;0.957702
9285.000000;0.957952
9284.000000;0.957963
9283.000000;0.957629
9282.000000;0.956997
9281.000000;0.956190
9280.000000;0.955454
9279.000000;0.955006
9278.000000;0.954827
9277.000000;0.954742
9276.000000;0.954654
9275.000000;0.954500
9274.000000;0.954071
9273.000000;0.953226
9272.000000;0.952264
9271.000000;0.951716
9270.000000;0.951644
9269.000000;0.951497
9268.000000;0.950856
9267.000000;0.949999
9266.000000;0.949510
9265.000000;0.949621
9264.000000;0.950169
9263.000000;0.950900
9262.000000;0.951470
9261.000000;0.951437
9260.000000;0.950727
9259.000000;0.949929
9258.000000;0.949646
9257.000000;0.949622
9256.000000;0.949005
9255.000000;0.947500
9254.000000;0.945801
9253.000000;0.944733
9252.000000;0.944428
9251.000000;0.944542
9250.000000;0.944886
9249.000000;0.945485
9248.000000;0.946220
9247.000000;0.946740
9246.000000;0.946688
9245.000000;0.945907
9244.000000;0.944559
9243.000000;0.943134
9242.000000;0.942151
9241.000000;0.941692
9240.000000;0.941373
9239.000000;0.940874
9238.000000;0.940332
9237.000000;0.940055
9236.000000;0.940042
9235.000000;0.940034
9234.000000;0.939912
9233.000000;0.939732
9232.000000;0.939439
9231.000000;0.938892
9230.000000;0.938249
9229.000000;0.938015
9228.000000;0.938434
9227.000000;0.939027
9226.000000;0.939002
9225.000000;0.938149
9224.000000;0.937066
9223.000000;0.936416
9222.000000;0.936204
9221.000000;0.936012
9220.000000;0.935754
9219.000000;0.935788
9218.000000;0.936212
9217.000000;0.936442
9216.000000;0.935826
9215.000000;0.934525
9214.000000;0.933443
9213.000000;0.933293
9212.000000;0.933954
9211.000000;0.934696
9210.000000;0.934813
9209.000000;0.934028
9208.000000;0.932587
9207.000000;0.931105
9206.000000;0.930176
9205.000000;0.929978
9204.000000;0.930244
9203.000000;0.930595
9202.000000;0.930806
9201.000000;0.930785
9200.000000;0.930544
9199.000000;0.930272
9198.000000;0.930243
9197.000000;0.930485
9196.000000;0.930635
9195.000000;0.930233
9194.000000;0.929134
9193.000000;0.927614
9192.000000;0.926195
9191.000000;0.925379
9190.000000;0.925392
9189.000000;0.926018
9188.000000;0.926703
9187.000000;0.926913
9186.000000;0.926459
9185.000000;0.925539
9184.000000;0.924593
9183.000000;0.924060
9182.000000;0.924086
9181.000000;0.924422
9180.000000;0.924683
9179.000000;0.924719
9178.000000;0.924616
9177.000000;0.924375
9176.000000;0.923843
9175.000000;0.923048
9174.000000;0.922343
9173.000000;0.922066
9172.000000;0.922172
9171.000000;0.922296
9170.000000;0.922066
9169.000000;0.921314
9168.000000;0.920191
9167.000000;0.919213
9166.000000;0.918965
9165.000000;0.919554
9164.000000;0.920390
9163.000000;0.920699
9162.000000;0.920217
9161.000000;0.919265
9160.000000;0.918305
9159.000000;0.917572
9158.000000;0.917046
9157.000000;0.916548
9156.000000;0.915895
9155.000000;0.915142
9154.000000;0.914644
9153.000000;0.914721
9152.000000;0.915286
9151.000000;0.915932
9150.000000;0.916376
9149.000000;0.916647
9148.000000;0.916838
9147.000000;0.916877
9146.000000;0.916601
9145.000000;0.915944
9144.000000;0.914985
9143.000000;0.913918
9142.000000;0.912989
9141.000000;0.912397
9140.000000;0.912198
9139.000000;0.912346
9138.000000;0.912774
9137.000000;0.913334
9136.000000;0.913697
9135.000000;0.913517
9134.000000;0.912776
9133.000000;0.911820
9132.000000;0.911006
9131.000000;0.910428
9130.000000;0.910039
9129.000000;0.909833
9128.000000;0.909714
9127.000000;0.909329
9126.000000;0.908347
9125.000000;0.906982
9124.000000;0.906011
9123.000000;0.906073
9122.000000;0.907012
9121.000000;0.908026
9120.000000;0.908433
9119.000000;0.908182
9118.000000;0.907660
9117.000000;0.907175
9116.000000;0.906756
9115.000000;0.906383
9114.000000;0.906182
9113.000000;0.906308
9112.000000;0.906679
9111.000000;0.906952
9110.000000;0.906822
9109.000000;0.906340
9108.000000;0.905889
9107.000000;0.905817
9106.000000;0.906110
9105.000000;0.906442
9104.000000;0.906494
9103.000000;0.906183
9102.000000;0.905632
9101.000000;0.905068
9100.000000;0.904735
9099.000000;0.904736
9098.000000;0.904854
9097.000000;0.904705
9096.000000;0.904185
9095.000000;0.903637
9094.000000;0.903407
9093.000000;0.903319
9092.000000;0.902883
9091.000000;0.901987
9090.000000;0.901054
9089.000000;0.900434
9088.000000;0.899937
9087.000000;0.899223
9086.000000;0.898414
9085.000000;0.897993
9084.000000;0.898156
9083.000000;0.898586
9082.000000;0.898931
9081.000000;0.899215
9080.000000;0.899628
9079.000000;0.900091
9078.000000;0.900255
9077.000000;0.899892
9076.000000;0.899096
9075.000000;0.898145
9074.000000;0.897312
9073.000000;0.896836
9072.000000;0.896887
9071.000000;0.897401
9070.000000;0.897987
9069.000000;0.898154
9068.000000;0.897710
9067.000000;0.896896
9066.000000;0.896097
9065.000000;0.895468
9064.000000;0.894896
9063.000000;0.894266
9062.000000;0.893665
9061.000000;0.893321
9060.000000;0.893393
9059.000000;0.893852
9058.000000;0.894500
9057.000000;0.895075
9056.000000;0.895339
9055.000000;0.895132
9054.000000;0.894427
9053.000000;0.893403
