Criado como novo conjunto de dados;"1909daniel.spp","-4219901.1 Secs"
cm-1;Abs
10000.000000;1.438593
9999.000000;1.438027
9998.000000;1.437474
9997.000000;1.436891
9996.000000;1.436523
9995.000000;1.436762
9994.000000;1.437560
9993.000000;1.438199
9992.000000;1.437847
9991.000000;1.436360
9990.000000;1.434428
9989.000000;1.433099
9988.000000;1.433021
9987.000000;1.433994
9986.000000;1.435224
9985.000000;1.436065
9984.000000;1.436415
9983.000000;1.436352
9982.000000;1.435617
9981.000000;1.433722
9980.000000;1.430596
9979.000000;1.427006
9978.000000;1.424169
9977.000000;1.422911
9976.000000;1.423186
9975.000000;1.424288
9974.000000;1.425415
9973.000000;1.426067
9972.000000;1.426146
9971.000000;1.425982
9970.000000;1.426155
9969.000000;1.426896
9968.000000;1.427611
9967.000000;1.427386
9966.000000;1.426118
9965.000000;1.424752
9964.000000;1.424086
9963.000000;1.423824
9962.000000;1.423229
9961.000000;1.422288
9960.000000;1.421573
9959.000000;1.421125
9958.000000;1.420241
9957.000000;1.418577
9956.000000;1.416884
9955.000000;1.416229
9954.000000;1.416728
9953.000000;1.417393
9952.000000;1.417146
9951.000000;1.415765
9950.000000;1.413841
9949.000000;1.411959
9948.000000;1.410133
9947.000000;1.408219
9946.000000;1.406635
9945.000000;1.406149
9944.000000;1.406858
9943.000000;1.407840
9942.000000;1.408181
9941.000000;1.407969
9940.000000;1.407744
9939.000000;1.407397
9938.000000;1.406473
9937.000000;1.405363
9936.000000;1.405154
9935.000000;1.406058
9934.000000;1.406809
9933.000000;1.406113
9932.000000;1.404200
9931.000000;1.402396
9930.000000;1.401605
9929.000000;1.401737
9928.000000;1.402223
9927.000000;1.402485
9926.000000;1.402036
9925.000000;1.400652
9924.000000;1.398561
9923.000000;1.396269
9922.000000;1.394247
9921.000000;1.392870
9920.000000;1.392414
9919.000000;1.392810
9918.000000;1.393540
9917.000000;1.394050
9916.000000;1.394243
9915.000000;1.394302
9914.000000;1.394137
9913.000000;1.393250
9912.000000;1.391218
9911.000000;1.388211
9910.000000;1.385091
9909.000000;1.382983
9908.000000;1.382529
9907.000000;1.383346
9906.000000;1.384254
9905.000000;1.384223
9904.000000;1.383119
9903.000000;1.381528
9902.000000;1.380078
9901.000000;1.379096
9900.000000;1.378696
9899.000000;1.378881
9898.000000;1.379513
9897.000000;1.380317
9896.000000;1.380968
9895.000000;1.381220
9894.000000;1.381043
9893.000000;1.380661
9892.000000;1.380326
9891.000000;1.380045
9890.000000;1.379642
9889.000000;1.379055
9888.000000;1.378321
9887.000000;1.377278
9886.000000;1.375676
9885.000000;1.373717
9884.000000;1.372125
9883.000000;1.371481
9882.000000;1.371740
9881.000000;1.372534
9880.000000;1.373579
9879.000000;1.374507
9878.000000;1.374633
9877.000000;1.373380
9876.000000;1.370917
9875.000000;1.368085
9874.000000;1.365725
9873.000000;1.364241
9872.000000;1.363623
9871.000000;1.363482
9870.000000;1.363114
9869.000000;1.361896
9868.000000;1.359830
9867.000000;1.357629
9866.000000;1.356246
9865.000000;1.356297
9864.000000;1.357708
9863.000000;1.359672
9862.000000;1.361048
9861.000000;1.361056
9860.000000;1.359728
9859.000000;1.357741
9858.000000;1.355952
9857.000000;1.355035
9856.000000;1.355158
9855.000000;1.355796
9854.000000;1.356150
9853.000000;1.355864
9852.000000;1.355129
9851.000000;1.354097
9850.000000;1.352670
9849.000000;1.351039
9848.000000;1.349948
9847.000000;1.349950
9846.000000;1.350633
9845.000000;1.351045
9844.000000;1.350734
9843.000000;1.349926
9842.000000;1.348881
9841.000000;1.347632
9840.000000;1.346322
9839.000000;1.345222
9838.000000;1.344317
9837.000000;1.343338
9836.000000;1.342299
9835.000000;1.341526
9834.000000;1.341019
9833.000000;1.340308
9832.000000;1.339251
9831.000000;1.338459
9830.000000;1.338417
9829.000000;1.338487
9828.000000;1.337457
9827.000000;1.335115
9826.000000;1.332752
9825.000000;1.331878
9824.000000;1.332738
9823.000000;1.334221
9822.000000;1.335049
9821.000000;1.334814
9820.000000;1.333915
9819.000000;1.332832
9818.000000;1.331742
9817.000000;1.330635
9816.000000;1.329558
9815.000000;1.328674
9814.000000;1.328198
9813.000000;1.328277
9812.000000;1.328814
9811.000000;1.329400
9810.000000;1.329614
9809.000000;1.329425
9808.000000;1.329143
9807.000000;1.328896
9806.000000;1.328382
9805.000000;1.327314
9804.000000;1.325930
9803.000000;1.324800
9802.000000;1.324210
9801.000000;1.323901
9800.000000;1.323347
9799.000000;1.322085
9798.000000;1.319872
9797.000000;1.316889
9796.000000;1.313904
9795.000000;1.311974
9794.000000;1.311685
9793.000000;1.312597
9792.000000;1.313516
9791.000000;1.313492
9790.000000;1.312655
9789.000000;1.311945
9788.000000;1.311964
9787.000000;1.312232
9786.000000;1.311783
9785.000000;1.310452
9784.000000;1.309165
9783.000000;1.308761
9782.000000;1.308904
9781.000000;1.308555
9780.000000;1.307286
9779.000000;1.305703
9778.000000;1.304586
9777.000000;1.304065
9776.000000;1.303712
9775.000000;1.303074
9774.000000;1.301898
9773.000000;1.300152
9772.000000;1.298125
9771.000000;1.296444
9770.000000;1.295795
9769.000000;1.296528
9768.000000;1.298366
9767.000000;1.300387
9766.000000;1.301463
9765.000000;1.301082
9764.000000;1.299799
9763.000000;1.298646
9762.000000;1.298049
9761.000000;1.297533
9760.000000;1.296481
9759.000000;1.294897
9758.000000;1.293315
9757.000000;1.292224
9756.000000;1.291806
9755.000000;1.292018
9754.000000;1.292587
9753.000000;1.292903
9752.000000;1.292220
9751.000000;1.290244
9750.000000;1.287586
9749.000000;1.285483
9748.000000;1.284863
9747.000000;1.285460
9746.000000;1.285994
9745.000000;1.285510
9744.000000;1.284448
9743.000000;1.284031
9742.000000;1.284648
9741.000000;1.285306
9740.000000;1.284843
9739.000000;1.283314
9738.000000;1.281819
9737.000000;1.281262
9736.000000;1.281714
9735.000000;1.282742
9734.000000;1.283796
9733.000000;1.284198
9732.000000;1.283335
9731.000000;1.281231
9730.000000;1.278736
9729.000000;1.276838
9728.000000;1.275845
9727.000000;1.275383
9726.000000;1.275093
9725.000000;1.275063
9724.000000;1.275524
9723.000000;1.276318
9722.000000;1.276813
9721.000000;1.276318
9720.000000;1.274578
9719.000000;1.271980
9718.000000;1.269367
9717.000000;1.267581
9716.000000;1.266960
9715.000000;1.267144
9714.000000;1.267402
9713.000000;1.267269
9712.000000;1.266836
9711.000000;1.266468
9710.000000;1.266414
9709.000000;1.266731
9708.000000;1.267383
9707.000000;1.268128
9706.000000;1.268363
9705.000000;1.267408
9704.000000;1.265152
9703.000000;1.262270
9702.000000;1.259647
9701.000000;1.257698
9700.000000;1.256395
9699.000000;1.255767
9698.000000;1.255997
9697.000000;1.256940
9696.000000;1.257883
9695.000000;1.258045
9694.000000;1.257274
9693.000000;1.256089
9692.000000;1.255109
9691.000000;1.254600
9690.000000;1.254465
9689.000000;1.254384
9688.000000;1.253862
9687.000000;1.252485
9686.000000;1.250434
9685.000000;1.248577
9684.000000;1.247723
9683.000000;1.247753
9682.000000;1.247724
9681.000000;1.246858
9680.000000;1.245237
9679.000000;1.243446
9678.000000;1.241857
9677.000000;1.240523
9676.000000;1.239549
9675.000000;1.239148
9674.000000;1.239226
9673.000000;1.239217
9672.000000;1.238606
9671.000000;1.237545
9670.000000;1.236764
9669.000000;1.236853
9668.000000;1.237754
9667.000000;1.238900
9666.000000;1.239665
9665.000000;1.239627
9664.000000;1.238669
9663.000000;1.237107
9662.000000;1.235665
9661.000000;1.234999
9660.000000;1.235088
9659.000000;1.235267
9658.000000;1.234983
9657.000000;1.234342
9656.000000;1.233755
9655.000000;1.233278
9654.000000;1.232580
9653.000000;1.231456
9652.000000;1.230030
9651.000000;1.228479
9650.000000;1.226906
9649.000000;1.225607
9648.000000;1.225137
9647.000000;1.225831
9646.000000;1.227266
9645.000000;1.228362
9644.000000;1.228139
9643.000000;1.226446
9642.000000;1.224059
9641.000000;1.222087
9640.000000;1.221134
9639.000000;1.220931
9638.000000;1.220779
9637.000000;1.220308
9636.000000;1.219703
9635.000000;1.219267
9634.000000;1.219086
9633.000000;1.219161
9632.000000;1.219479
9631.000000;1.219770
9630.000000;1.219475
9629.000000;1.218260
9628.000000;1.216412
9627.000000;1.214519
9626.000000;1.212914
9625.000000;1.211690
9624.000000;1.211032
9623.000000;1.211133
9622.000000;1.211835
9621.000000;1.212666
9620.000000;1.213217
9619.000000;1.213217
9618.000000;1.212352
9617.000000;1.210501
9616.000000;1.208239
9615.000000;1.206592
9614.000000;1.206027
9613.000000;1.205967
9612.000000;1.205585
9611.000000;1.204820
9610.000000;1.204289
9609.000000;1.204381
9608.000000;1.204840
9607.000000;1.205206
9606.000000;1.205319
9605.000000;1.205289
9604.000000;1.205217
9603.000000;1.205045
9602.000000;1.204570
9601.000000;1.203627
9600.000000;1.202363
9599.000000;1.201221
9598.000000;1.200520
9597.000000;1.200073
9596.000000;1.199435
9595.000000;1.198514
9594.000000;1.197673
9593.000000;1.197141
9592.000000;1.196653
9591.000000;1.195881
9590.000000;1.194993
9589.000000;1.194426
9588.000000;1.194234
9587.000000;1.193996
9586.000000;1.193379
9585.000000;1.192467
9584.000000;1.191457
9583.000000;1.190355
9582.000000;1.189175
9581.000000;1.188195
9580.000000;1.187701
9579.000000;1.187586
9578.000000;1.187404
9577.000000;1.186815
9576.000000;1.185832
9575.000000;1.184693
9574.000000;1.183710
9573.000000;1.183198
9572.000000;1.183253
9571.000000;1.183533
9570.000000;1.183476
9569.000000;1.182840
9568.000000;1.181884
9567.000000;1.180961
9566.000000;1.180152
9565.000000;1.179428
9564.000000;1.178928
9563.000000;1.178799
9562.000000;1.178848
9561.000000;1.178688
9560.000000;1.178285
9559.000000;1.178058
9558.000000;1.178238
9557.000000;1.178303
9556.000000;1.177420
9555.000000;1.175496
9554.000000;1.173497
9553.000000;1.172465
9552.000000;1.172388
9551.000000;1.172279
9550.000000;1.171369
9549.000000;1.169965
9548.000000;1.168994
9547.000000;1.168896
9546.000000;1.169251
9545.000000;1.169352
9544.000000;1.168863
9543.000000;1.167922
9542.000000;1.166838
9541.000000;1.165857
9540.000000;1.165134
9539.000000;1.164806
9538.000000;1.164949
9537.000000;1.165381
9536.000000;1.165574
9535.000000;1.165012
9534.000000;1.163800
9533.000000;1.162716
9532.000000;1.162385
9531.000000;1.162422
9530.000000;1.161695
9529.000000;1.159564
9528.000000;1.156721
9527.000000;1.154696
9526.000000;1.154586
9525.000000;1.156195
9524.000000;1.158161
9523.000000;1.158919
9522.000000;1.157839
9521.000000;1.155625
9520.000000;1.153652
9519.000000;1.152893
9518.000000;1.153366
9517.000000;1.154319
9516.000000;1.154824
9515.000000;1.154434
9514.000000;1.153537
9513.000000;1.152980
9512.000000;1.153109
9511.000000;1.153317
9510.000000;1.152820
9509.000000;1.151698
9508.000000;1.150693
9507.000000;1.150081
9506.000000;1.149385
9505.000000;1.148345
9504.000000;1.147481
9503.000000;1.147268
9502.000000;1.147288
9501.000000;1.146783
9500.000000;1.145788
9499.000000;1.145129
9498.000000;1.145312
9497.000000;1.145890
9496.000000;1.145994
9495.000000;1.145214
9494.000000;1.143928
9493.000000;1.142945
9492.000000;1.142789
9491.000000;1.143229
9490.000000;1.143538
9489.000000;1.143305
9488.000000;1.142835
9487.000000;1.142555
9486.000000;1.142288
9485.000000;1.141448
9484.000000;1.139831
9483.000000;1.137803
9482.000000;1.135789
9481.000000;1.133973
9480.000000;1.132541
9479.000000;1.131768
9478.000000;1.131658
9477.000000;1.131799
9476.000000;1.131823
9475.000000;1.131844
9474.000000;1.132221
9473.000000;1.132991
9472.000000;1.133730
9471.000000;1.133933
9470.000000;1.133425
9469.000000;1.132427
9468.000000;1.131337
9467.000000;1.130458
9466.000000;1.129882
9465.000000;1.129537
9464.000000;1.129277
9463.000000;1.128918
9462.000000;1.128321
9461.000000;1.127509
9460.000000;1.126634
9459.000000;1.125746
9458.000000;1.124657
9457.000000;1.123174
9456.000000;1.121423
9455.000000;1.119860
9454.000000;1.118981
9453.000000;1.119053
9452.000000;1.119969
9451.000000;1.121215
9450.000000;1.122094
9449.000000;1.122204
9448.000000;1.121681
9447.000000;1.120873
9446.000000;1.119919
9445.000000;1.118828
9444.000000;1.117787
9443.000000;1.117069
9442.000000;1.116666
9441.000000;1.116260
9440.000000;1.115623
9439.000000;1.114874
9438.000000;1.114363
9437.000000;1.114424
9436.000000;1.115158
9435.000000;1.116201
9434.000000;1.116797
9433.000000;1.116386
9432.000000;1.115139
9431.000000;1.113676
9430.000000;1.112296
9429.000000;1.110828
9428.000000;1.109235
9427.000000;1.107934
9426.000000;1.107353
9425.000000;1.107446
9424.000000;1.107846
9423.000000;1.108235
9422.000000;1.108389
9421.000000;1.108112
9420.000000;1.107413
9419.000000;1.106581
9418.000000;1.105896
9417.000000;1.105411
9416.000000;1.105170
9415.000000;1.105339
9414.000000;1.105829
9413.000000;1.106018
9412.000000;1.105305
9411.000000;1.103902
9410.000000;1.102688
9409.000000;1.102202
9408.000000;1.102123
9407.000000;1.101866
9406.000000;1.101372
9405.000000;1.101037
9404.000000;1.101057
9403.000000;1.101192
9402.000000;1.101152
9401.000000;1.100908
9400.000000;1.100502
9399.000000;1.099826
9398.000000;1.098841
9397.000000;1.097865
9396.000000;1.097280
9395.000000;1.096941
9394.000000;1.096237
9393.000000;1.094954
9392.000000;1.093758
9391.000000;1.093429
9390.000000;1.093806
9389.000000;1.093935
9388.000000;1.093281
9387.000000;1.092356
9386.000000;1.091928
9385.000000;1.092035
9384.000000;1.092087
9383.000000;1.091654
9382.000000;1.090759
9381.000000;1.089533
9380.000000;1.088061
9379.000000;1.086676
9378.000000;1.086013
9377.000000;1.086471
9376.000000;1.087668
9375.000000;1.088609
9374.000000;1.088511
9373.000000;1.087453
9372.000000;1.086199
9371.000000;1.085368
9370.000000;1.084869
9369.000000;1.084213
9368.000000;1.083300
9367.000000;1.082643
9366.000000;1.082690
9365.000000;1.083150
9364.000000;1.083251
9363.000000;1.082574
9362.000000;1.081390
9361.000000;1.080212
9360.000000;1.079300
9359.000000;1.078654
9358.000000;1.078208
9357.000000;1.077882
9356.000000;1.077643
9355.000000;1.077633
9354.000000;1.078068
9353.000000;1.078819
9352.000000;1.079271
9351.000000;1.078846
9350.000000;1.077644
9349.000000;1.076340
9348.000000;1.075432
9347.000000;1.074803
9346.000000;1.074047
9345.000000;1.073067
9344.000000;1.072221
9343.000000;1.071958
9342.000000;1.072357
9341.000000;1.072957
9340.000000;1.073062
9339.000000;1.072345
9338.000000;1.071231
9337.000000;1.070524
9336.000000;1.070558
9335.000000;1.070847
9334.000000;1.070696
9333.000000;1.070086
9332.000000;1.069663
9331.000000;1.069852
9330.000000;1.070208
9329.000000;1.069883
9328.000000;1.068626
9327.000000;1.067106
9326.000000;1.066173
9325.000000;1.065992
9324.000000;1.065984
9323.000000;1.065526
9322.000000;1.064540
9321.000000;1.063421
9320.000000;1.062583
9319.000000;1.062218
9318.000000;1.062364
9317.000000;1.062928
9316.000000;1.063590
9315.000000;1.063894
9314.000000;1.063613
9313.000000;1.062953
9312.000000;1.062264
9311.000000;1.061606
9310.000000;1.060738
9309.000000;1.059556
9308.000000;1.058390
9307.000000;1.057767
9306.000000;1.057915
9305.000000;1.058567
9304.000000;1.059221
9303.000000;1.059557
9302.000000;1.059573
9301.000000;1.059384
9300.000000;1.059038
9299.000000;1.058536
9298.000000;1.057923
9297.000000;1.057232
9296.000000;1.056408
9295.000000;1.055461
9294.000000;1.054647
9293.000000;1.054299
9292.000000;1.054377
9291.000000;1.054387
9290.000000;1.053942
9289.000000;1.053264
9288.000000;1.052879
9287.000000;1.052920
9286.000000;1.053012
9285.000000;1.052833
9284.000000;1.052491
9283.000000;1.052239
9282.000000;1.052085
9281.000000;1.051857
9280.000000;1.051484
9279.000000;1.051043
9278.000000;1.050628
9277.000000;1.050306
9276.000000;1.050131
9275.000000;1.050082
9274.000000;1.050050
9273.000000;1.049960
9272.000000;1.049811
9271.000000;1.049568
9270.000000;1.049118
9269.000000;1.048441
9268.000000;1.047665
9267.000000;1.046844
9266.000000;1.045829
9265.000000;1.044576
9264.000000;1.043444
9263.000000;1.042964
9262.000000;1.043279
9261.000000;1.043990
9260.000000;1.044545
9259.000000;1.044640
9258.000000;1.044245
9257.000000;1.043484
9256.000000;1.042581
9255.000000;1.041748
9254.000000;1.040969
9253.000000;1.039998
9252.000000;1.038728
9251.000000;1.037510
9250.000000;1.036936
9249.000000;1.037242
9248.000000;1.038015
9247.000000;1.038573
9246.000000;1.038609
9245.000000;1.038385
9244.000000;1.038313
9243.000000;1.038424
9242.000000;1.038310
9241.000000;1.037535
9240.000000;1.036101
9239.000000;1.034575
9238.000000;1.033734
9237.000000;1.033930
9236.000000;1.034681
9235.000000;1.035094
9234.000000;1.034809
9233.000000;1.034335
9232.000000;1.034208
9231.000000;1.034093
9230.000000;1.033219
9229.000000;1.031604
9228.000000;1.030218
9227.000000;1.029725
9226.000000;1.029657
9225.000000;1.029201
9224.000000;1.028363
9223.000000;1.027813
9222.000000;1.027853
9221.000000;1.028182
9220.000000;1.028583
9219.000000;1.029212
9218.000000;1.030051
9217.000000;1.030588
9216.000000;1.030376
9215.000000;1.029612
9214.000000;1.028818
9213.000000;1.028127
9212.000000;1.027209
9211.000000;1.025858
9210.000000;1.024421
9209.000000;1.023541
9208.000000;1.023512
9207.000000;1.023989
9206.000000;1.024349
9205.000000;1.024349
9204.000000;1.024282
9203.000000;1.024387
9202.000000;1.024333
9201.000000;1.023607
9200.000000;1.022323
9199.000000;1.021257
9198.000000;1.020952
9197.000000;1.021135
9196.000000;1.021189
9195.000000;1.020899
9194.000000;1.020464
9193.000000;1.020024
9192.000000;1.019534
9191.000000;1.019058
9190.000000;1.018815
9189.000000;1.018861
9188.000000;1.018988
9187.000000;1.019014
9186.000000;1.018991
9185.000000;1.019002
9184.000000;1.018900
9183.000000;1.018428
9182.000000;1.017590
9181.000000;1.016747
9180.000000;1.016299
9179.000000;1.016294
9178.000000;1.016409
9177.000000;1.016306
9176.000000;1.015967
9175.000000;1.015646
9174.000000;1.015552
9173.000000;1.015661
9172.000000;1.015827
9171.000000;1.015972
9170.000000;1.016086
9169.000000;1.016091
9168.000000;1.015878
9167.000000;1.015523
9166.000000;1.015391
9165.000000;1.015815
9164.000000;1.016567
9163.000000;1.016767
9162.000000;1.015609
9161.000000;1.013309
9160.000000;1.011170
9159.000000;1.010480
9158.000000;1.011311
9157.000000;1.012508
9156.000000;1.012825
9155.000000;1.011969
9154.000000;1.010542
9153.000000;1.009234
9152.000000;1.008350
9151.000000;1.007938
9150.000000;1.007979
9149.000000;1.008316
9148.000000;1.008592
9147.000000;1.008490
9146.000000;1.008047
9145.000000;1.007619
9144.000000;1.007505
9143.000000;1.007686
9142.000000;1.007933
9141.000000;1.008072
9140.000000;1.008016
9139.000000;1.007646
9138.000000;1.006857
9137.000000;1.005817
9136.000000;1.005027
9135.000000;1.004905
9134.000000;1.005315
9133.000000;1.005632
9132.000000;1.005389
9131.000000;1.004800
9130.000000;1.004569
9129.000000;1.005101
9128.000000;1.005961
9127.000000;1.006212
9126.000000;1.005397
9125.000000;1.004116
9124.000000;1.003454
9123.000000;1.003786
9122.000000;1.004373
9121.000000;1.004274
9120.000000;1.003415
9119.000000;1.002493
9118.000000;1.002023
9117.000000;1.001898
9116.000000;1.001855
9115.000000;1.001887
9114.000000;1.001962
9113.000000;1.001681
9112.000000;1.000658
9111.000000;0.999162
9110.000000;0.998019
9109.000000;0.997815
9108.000000;0.998413
9107.000000;0.999269
9106.000000;0.999983
9105.000000;1.000367
9104.000000;1.000191
9103.000000;0.999206
9102.000000;0.997541
9101.000000;0.995876
9100.000000;0.994995
9099.000000;0.995123
9098.000000;0.995786
9097.000000;0.996349
9096.000000;0.996550
9095.000000;0.996451
9094.000000;0.996083
9093.000000;0.995422
9092.000000;0.994691
9091.000000;0.994313
9090.000000;0.994374
9089.000000;0.994356
9088.000000;0.993722
9087.000000;0.992686
9086.000000;0.992079
9085.000000;0.992424
9084.000000;0.993399
9083.000000;0.994311
9082.000000;0.994888
9081.000000;0.995358
9080.000000;0.995851
9079.000000;0.996026
9078.000000;0.995418
9077.000000;0.994017
9076.000000;0.992345
9075.000000;0.991016
9074.000000;0.990329
9073.000000;0.990303
9072.000000;0.990897
9071.000000;0.991945
9070.000000;0.992903
9069.000000;0.993008
9068.000000;0.991988
9067.000000;0.990496
9066.000000;0.989548
9065.000000;0.989479
9064.000000;0.989675
9063.000000;0.989401
9062.000000;0.988671
9061.000000;0.988088
9060.000000;0.988026
9059.000000;0.988295
9058.000000;0.988575
9057.000000;0.988827
9056.000000;0.989118
9055.000000;0.989267
9054.000000;0.988907
9053.000000;0.987898
