Criado como novo conjunto de dados;"1909daniel.spp","-4294245.5 Secs"
cm-1;Abs
10000.000000;0.878795
9999.000000;0.877972
9998.000000;0.877157
9997.000000;0.876329
9996.000000;0.875591
9995.000000;0.875047
9994.000000;0.874556
9993.000000;0.873912
9992.000000;0.873051
9991.000000;0.872076
9990.000000;0.871212
9989.000000;0.870658
9988.000000;0.870382
9987.000000;0.870146
9986.000000;0.869801
9985.000000;0.869378
9984.000000;0.868858
9983.000000;0.868115
9982.000000;0.867188
9981.000000;0.866315
9980.000000;0.865547
9979.000000;0.864613
9978.000000;0.863386
9977.000000;0.862198
9976.000000;0.861410
9975.000000;0.860927
9974.000000;0.860419
9973.000000;0.859813
9972.000000;0.859261
9971.000000;0.858808
9970.000000;0.858419
9969.000000;0.858156
9968.000000;0.858012
9967.000000;0.857712
9966.000000;0.857015
9965.000000;0.856128
9964.000000;0.855479
9963.000000;0.855112
9962.000000;0.854633
9961.000000;0.853749
9960.000000;0.852602
9959.000000;0.851553
9958.000000;0.850846
9957.000000;0.850489
9956.000000;0.850267
9955.000000;0.849883
9954.000000;0.849286
9953.000000;0.848797
9952.000000;0.848699
9951.000000;0.848741
9950.000000;0.848318
9949.000000;0.847169
9948.000000;0.845683
9947.000000;0.844439
9946.000000;0.843655
9945.000000;0.843155
9944.000000;0.842693
9943.000000;0.842166
9942.000000;0.841588
9941.000000;0.840981
9940.000000;0.840315
9939.000000;0.839581
9938.000000;0.838908
9937.000000;0.838517
9936.000000;0.838468
9935.000000;0.838492
9934.000000;0.838172
9933.000000;0.837297
9932.000000;0.836024
9931.000000;0.834766
9930.000000;0.833938
9929.000000;0.833683
9928.000000;0.833737
9927.000000;0.833604
9926.000000;0.832987
9925.000000;0.832022
9924.000000;0.831091
9923.000000;0.830462
9922.000000;0.830145
9921.000000;0.829958
9920.000000;0.829632
9919.000000;0.828970
9918.000000;0.827993
9917.000000;0.826910
9916.000000;0.825888
9915.000000;0.824933
9914.000000;0.824008
9913.000000;0.823132
9912.000000;0.822313
9911.000000;0.821507
9910.000000;0.820700
9909.000000;0.819946
9908.000000;0.819265
9907.000000;0.818623
9906.000000;0.818052
9905.000000;0.817618
9904.000000;0.817218
9903.000000;0.816607
9902.000000;0.815754
9901.000000;0.814987
9900.000000;0.814640
9899.000000;0.814691
9898.000000;0.814870
9897.000000;0.814963
9896.000000;0.814864
9895.000000;0.814447
9894.000000;0.813610
9893.000000;0.812410
9892.000000;0.811043
9891.000000;0.809733
9890.000000;0.808695
9889.000000;0.808052
9888.000000;0.807671
9887.000000;0.807217
9886.000000;0.806517
9885.000000;0.805745
9884.000000;0.805135
9883.000000;0.804660
9882.000000;0.804145
9881.000000;0.803555
9880.000000;0.802989
9879.000000;0.802478
9878.000000;0.801981
9877.000000;0.801520
9876.000000;0.801153
9875.000000;0.800853
9874.000000;0.800512
9873.000000;0.800010
9872.000000;0.799223
9871.000000;0.798111
9870.000000;0.796915
9869.000000;0.796042
9868.000000;0.795568
9867.000000;0.795051
9866.000000;0.794117
9865.000000;0.793044
9864.000000;0.792429
9863.000000;0.792378
9862.000000;0.792401
9861.000000;0.792122
9860.000000;0.791662
9859.000000;0.791203
9858.000000;0.790564
9857.000000;0.789487
9856.000000;0.788089
9855.000000;0.786722
9854.000000;0.785530
9853.000000;0.784430
9852.000000;0.783481
9851.000000;0.782974
9850.000000;0.783056
9849.000000;0.783447
9848.000000;0.783664
9847.000000;0.783449
9846.000000;0.782861
9845.000000;0.782064
9844.000000;0.781160
9843.000000;0.780252
9842.000000;0.779474
9841.000000;0.778899
9840.000000;0.778483
9839.000000;0.778149
9838.000000;0.777857
9837.000000;0.777552
9836.000000;0.777151
9835.000000;0.776668
9834.000000;0.776215
9833.000000;0.775796
9832.000000;0.775210
9831.000000;0.774329
9830.000000;0.773349
9829.000000;0.772561
9828.000000;0.771917
9827.000000;0.771084
9826.000000;0.769940
9825.000000;0.768792
9824.000000;0.768031
9823.000000;0.767719
9822.000000;0.767598
9821.000000;0.767344
9820.000000;0.766762
9819.000000;0.765887
9818.000000;0.764971
9817.000000;0.764267
9816.000000;0.763783
9815.000000;0.763358
9814.000000;0.762955
9813.000000;0.762653
9812.000000;0.762355
9811.000000;0.761763
9810.000000;0.760764
9809.000000;0.759615
9808.000000;0.758614
9807.000000;0.757760
9806.000000;0.756914
9805.000000;0.756093
9804.000000;0.755404
9803.000000;0.754833
9802.000000;0.754296
9801.000000;0.753834
9800.000000;0.753520
9799.000000;0.753235
9798.000000;0.752725
9797.000000;0.751887
9796.000000;0.750899
9795.000000;0.750062
9794.000000;0.749599
9793.000000;0.749539
9792.000000;0.749687
9791.000000;0.749733
9790.000000;0.749456
9789.000000;0.748827
9788.000000;0.747903
9787.000000;0.746745
9786.000000;0.745513
9785.000000;0.744494
9784.000000;0.743891
9783.000000;0.743603
9782.000000;0.743305
9781.000000;0.742722
9780.000000;0.741792
9779.000000;0.740642
9778.000000;0.739480
9777.000000;0.738479
9776.000000;0.737690
9775.000000;0.737097
9774.000000;0.736716
9773.000000;0.736546
9772.000000;0.736420
9771.000000;0.736070
9770.000000;0.735428
9769.000000;0.734717
9768.000000;0.734149
9767.000000;0.733687
9766.000000;0.733207
9765.000000;0.732759
9764.000000;0.732504
9763.000000;0.732432
9762.000000;0.732280
9761.000000;0.731757
9760.000000;0.730778
9759.000000;0.729525
9758.000000;0.728303
9757.000000;0.727306
9756.000000;0.726488
9755.000000;0.725725
9754.000000;0.725074
9753.000000;0.724731
9752.000000;0.724700
9751.000000;0.724688
9750.000000;0.724432
9749.000000;0.723958
9748.000000;0.723430
9747.000000;0.722863
9746.000000;0.722139
9745.000000;0.721205
9744.000000;0.720123
9743.000000;0.718984
9742.000000;0.717902
9741.000000;0.717015
9740.000000;0.716386
9739.000000;0.715953
9738.000000;0.715629
9737.000000;0.715379
9736.000000;0.715139
9735.000000;0.714800
9734.000000;0.714381
9733.000000;0.714066
9732.000000;0.713931
9731.000000;0.713733
9730.000000;0.713163
9729.000000;0.712226
9728.000000;0.711208
9727.000000;0.710321
9726.000000;0.709547
9725.000000;0.708838
9724.000000;0.708250
9723.000000;0.707808
9722.000000;0.707381
9721.000000;0.706815
9720.000000;0.706144
9719.000000;0.705572
9718.000000;0.705246
9717.000000;0.705098
9716.000000;0.704943
9715.000000;0.704707
9714.000000;0.704465
9713.000000;0.704210
9712.000000;0.703698
9711.000000;0.702678
9710.000000;0.701262
9709.000000;0.699889
9708.000000;0.698896
9707.000000;0.698222
9706.000000;0.697595
9705.000000;0.696867
9704.000000;0.696095
9703.000000;0.695406
9702.000000;0.694874
9701.000000;0.694465
9700.000000;0.694048
9699.000000;0.693522
9698.000000;0.692961
9697.000000;0.692518
9696.000000;0.692168
9695.000000;0.691670
9694.000000;0.690858
9693.000000;0.689857
9692.000000;0.688922
9691.000000;0.688181
9690.000000;0.687588
9689.000000;0.687035
9688.000000;0.686423
9687.000000;0.685706
9686.000000;0.684954
9685.000000;0.684328
9684.000000;0.683895
9683.000000;0.683547
9682.000000;0.683121
9681.000000;0.682570
9680.000000;0.682000
9679.000000;0.681611
9678.000000;0.681549
9677.000000;0.681669
9676.000000;0.681490
9675.000000;0.680617
9674.000000;0.679276
9673.000000;0.678159
9672.000000;0.677636
9671.000000;0.677345
9670.000000;0.676717
9669.000000;0.675716
9668.000000;0.674794
9667.000000;0.674259
9666.000000;0.673938
9665.000000;0.673464
9664.000000;0.672683
9663.000000;0.671749
9662.000000;0.670960
9661.000000;0.670515
9660.000000;0.670342
9659.000000;0.670141
9658.000000;0.669655
9657.000000;0.668907
9656.000000;0.668133
9655.000000;0.667522
9654.000000;0.667031
9653.000000;0.666420
9652.000000;0.665473
9651.000000;0.664267
9650.000000;0.663200
9649.000000;0.662613
9648.000000;0.662408
9647.000000;0.662178
9646.000000;0.661749
9645.000000;0.661369
9644.000000;0.661277
9643.000000;0.661313
9642.000000;0.661111
9641.000000;0.660528
9640.000000;0.659710
9639.000000;0.658868
9638.000000;0.658147
9637.000000;0.657601
9636.000000;0.657131
9635.000000;0.656536
9634.000000;0.655746
9633.000000;0.654925
9632.000000;0.654218
9631.000000;0.653545
9630.000000;0.652811
9629.000000;0.652145
9628.000000;0.651723
9627.000000;0.651468
9626.000000;0.651155
9625.000000;0.650744
9624.000000;0.650353
9623.000000;0.649967
9622.000000;0.649418
9621.000000;0.648689
9620.000000;0.647995
9619.000000;0.647499
9618.000000;0.647124
9617.000000;0.646689
9616.000000;0.646099
9615.000000;0.645374
9614.000000;0.644628
9613.000000;0.644024
9612.000000;0.643630
9611.000000;0.643304
9610.000000;0.642821
9609.000000;0.642132
9608.000000;0.641392
9607.000000;0.640736
9606.000000;0.640181
9605.000000;0.639728
9604.000000;0.639377
9603.000000;0.639022
9602.000000;0.638487
9601.000000;0.637752
9600.000000;0.637022
9599.000000;0.636453
9598.000000;0.635945
9597.000000;0.635287
9596.000000;0.634451
9595.000000;0.633636
9594.000000;0.633076
9593.000000;0.632864
9592.000000;0.632927
9591.000000;0.633044
9590.000000;0.632895
9589.000000;0.632248
9588.000000;0.631178
9587.000000;0.630082
9586.000000;0.629370
9585.000000;0.629114
9584.000000;0.629019
9583.000000;0.628738
9582.000000;0.628151
9581.000000;0.627363
9580.000000;0.626519
9579.000000;0.625719
9578.000000;0.625028
9577.000000;0.624460
9576.000000;0.623958
9575.000000;0.623460
9574.000000;0.622972
9573.000000;0.622471
9572.000000;0.621804
9571.000000;0.620829
9570.000000;0.619660
9569.000000;0.618602
9568.000000;0.617859
9567.000000;0.617415
9566.000000;0.617209
9565.000000;0.617201
9564.000000;0.617254
9563.000000;0.617152
9562.000000;0.616830
9561.000000;0.616403
9560.000000;0.615853
9559.000000;0.614950
9558.000000;0.613676
9557.000000;0.612512
9556.000000;0.612016
9555.000000;0.612188
9554.000000;0.612487
9553.000000;0.612429
9552.000000;0.611959
9551.000000;0.611263
9550.000000;0.610473
9549.000000;0.609637
9548.000000;0.608803
9547.000000;0.608035
9546.000000;0.607408
9545.000000;0.606976
9544.000000;0.606668
9543.000000;0.606223
9542.000000;0.605429
9541.000000;0.604422
9540.000000;0.603614
9539.000000;0.603250
9538.000000;0.603153
9537.000000;0.602997
9536.000000;0.602699
9535.000000;0.602437
9534.000000;0.602333
9533.000000;0.602241
9532.000000;0.601869
9531.000000;0.601047
9530.000000;0.599870
9529.000000;0.598600
9528.000000;0.597456
9527.000000;0.596495
9526.000000;0.595683
9525.000000;0.595005
9524.000000;0.594483
9523.000000;0.594103
9522.000000;0.593789
9521.000000;0.593446
9520.000000;0.593028
9519.000000;0.592567
9518.000000;0.592178
9517.000000;0.591981
9516.000000;0.592003
9515.000000;0.592142
9514.000000;0.592272
9513.000000;0.592315
9512.000000;0.592182
9511.000000;0.591721
9510.000000;0.590827
9509.000000;0.589628
9508.000000;0.588463
9507.000000;0.587612
9506.000000;0.587059
9505.000000;0.586553
9504.000000;0.585877
9503.000000;0.585073
9502.000000;0.584390
9501.000000;0.584022
9500.000000;0.583897
9499.000000;0.583761
9498.000000;0.583456
9497.000000;0.583074
9496.000000;0.582790
9495.000000;0.582614
9494.000000;0.582383
9493.000000;0.581993
9492.000000;0.581505
9491.000000;0.580998
9490.000000;0.580404
9489.000000;0.579624
9488.000000;0.578742
9487.000000;0.577965
9486.000000;0.577323
9485.000000;0.576610
9484.000000;0.575747
9483.000000;0.575037
9482.000000;0.574802
9481.000000;0.574845
9480.000000;0.574567
9479.000000;0.573725
9478.000000;0.572779
9477.000000;0.572309
9476.000000;0.572297
9475.000000;0.572258
9474.000000;0.571905
9473.000000;0.571366
9472.000000;0.570807
9471.000000;0.570187
9470.000000;0.569460
9469.000000;0.568751
9468.000000;0.568178
9467.000000;0.567684
9466.000000;0.567195
9465.000000;0.566782
9464.000000;0.566529
9463.000000;0.566341
9462.000000;0.566027
9461.000000;0.565531
9460.000000;0.564982
9459.000000;0.564536
9458.000000;0.564238
9457.000000;0.564040
9456.000000;0.563895
9455.000000;0.563806
9454.000000;0.563724
9453.000000;0.563399
9452.000000;0.562496
9451.000000;0.561035
9450.000000;0.559621
9449.000000;0.558976
9448.000000;0.559209
9447.000000;0.559729
9446.000000;0.559907
9445.000000;0.559617
9444.000000;0.559074
9443.000000;0.558416
9442.000000;0.557671
9441.000000;0.556923
9440.000000;0.556289
9439.000000;0.555774
9438.000000;0.555343
9437.000000;0.555062
9436.000000;0.554990
9435.000000;0.554968
9434.000000;0.554703
9433.000000;0.554089
9432.000000;0.553297
9431.000000;0.552528
9430.000000;0.551783
9429.000000;0.550955
9428.000000;0.550075
9427.000000;0.549398
9426.000000;0.549190
9425.000000;0.549424
9424.000000;0.549687
9423.000000;0.549492
9422.000000;0.548726
9421.000000;0.547759
9420.000000;0.547059
9419.000000;0.546731
9418.000000;0.546500
9417.000000;0.546088
9416.000000;0.545536
9415.000000;0.545108
9414.000000;0.544940
9413.000000;0.544848
9412.000000;0.544513
9411.000000;0.543834
9410.000000;0.543031
9409.000000;0.542387
9408.000000;0.541968
9407.000000;0.541687
9406.000000;0.541512
9405.000000;0.541467
9404.000000;0.541454
9403.000000;0.541283
9402.000000;0.540909
9401.000000;0.540478
9400.000000;0.540073
9399.000000;0.539563
9398.000000;0.538810
9397.000000;0.537914
9396.000000;0.537118
9395.000000;0.536537
9394.000000;0.536091
9393.000000;0.535632
9392.000000;0.535042
9391.000000;0.534232
9390.000000;0.533205
9389.000000;0.532148
9388.000000;0.531401
9387.000000;0.531225
9386.000000;0.531576
9385.000000;0.532104
9384.000000;0.532391
9383.000000;0.532238
9382.000000;0.531756
9381.000000;0.531215
9380.000000;0.530813
9379.000000;0.530559
9378.000000;0.530270
9377.000000;0.529703
9376.000000;0.528785
9375.000000;0.527765
9374.000000;0.527032
9373.000000;0.526730
9372.000000;0.526641
9371.000000;0.526528
9370.000000;0.526426
9369.000000;0.526468
9368.000000;0.526545
9367.000000;0.526348
9366.000000;0.525702
9365.000000;0.524687
9364.000000;0.523508
9363.000000;0.522442
9362.000000;0.521819
9361.000000;0.521769
9360.000000;0.521966
9359.000000;0.521876
9358.000000;0.521319
9357.000000;0.520620
9356.000000;0.520170
9355.000000;0.520020
9354.000000;0.519945
9353.000000;0.519681
9352.000000;0.519053
9351.000000;0.518093
9350.000000;0.517134
9349.000000;0.516575
9348.000000;0.516448
9347.000000;0.516360
9346.000000;0.515937
9345.000000;0.515183
9344.000000;0.514334
9343.000000;0.513589
9342.000000;0.513104
9341.000000;0.513034
9340.000000;0.513360
9339.000000;0.513778
9338.000000;0.513923
9337.000000;0.513688
9336.000000;0.513225
9335.000000;0.512694
9334.000000;0.512130
9333.000000;0.511492
9332.000000;0.510784
9331.000000;0.510166
9330.000000;0.509898
9329.000000;0.510069
9328.000000;0.510367
9327.000000;0.510306
9326.000000;0.509721
9325.000000;0.508898
9324.000000;0.508177
9323.000000;0.507626
9322.000000;0.507173
9321.000000;0.506828
9320.000000;0.506592
9319.000000;0.506327
9318.000000;0.505919
9317.000000;0.505501
9316.000000;0.505323
9315.000000;0.505397
9314.000000;0.505393
9313.000000;0.504939
9312.000000;0.504018
9311.000000;0.503071
9310.000000;0.502629
9309.000000;0.502764
9308.000000;0.502961
9307.000000;0.502675
9306.000000;0.501938
9305.000000;0.501210
9304.000000;0.500711
9303.000000;0.500242
9302.000000;0.499673
9301.000000;0.499227
9300.000000;0.499119
9299.000000;0.499197
9298.000000;0.499162
9297.000000;0.498909
9296.000000;0.498481
9295.000000;0.497882
9294.000000;0.497168
9293.000000;0.496539
9292.000000;0.496117
9291.000000;0.495755
9290.000000;0.495253
9289.000000;0.494632
9288.000000;0.494060
9287.000000;0.493656
9286.000000;0.493535
9285.000000;0.493812
9284.000000;0.494340
9283.000000;0.494607
9282.000000;0.494200
9281.000000;0.493286
9280.000000;0.492406
9279.000000;0.491881
9278.000000;0.491644
9277.000000;0.491526
9276.000000;0.491442
9275.000000;0.491310
9274.000000;0.491063
9273.000000;0.490729
9272.000000;0.490360
9271.000000;0.489906
9270.000000;0.489351
9269.000000;0.488894
9268.000000;0.488750
9267.000000;0.488792
9266.000000;0.488625
9265.000000;0.488052
9264.000000;0.487301
9263.000000;0.486752
9262.000000;0.486571
9261.000000;0.486635
9260.000000;0.486680
9259.000000;0.486497
9258.000000;0.486092
9257.000000;0.485638
9256.000000;0.485235
9255.000000;0.484803
9254.000000;0.484301
9253.000000;0.483908
9252.000000;0.483804
9251.000000;0.483888
9250.000000;0.483939
9249.000000;0.483962
9248.000000;0.484102
9247.000000;0.484225
9246.000000;0.483909
9245.000000;0.482953
9244.000000;0.481721
9243.000000;0.480812
9242.000000;0.480488
9241.000000;0.480486
9240.000000;0.480328
9239.000000;0.479788
9238.000000;0.479105
9237.000000;0.478738
9236.000000;0.478877
9235.000000;0.479230
9234.000000;0.479371
9233.000000;0.479191
9232.000000;0.478850
9231.000000;0.478419
9230.000000;0.477785
9229.000000;0.476933
9228.000000;0.476073
9227.000000;0.475403
9226.000000;0.474920
9225.000000;0.474553
9224.000000;0.474320
9223.000000;0.474240
9222.000000;0.474211
9221.000000;0.474097
9220.000000;0.473885
9219.000000;0.473652
9218.000000;0.473442
9217.000000;0.473253
9216.000000;0.473120
9215.000000;0.473099
9214.000000;0.473149
9213.000000;0.473097
9212.000000;0.472787
9211.000000;0.472282
9210.000000;0.471866
9209.000000;0.471766
9208.000000;0.471876
9207.000000;0.471819
9206.000000;0.471342
9205.000000;0.470617
9204.000000;0.470060
9203.000000;0.469882
9202.000000;0.469871
9201.000000;0.469636
9200.000000;0.469065
9199.000000;0.468497
9198.000000;0.468414
9197.000000;0.468888
9196.000000;0.469388
9195.000000;0.469231
9194.000000;0.468249
9193.000000;0.466926
9192.000000;0.465892
9191.000000;0.465423
9190.000000;0.465423
9189.000000;0.465683
9188.000000;0.465971
9187.000000;0.466044
9186.000000;0.465801
9185.000000;0.465411
9184.000000;0.465131
9183.000000;0.465007
9182.000000;0.464885
9181.000000;0.464678
9180.000000;0.464467
9179.000000;0.464301
9178.000000;0.464048
9177.000000;0.463529
9176.000000;0.462747
9175.000000;0.461941
9174.000000;0.461393
9173.000000;0.461204
9172.000000;0.461246
9171.000000;0.461326
9170.000000;0.461368
9169.000000;0.461375
9168.000000;0.461292
9167.000000;0.461026
9166.000000;0.460621
9165.000000;0.460257
9164.000000;0.459998
9163.000000;0.459692
9162.000000;0.459216
9161.000000;0.458698
9160.000000;0.458367
9159.000000;0.458241
9158.000000;0.458116
9157.000000;0.457807
9156.000000;0.457312
9155.000000;0.456757
9154.000000;0.456318
9153.000000;0.456131
9152.000000;0.456172
9151.000000;0.456232
9150.000000;0.456101
9149.000000;0.455777
9148.000000;0.455437
9147.000000;0.455224
9146.000000;0.455129
9145.000000;0.455048
9144.000000;0.454879
9143.000000;0.454588
9142.000000;0.454242
9141.000000;0.453985
9140.000000;0.453920
9139.000000;0.454027
9138.000000;0.454183
9137.000000;0.454253
9136.000000;0.454142
9135.000000;0.453819
9134.000000;0.453323
9133.000000;0.452716
9132.000000;0.452055
9131.000000;0.451480
9130.000000;0.451237
9129.000000;0.451440
9128.000000;0.451783
9127.000000;0.451720
9126.000000;0.451055
9125.000000;0.450205
9124.000000;0.449744
9123.000000;0.449796
9122.000000;0.450013
9121.000000;0.450022
9120.000000;0.449764
9119.000000;0.449451
9118.000000;0.449347
9117.000000;0.449545
9116.000000;0.449858
9115.000000;0.449957
9114.000000;0.449690
9113.000000;0.449219
9112.000000;0.448781
9111.000000;0.448407
9110.000000;0.447982
9109.000000;0.447493
9108.000000;0.447108
9107.000000;0.447015
9106.000000;0.447229
9105.000000;0.447503
9104.000000;0.447426
9103.000000;0.446777
9102.000000;0.445847
9101.000000;0.445256
9100.000000;0.445335
9099.000000;0.445805
9098.000000;0.446163
9097.000000;0.446183
9096.000000;0.445943
9095.000000;0.445574
9094.000000;0.445199
9093.000000;0.444964
9092.000000;0.444864
9091.000000;0.444638
9090.000000;0.444080
9089.000000;0.443380
9088.000000;0.442928
9087.000000;0.442832
9086.000000;0.442856
9085.000000;0.442784
9084.000000;0.442598
9083.000000;0.442329
9082.000000;0.442009
9081.000000;0.441774
9080.000000;0.441759
9079.000000;0.441825
9078.000000;0.441642
9077.000000;0.441126
9076.000000;0.440602
9075.000000;0.440415
9074.000000;0.440542
9073.000000;0.440701
9072.000000;0.440722
9071.000000;0.440693
9070.000000;0.440778
9069.000000;0.441000
9068.000000;0.441173
9067.000000;0.441055
9066.000000;0.440585
9065.000000;0.439978
9064.000000;0.439499
9063.000000;0.439175
9062.000000;0.438856
9061.000000;0.438512
9060.000000;0.438330
9059.000000;0.438451
9058.000000;0.438751
9057.000000;0.438950
9056.000000;0.438876
9055.000000;0.438567
9054.000000;0.438189
9053.000000;0.437918
