Criado como novo conjunto de dados;"1909daniel.spp","-4271384.1 Secs"
cm-1;Abs
10000.000000;1.431639
9999.000000;1.430980
9998.000000;1.430139
9997.000000;1.428610
9996.000000;1.426204
9995.000000;1.423191
9994.000000;1.420314
9993.000000;1.418606
9992.000000;1.418736
9991.000000;1.420362
9990.000000;1.422386
9989.000000;1.423884
9988.000000;1.424602
9987.000000;1.424666
9986.000000;1.424269
9985.000000;1.423601
9984.000000;1.422726
9983.000000;1.421508
9982.000000;1.419959
9981.000000;1.418531
9980.000000;1.417631
9979.000000;1.417011
9978.000000;1.416188
9977.000000;1.415306
9976.000000;1.414889
9975.000000;1.414775
9974.000000;1.414109
9973.000000;1.412612
9972.000000;1.411163
9971.000000;1.410739
9970.000000;1.411325
9969.000000;1.412192
9968.000000;1.412679
9967.000000;1.412314
9966.000000;1.410761
9965.000000;1.408254
9964.000000;1.405770
9963.000000;1.404183
9962.000000;1.403385
9961.000000;1.402634
9960.000000;1.401601
9959.000000;1.400622
9958.000000;1.400061
9957.000000;1.399886
9956.000000;1.399828
9955.000000;1.399686
9954.000000;1.399410
9953.000000;1.399033
9952.000000;1.398503
9951.000000;1.397639
9950.000000;1.396447
9949.000000;1.395413
9948.000000;1.395121
9947.000000;1.395473
9946.000000;1.395651
9945.000000;1.395061
9944.000000;1.393944
9943.000000;1.392858
9942.000000;1.391990
9941.000000;1.391232
9940.000000;1.390458
9939.000000;1.389489
9938.000000;1.388195
9937.000000;1.386920
9936.000000;1.386348
9935.000000;1.386572
9934.000000;1.386665
9933.000000;1.385622
9932.000000;1.383498
9931.000000;1.381262
9930.000000;1.379763
9929.000000;1.379179
9928.000000;1.379254
9927.000000;1.379596
9926.000000;1.379810
9925.000000;1.379661
9924.000000;1.379190
9923.000000;1.378532
9922.000000;1.377732
9921.000000;1.376779
9920.000000;1.375640
9919.000000;1.374234
9918.000000;1.372736
9917.000000;1.371868
9916.000000;1.372291
9915.000000;1.373569
9914.000000;1.374289
9913.000000;1.373579
9912.000000;1.372016
9911.000000;1.370630
9910.000000;1.369575
9909.000000;1.368348
9908.000000;1.366862
9907.000000;1.365614
9906.000000;1.364979
9905.000000;1.364871
9904.000000;1.364972
9903.000000;1.364866
9902.000000;1.364095
9901.000000;1.362538
9900.000000;1.360677
9899.000000;1.359207
9898.000000;1.358500
9897.000000;1.358571
9896.000000;1.359197
9895.000000;1.359725
9894.000000;1.359170
9893.000000;1.357023
9892.000000;1.353816
9891.000000;1.350607
9890.000000;1.348179
9889.000000;1.346905
9888.000000;1.346842
9887.000000;1.347520
9886.000000;1.348072
9885.000000;1.348132
9884.000000;1.348229
9883.000000;1.348819
9882.000000;1.349403
9881.000000;1.349274
9880.000000;1.348648
9879.000000;1.348215
9878.000000;1.347947
9877.000000;1.347257
9876.000000;1.346104
9875.000000;1.344959
9874.000000;1.343812
9873.000000;1.342236
9872.000000;1.340564
9871.000000;1.339961
9870.000000;1.340911
9869.000000;1.342352
9868.000000;1.342775
9867.000000;1.341686
9866.000000;1.339674
9865.000000;1.337599
9864.000000;1.336111
9863.000000;1.335498
9862.000000;1.335511
9861.000000;1.335541
9860.000000;1.335193
9859.000000;1.334522
9858.000000;1.333676
9857.000000;1.332690
9856.000000;1.331658
9855.000000;1.330682
9854.000000;1.329691
9853.000000;1.328716
9852.000000;1.328296
9851.000000;1.328992
9850.000000;1.330361
9849.000000;1.331016
9848.000000;1.330001
9847.000000;1.327693
9846.000000;1.325147
9845.000000;1.323127
9844.000000;1.321946
9843.000000;1.321562
9842.000000;1.321411
9841.000000;1.320707
9840.000000;1.319371
9839.000000;1.318232
9838.000000;1.317904
9837.000000;1.317931
9836.000000;1.317518
9835.000000;1.316689
9834.000000;1.316064
9833.000000;1.315792
9832.000000;1.315398
9831.000000;1.314628
9830.000000;1.313812
9829.000000;1.313205
9828.000000;1.312435
9827.000000;1.310889
9826.000000;1.308457
9825.000000;1.305800
9824.000000;1.303970
9823.000000;1.303661
9822.000000;1.304574
9821.000000;1.305571
9820.000000;1.305748
9819.000000;1.305356
9818.000000;1.305433
9817.000000;1.306537
9816.000000;1.308046
9815.000000;1.308677
9814.000000;1.307541
9813.000000;1.304796
9812.000000;1.301541
9811.000000;1.299080
9810.000000;1.297990
9809.000000;1.297705
9808.000000;1.297188
9807.000000;1.296066
9806.000000;1.294900
9805.000000;1.294297
9804.000000;1.294140
9803.000000;1.293879
9802.000000;1.293300
9801.000000;1.292701
9800.000000;1.292486
9799.000000;1.292848
9798.000000;1.293688
9797.000000;1.294454
9796.000000;1.294195
9795.000000;1.292293
9794.000000;1.289336
9793.000000;1.286858
9792.000000;1.285964
9791.000000;1.286356
9790.000000;1.286828
9789.000000;1.286479
9788.000000;1.285263
9787.000000;1.283572
9786.000000;1.281719
9785.000000;1.279929
9784.000000;1.278512
9783.000000;1.277823
9782.000000;1.278023
9781.000000;1.278859
9780.000000;1.279628
9779.000000;1.279521
9778.000000;1.278262
9777.000000;1.276364
9776.000000;1.274578
9775.000000;1.273134
9774.000000;1.271795
9773.000000;1.270603
9772.000000;1.270121
9771.000000;1.270721
9770.000000;1.271879
9769.000000;1.272546
9768.000000;1.272208
9767.000000;1.271348
9766.000000;1.270773
9765.000000;1.270688
9764.000000;1.270540
9763.000000;1.269720
9762.000000;1.268290
9761.000000;1.266888
9760.000000;1.265949
9759.000000;1.265228
9758.000000;1.264188
9757.000000;1.262698
9756.000000;1.261135
9755.000000;1.259908
9754.000000;1.259173
9753.000000;1.258968
9752.000000;1.259221
9751.000000;1.259492
9750.000000;1.259078
9749.000000;1.257704
9748.000000;1.255950
9747.000000;1.254712
9746.000000;1.254318
9745.000000;1.254308
9744.000000;1.253965
9743.000000;1.252962
9742.000000;1.251581
9741.000000;1.250479
9740.000000;1.250156
9739.000000;1.250504
9738.000000;1.250836
9737.000000;1.250441
9736.000000;1.249146
9735.000000;1.247357
9734.000000;1.245710
9733.000000;1.244734
9732.000000;1.244612
9731.000000;1.244988
9730.000000;1.245121
9729.000000;1.244489
9728.000000;1.243267
9727.000000;1.242092
9726.000000;1.241385
9725.000000;1.240996
9724.000000;1.240478
9723.000000;1.239576
9722.000000;1.238517
9721.000000;1.237841
9720.000000;1.237885
9719.000000;1.238370
9718.000000;1.238552
9717.000000;1.237871
9716.000000;1.236432
9715.000000;1.234789
9714.000000;1.233420
9713.000000;1.232531
9712.000000;1.232227
9711.000000;1.232565
9710.000000;1.233335
9709.000000;1.233929
9708.000000;1.233683
9707.000000;1.232429
9706.000000;1.230693
9705.000000;1.229250
9704.000000;1.228404
9703.000000;1.227758
9702.000000;1.226762
9701.000000;1.225426
9700.000000;1.224333
9699.000000;1.223964
9698.000000;1.224133
9697.000000;1.224107
9696.000000;1.223194
9695.000000;1.221260
9694.000000;1.218843
9693.000000;1.216755
9692.000000;1.215462
9691.000000;1.214873
9690.000000;1.214770
9689.000000;1.215215
9688.000000;1.216231
9687.000000;1.217277
9686.000000;1.217518
9685.000000;1.216743
9684.000000;1.215605
9683.000000;1.214686
9682.000000;1.213745
9681.000000;1.212210
9680.000000;1.210128
9679.000000;1.208224
9678.000000;1.207097
9677.000000;1.206734
9676.000000;1.206762
9675.000000;1.206911
9674.000000;1.207156
9673.000000;1.207488
9672.000000;1.207633
9671.000000;1.207101
9670.000000;1.205686
9669.000000;1.203932
9668.000000;1.202876
9667.000000;1.203077
9666.000000;1.203936
9665.000000;1.204104
9664.000000;1.202627
9663.000000;1.199771
9662.000000;1.196844
9661.000000;1.195239
9660.000000;1.195442
9659.000000;1.196705
9658.000000;1.197638
9657.000000;1.197286
9656.000000;1.195687
9655.000000;1.193550
9654.000000;1.191572
9653.000000;1.190110
9652.000000;1.189241
9651.000000;1.188917
9650.000000;1.189054
9649.000000;1.189529
9648.000000;1.190076
9647.000000;1.190293
9646.000000;1.189919
9645.000000;1.189072
9644.000000;1.188027
9643.000000;1.186854
9642.000000;1.185510
9641.000000;1.184235
9640.000000;1.183471
9639.000000;1.183320
9638.000000;1.183428
9637.000000;1.183526
9636.000000;1.183713
9635.000000;1.183945
9634.000000;1.183662
9633.000000;1.182358
9632.000000;1.180363
9631.000000;1.178634
9630.000000;1.177789
9629.000000;1.177613
9628.000000;1.177468
9627.000000;1.176959
9626.000000;1.176169
9625.000000;1.175390
9624.000000;1.174715
9623.000000;1.173976
9622.000000;1.173109
9621.000000;1.172471
9620.000000;1.172505
9619.000000;1.173055
9618.000000;1.173295
9617.000000;1.172501
9616.000000;1.170755
9615.000000;1.168793
9614.000000;1.167356
9613.000000;1.166729
9612.000000;1.166621
9611.000000;1.166333
9610.000000;1.165316
9609.000000;1.163799
9608.000000;1.162639
9607.000000;1.162360
9606.000000;1.162600
9605.000000;1.162688
9604.000000;1.162427
9603.000000;1.161969
9602.000000;1.161270
9601.000000;1.160207
9600.000000;1.159079
9599.000000;1.158423
9598.000000;1.158281
9597.000000;1.158073
9596.000000;1.157300
9595.000000;1.156046
9594.000000;1.154726
9593.000000;1.153647
9592.000000;1.152958
9591.000000;1.152736
9590.000000;1.152925
9589.000000;1.153366
9588.000000;1.153976
9587.000000;1.154730
9586.000000;1.155406
9585.000000;1.155522
9584.000000;1.154707
9583.000000;1.153096
9582.000000;1.151192
9581.000000;1.149375
9580.000000;1.147683
9579.000000;1.146062
9578.000000;1.144685
9577.000000;1.143954
9576.000000;1.144162
9575.000000;1.145156
9574.000000;1.146280
9573.000000;1.146698
9572.000000;1.145908
9571.000000;1.144115
9570.000000;1.142167
9569.000000;1.140940
9568.000000;1.140618
9567.000000;1.140533
9566.000000;1.139863
9565.000000;1.138479
9564.000000;1.136963
9563.000000;1.135864
9562.000000;1.135194
9561.000000;1.134712
9560.000000;1.134383
9559.000000;1.134327
9558.000000;1.134455
9557.000000;1.134410
9556.000000;1.133879
9555.000000;1.132852
9554.000000;1.131588
9553.000000;1.130427
9552.000000;1.129588
9551.000000;1.129094
9550.000000;1.128850
9549.000000;1.128796
9548.000000;1.128909
9547.000000;1.129069
9546.000000;1.129054
9545.000000;1.128719
9544.000000;1.128060
9543.000000;1.127102
9542.000000;1.125884
9541.000000;1.124576
9540.000000;1.123466
9539.000000;1.122711
9538.000000;1.122242
9537.000000;1.121932
9536.000000;1.121698
9535.000000;1.121399
9534.000000;1.120838
9533.000000;1.120029
9532.000000;1.119312
9531.000000;1.119009
9530.000000;1.119015
9529.000000;1.118823
9528.000000;1.117946
9527.000000;1.116336
9526.000000;1.114512
9525.000000;1.113218
9524.000000;1.112816
9523.000000;1.112990
9522.000000;1.113176
9521.000000;1.113186
9520.000000;1.113155
9519.000000;1.113008
9518.000000;1.112439
9517.000000;1.111528
9516.000000;1.110887
9515.000000;1.110932
9514.000000;1.111335
9513.000000;1.111471
9512.000000;1.111068
9511.000000;1.110142
9510.000000;1.108687
9509.000000;1.106805
9508.000000;1.104926
9507.000000;1.103484
9506.000000;1.102502
9505.000000;1.101779
9504.000000;1.101335
9503.000000;1.101319
9502.000000;1.101630
9501.000000;1.101989
9500.000000;1.102287
9499.000000;1.102472
9498.000000;1.102210
9497.000000;1.101174
9496.000000;1.099692
9495.000000;1.098611
9494.000000;1.098320
9493.000000;1.098222
9492.000000;1.097396
9491.000000;1.095626
9490.000000;1.093628
9489.000000;1.092414
9488.000000;1.092499
9487.000000;1.093538
9486.000000;1.094595
9485.000000;1.094927
9484.000000;1.094578
9483.000000;1.094101
9482.000000;1.093735
9481.000000;1.093122
9480.000000;1.091902
9479.000000;1.090360
9478.000000;1.089210
9477.000000;1.088789
9476.000000;1.088656
9475.000000;1.088069
9474.000000;1.086791
9473.000000;1.085363
9472.000000;1.084532
9471.000000;1.084464
9470.000000;1.084596
9469.000000;1.084289
9468.000000;1.083503
9467.000000;1.082710
9466.000000;1.082279
9465.000000;1.082119
9464.000000;1.081894
9463.000000;1.081406
9462.000000;1.080736
9461.000000;1.080137
9460.000000;1.079781
9459.000000;1.079506
9458.000000;1.078885
9457.000000;1.077738
9456.000000;1.076510
9455.000000;1.075858
9454.000000;1.075828
9453.000000;1.075699
9452.000000;1.074813
9451.000000;1.073353
9450.000000;1.072107
9449.000000;1.071570
9448.000000;1.071561
9447.000000;1.071659
9446.000000;1.071692
9445.000000;1.071682
9444.000000;1.071546
9443.000000;1.071121
9442.000000;1.070415
9441.000000;1.069617
9440.000000;1.068850
9439.000000;1.068063
9438.000000;1.067235
9437.000000;1.066497
9436.000000;1.065961
9435.000000;1.065571
9434.000000;1.065254
9433.000000;1.065078
9432.000000;1.065043
9431.000000;1.064820
9430.000000;1.064003
9429.000000;1.062671
9428.000000;1.061442
9427.000000;1.060840
9426.000000;1.060789
9425.000000;1.060814
9424.000000;1.060563
9423.000000;1.059983
9422.000000;1.059184
9421.000000;1.058391
9420.000000;1.057877
9419.000000;1.057680
9418.000000;1.057401
9417.000000;1.056548
9416.000000;1.055127
9415.000000;1.053662
9414.000000;1.052559
9413.000000;1.051747
9412.000000;1.051031
9411.000000;1.050520
9410.000000;1.050430
9409.000000;1.050636
9408.000000;1.050764
9407.000000;1.050686
9406.000000;1.050557
9405.000000;1.050340
9404.000000;1.049698
9403.000000;1.048636
9402.000000;1.047852
9401.000000;1.047939
9400.000000;1.048374
9399.000000;1.047861
9398.000000;1.045901
9397.000000;1.043572
9396.000000;1.042451
9395.000000;1.043045
9394.000000;1.044485
9393.000000;1.045481
9392.000000;1.045303
9391.000000;1.044062
9390.000000;1.042490
9389.000000;1.041420
9388.000000;1.041142
9387.000000;1.041187
9386.000000;1.040946
9385.000000;1.040444
9384.000000;1.040197
9383.000000;1.040333
9382.000000;1.040272
9381.000000;1.039433
9380.000000;1.037952
9379.000000;1.036469
9378.000000;1.035398
9377.000000;1.034644
9376.000000;1.033917
9375.000000;1.033127
9374.000000;1.032482
9373.000000;1.032290
9372.000000;1.032614
9371.000000;1.033110
9370.000000;1.033277
9369.000000;1.032956
9368.000000;1.032460
9367.000000;1.032117
9366.000000;1.031820
9365.000000;1.031196
9364.000000;1.030140
9363.000000;1.028958
9362.000000;1.027946
9361.000000;1.027000
9360.000000;1.025800
9359.000000;1.024396
9358.000000;1.023470
9357.000000;1.023777
9356.000000;1.025248
9355.000000;1.026765
9354.000000;1.027049
9353.000000;1.025759
9352.000000;1.023618
9351.000000;1.021594
9350.000000;1.020232
9349.000000;1.019663
9348.000000;1.019835
9347.000000;1.020517
9346.000000;1.021297
9345.000000;1.021796
9344.000000;1.021875
9343.000000;1.021551
9342.000000;1.020802
9341.000000;1.019599
9340.000000;1.018157
9339.000000;1.017006
9338.000000;1.016689
9337.000000;1.017293
9336.000000;1.018239
9335.000000;1.018642
9334.000000;1.017993
9333.000000;1.016497
9332.000000;1.014743
9331.000000;1.013224
9330.000000;1.012226
9329.000000;1.011894
9328.000000;1.012115
9327.000000;1.012431
9326.000000;1.012361
9325.000000;1.011807
9324.000000;1.011017
9323.000000;1.010242
9322.000000;1.009686
9321.000000;1.009641
9320.000000;1.010228
9319.000000;1.010989
9318.000000;1.011146
9317.000000;1.010463
9316.000000;1.009533
9315.000000;1.009022
9314.000000;1.008887
9313.000000;1.008553
9312.000000;1.007624
9311.000000;1.006209
9310.000000;1.004717
9309.000000;1.003548
9308.000000;1.002891
9307.000000;1.002634
9306.000000;1.002474
9305.000000;1.002226
9304.000000;1.001989
9303.000000;1.001959
9302.000000;1.002144
9301.000000;1.002284
9300.000000;1.001956
9299.000000;1.000824
9298.000000;0.999016
9297.000000;0.997268
9296.000000;0.996431
9295.000000;0.996699
9294.000000;0.997485
9293.000000;0.998077
9292.000000;0.998195
9291.000000;0.997841
9290.000000;0.996964
9289.000000;0.995603
9288.000000;0.994176
9287.000000;0.993249
9286.000000;0.993028
9285.000000;0.993255
9284.000000;0.993564
9283.000000;0.993731
9282.000000;0.993591
9281.000000;0.992968
9280.000000;0.991855
9279.000000;0.990634
9278.000000;0.989943
9277.000000;0.990164
9276.000000;0.990995
9275.000000;0.991640
9274.000000;0.991567
9273.000000;0.991008
9272.000000;0.990525
9271.000000;0.990195
9270.000000;0.989582
9269.000000;0.988479
9268.000000;0.987256
9267.000000;0.986366
9266.000000;0.985870
9265.000000;0.985654
9264.000000;0.985801
9263.000000;0.986411
9262.000000;0.987248
9261.000000;0.987899
9260.000000;0.988203
9259.000000;0.988236
9258.000000;0.987932
9257.000000;0.987037
9256.000000;0.985509
9255.000000;0.983748
9254.000000;0.982307
9253.000000;0.981428
9252.000000;0.980913
9251.000000;0.980471
9250.000000;0.980174
9249.000000;0.980419
9248.000000;0.981283
9247.000000;0.982046
9246.000000;0.981761
9245.000000;0.980429
9244.000000;0.979189
9243.000000;0.979056
9242.000000;0.979726
9241.000000;0.979963
9240.000000;0.979004
9239.000000;0.977241
9238.000000;0.975618
9237.000000;0.974716
9236.000000;0.974452
9235.000000;0.974401
9234.000000;0.974290
9233.000000;0.974242
9232.000000;0.974531
9231.000000;0.975075
9230.000000;0.975346
9229.000000;0.974934
9228.000000;0.974053
9227.000000;0.973219
9226.000000;0.972608
9225.000000;0.972035
9224.000000;0.971444
9223.000000;0.970998
9222.000000;0.970696
9221.000000;0.970312
9220.000000;0.969844
9219.000000;0.969613
9218.000000;0.969737
9217.000000;0.969855
9216.000000;0.969648
9215.000000;0.969338
9214.000000;0.969333
9213.000000;0.969566
9212.000000;0.969564
9211.000000;0.969107
9210.000000;0.968473
9209.000000;0.967981
9208.000000;0.967594
9207.000000;0.967080
9206.000000;0.966343
9205.000000;0.965473
9204.000000;0.964599
9203.000000;0.963841
9202.000000;0.963303
9201.000000;0.962990
9200.000000;0.962771
9199.000000;0.962520
9198.000000;0.962259
9197.000000;0.962072
9196.000000;0.961917
9195.000000;0.961587
9194.000000;0.960869
9193.000000;0.959733
9192.000000;0.958431
9191.000000;0.957424
9190.000000;0.957100
9189.000000;0.957450
9188.000000;0.958033
9187.000000;0.958365
9186.000000;0.958358
9185.000000;0.958307
9184.000000;0.958475
9183.000000;0.958795
9182.000000;0.959014
9181.000000;0.959024
9180.000000;0.958942
9179.000000;0.958870
9178.000000;0.958632
9177.000000;0.957875
9176.000000;0.956526
9175.000000;0.955094
9174.000000;0.954317
9173.000000;0.954409
9172.000000;0.954791
9171.000000;0.954741
9170.000000;0.954166
9169.000000;0.953537
9168.000000;0.953218
9167.000000;0.953202
9166.000000;0.953428
9165.000000;0.953895
9164.000000;0.954340
9163.000000;0.954191
9162.000000;0.953200
9161.000000;0.951878
9160.000000;0.950980
9159.000000;0.950687
9158.000000;0.950542
9157.000000;0.950090
9156.000000;0.949310
9155.000000;0.948468
9154.000000;0.947833
9153.000000;0.947598
9152.000000;0.947828
9151.000000;0.948358
9150.000000;0.948821
9149.000000;0.948862
9148.000000;0.948332
9147.000000;0.947347
9146.000000;0.946229
9145.000000;0.945324
9144.000000;0.944756
9143.000000;0.944384
9142.000000;0.944070
9141.000000;0.943878
9140.000000;0.943903
9139.000000;0.944034
9138.000000;0.944049
9137.000000;0.943902
9136.000000;0.943719
9135.000000;0.943524
9134.000000;0.943150
9133.000000;0.942519
9132.000000;0.941887
9131.000000;0.941731
9130.000000;0.942314
9129.000000;0.943293
9128.000000;0.943833
9127.000000;0.943296
9126.000000;0.941931
9125.000000;0.940699
9124.000000;0.940352
9123.000000;0.940821
9122.000000;0.941541
9121.000000;0.942093
9120.000000;0.942332
9119.000000;0.942152
9118.000000;0.941527
9117.000000;0.940670
9116.000000;0.939889
9115.000000;0.939297
9114.000000;0.938837
9113.000000;0.938493
9112.000000;0.938271
9111.000000;0.938101
9110.000000;0.937953
9109.000000;0.937901
9108.000000;0.937888
9107.000000;0.937634
9106.000000;0.937071
9105.000000;0.936597
9104.000000;0.936497
9103.000000;0.936318
9102.000000;0.935362
9101.000000;0.933762
9100.000000;0.932483
9099.000000;0.932142
9098.000000;0.932352
9097.000000;0.932395
9096.000000;0.932102
9095.000000;0.931808
9094.000000;0.931789
9093.000000;0.932033
9092.000000;0.932360
9091.000000;0.932526
9090.000000;0.932291
9089.000000;0.931582
9088.000000;0.930521
9087.000000;0.929326
9086.000000;0.928326
9085.000000;0.927971
9084.000000;0.928438
9083.000000;0.929169
9082.000000;0.929198
9081.000000;0.928165
9080.000000;0.926695
9079.000000;0.925629
9078.000000;0.925227
9077.000000;0.925296
9076.000000;0.925681
9075.000000;0.926257
9074.000000;0.926726
9073.000000;0.926863
9072.000000;0.926851
9071.000000;0.927032
9070.000000;0.927410
9069.000000;0.927654
9068.000000;0.927505
9067.000000;0.926932
9066.000000;0.925997
9065.000000;0.924846
9064.000000;0.923763
9063.000000;0.922969
9062.000000;0.922387
9061.000000;0.921841
9060.000000;0.921457
9059.000000;0.921581
9058.000000;0.922232
9057.000000;0.922909
9056.000000;0.923056
9055.000000;0.922623
9054.000000;0.922030
9053.000000;0.921649
