Criado como novo conjunto de dados;"1909daniel.spp","-4293885.6 Secs"
cm-1;Abs
10000.000000;0.786903
9999.000000;0.786068
9998.000000;0.784644
9997.000000;0.783009
9996.000000;0.781735
9995.000000;0.781111
9994.000000;0.781080
9993.000000;0.781327
9992.000000;0.781426
9991.000000;0.781172
9990.000000;0.780778
9989.000000;0.780528
9988.000000;0.780327
9987.000000;0.779816
9986.000000;0.778865
9985.000000;0.777629
9984.000000;0.776247
9983.000000;0.774836
9982.000000;0.773716
9981.000000;0.773172
9980.000000;0.772962
9979.000000;0.772463
9978.000000;0.771429
9977.000000;0.770281
9976.000000;0.769512
9975.000000;0.769091
9974.000000;0.768631
9973.000000;0.767942
9972.000000;0.767221
9971.000000;0.766811
9970.000000;0.766850
9969.000000;0.767108
9968.000000;0.767138
9967.000000;0.766663
9966.000000;0.765814
9965.000000;0.764905
9964.000000;0.764074
9963.000000;0.763238
9962.000000;0.762309
9961.000000;0.761279
9960.000000;0.760174
9959.000000;0.759096
9958.000000;0.758234
9957.000000;0.757697
9956.000000;0.757389
9955.000000;0.757172
9954.000000;0.757018
9953.000000;0.756876
9952.000000;0.756541
9951.000000;0.755868
9950.000000;0.754977
9949.000000;0.754030
9948.000000;0.752954
9947.000000;0.751689
9946.000000;0.750542
9945.000000;0.749944
9944.000000;0.749887
9943.000000;0.749912
9942.000000;0.749693
9941.000000;0.749308
9940.000000;0.748910
9939.000000;0.748419
9938.000000;0.747687
9937.000000;0.746752
9936.000000;0.745808
9935.000000;0.745016
9934.000000;0.744402
9933.000000;0.743837
9932.000000;0.743131
9931.000000;0.742246
9930.000000;0.741420
9929.000000;0.740914
9928.000000;0.740668
9927.000000;0.740338
9926.000000;0.739689
9925.000000;0.738766
9924.000000;0.737711
9923.000000;0.736612
9922.000000;0.735638
9921.000000;0.735086
9920.000000;0.735135
9919.000000;0.735555
9918.000000;0.735798
9917.000000;0.735406
9916.000000;0.734329
9915.000000;0.732868
9914.000000;0.731369
9913.000000;0.730028
9912.000000;0.728922
9911.000000;0.728097
9910.000000;0.727537
9909.000000;0.727118
9908.000000;0.726724
9907.000000;0.726357
9906.000000;0.726046
9905.000000;0.725709
9904.000000;0.725238
9903.000000;0.724658
9902.000000;0.724043
9901.000000;0.723327
9900.000000;0.722447
9899.000000;0.721616
9898.000000;0.721177
9897.000000;0.721107
9896.000000;0.720933
9895.000000;0.720227
9894.000000;0.719009
9893.000000;0.717619
9892.000000;0.716389
9891.000000;0.715513
9890.000000;0.714967
9889.000000;0.714453
9888.000000;0.713658
9887.000000;0.712679
9886.000000;0.711954
9885.000000;0.711693
9884.000000;0.711643
9883.000000;0.711517
9882.000000;0.711345
9881.000000;0.711214
9880.000000;0.710931
9879.000000;0.710235
9878.000000;0.709165
9877.000000;0.708021
9876.000000;0.707079
9875.000000;0.706480
9874.000000;0.706194
9873.000000;0.705928
9872.000000;0.705291
9871.000000;0.704243
9870.000000;0.703209
9869.000000;0.702563
9868.000000;0.702189
9867.000000;0.701756
9866.000000;0.701192
9865.000000;0.700642
9864.000000;0.700141
9863.000000;0.699632
9862.000000;0.699186
9861.000000;0.698898
9860.000000;0.698586
9859.000000;0.697878
9858.000000;0.696617
9857.000000;0.695040
9856.000000;0.693538
9855.000000;0.692394
9854.000000;0.691714
9853.000000;0.691453
9852.000000;0.691427
9851.000000;0.691350
9850.000000;0.690944
9849.000000;0.690107
9848.000000;0.689044
9847.000000;0.688143
9846.000000;0.687587
9845.000000;0.687135
9844.000000;0.686453
9843.000000;0.685572
9842.000000;0.684800
9841.000000;0.684250
9840.000000;0.683775
9839.000000;0.683337
9838.000000;0.683060
9837.000000;0.682839
9836.000000;0.682313
9835.000000;0.681378
9834.000000;0.680420
9833.000000;0.679836
9832.000000;0.679580
9831.000000;0.679357
9830.000000;0.678987
9829.000000;0.678420
9828.000000;0.677643
9827.000000;0.676789
9826.000000;0.676112
9825.000000;0.675688
9824.000000;0.675322
9823.000000;0.674886
9822.000000;0.674483
9821.000000;0.674137
9820.000000;0.673635
9819.000000;0.672859
9818.000000;0.672013
9817.000000;0.671317
9816.000000;0.670736
9815.000000;0.670220
9814.000000;0.669882
9813.000000;0.669688
9812.000000;0.669273
9811.000000;0.668379
9810.000000;0.667249
9809.000000;0.666295
9808.000000;0.665585
9807.000000;0.664929
9806.000000;0.664254
9805.000000;0.663592
9804.000000;0.662869
9803.000000;0.662024
9802.000000;0.661188
9801.000000;0.660494
9800.000000;0.659848
9799.000000;0.659121
9798.000000;0.658399
9797.000000;0.657785
9796.000000;0.657155
9795.000000;0.656406
9794.000000;0.655741
9793.000000;0.655403
9792.000000;0.655254
9791.000000;0.654951
9790.000000;0.654436
9789.000000;0.653922
9788.000000;0.653493
9787.000000;0.653024
9786.000000;0.652452
9785.000000;0.651837
9784.000000;0.651154
9783.000000;0.650304
9782.000000;0.649346
9781.000000;0.648484
9780.000000;0.647815
9779.000000;0.647263
9778.000000;0.646733
9777.000000;0.646169
9776.000000;0.645500
9775.000000;0.644702
9774.000000;0.643876
9773.000000;0.643137
9772.000000;0.642454
9771.000000;0.641767
9770.000000;0.641133
9769.000000;0.640622
9768.000000;0.640127
9767.000000;0.639497
9766.000000;0.638779
9765.000000;0.638160
9764.000000;0.637694
9763.000000;0.637274
9762.000000;0.636823
9761.000000;0.636353
9760.000000;0.635834
9759.000000;0.635182
9758.000000;0.634426
9757.000000;0.633773
9756.000000;0.633425
9755.000000;0.633348
9754.000000;0.633245
9753.000000;0.632827
9752.000000;0.632118
9751.000000;0.631394
9750.000000;0.630764
9749.000000;0.629947
9748.000000;0.628687
9747.000000;0.627258
9746.000000;0.626243
9745.000000;0.625824
9744.000000;0.625623
9743.000000;0.625248
9742.000000;0.624652
9741.000000;0.623896
9740.000000;0.622961
9739.000000;0.621963
9738.000000;0.621209
9737.000000;0.620771
9736.000000;0.620311
9735.000000;0.619570
9734.000000;0.618777
9733.000000;0.618305
9732.000000;0.618149
9731.000000;0.618009
9730.000000;0.617690
9729.000000;0.617160
9728.000000;0.616383
9727.000000;0.615406
9726.000000;0.614467
9725.000000;0.613769
9724.000000;0.613231
9723.000000;0.612662
9722.000000;0.612032
9721.000000;0.611385
9720.000000;0.610660
9719.000000;0.609841
9718.000000;0.609156
9717.000000;0.608841
9716.000000;0.608810
9715.000000;0.608779
9714.000000;0.608594
9713.000000;0.608228
9712.000000;0.607594
9711.000000;0.606631
9710.000000;0.605522
9709.000000;0.604557
9708.000000;0.603804
9707.000000;0.603110
9706.000000;0.602388
9705.000000;0.601703
9704.000000;0.601094
9703.000000;0.600506
9702.000000;0.599922
9701.000000;0.599420
9700.000000;0.599100
9699.000000;0.598979
9698.000000;0.598925
9697.000000;0.598655
9696.000000;0.597923
9695.000000;0.596790
9694.000000;0.595612
9693.000000;0.594703
9692.000000;0.594115
9691.000000;0.593765
9690.000000;0.593544
9689.000000;0.593226
9688.000000;0.592530
9687.000000;0.591450
9686.000000;0.590363
9685.000000;0.589626
9684.000000;0.589224
9683.000000;0.588922
9682.000000;0.588588
9681.000000;0.588177
9680.000000;0.587611
9679.000000;0.586927
9678.000000;0.586388
9677.000000;0.586182
9676.000000;0.586099
9675.000000;0.585713
9674.000000;0.584870
9673.000000;0.583804
9672.000000;0.582844
9671.000000;0.582147
9670.000000;0.581679
9669.000000;0.581289
9668.000000;0.580839
9667.000000;0.580335
9666.000000;0.579879
9665.000000;0.579442
9664.000000;0.578818
9663.000000;0.577903
9662.000000;0.576884
9661.000000;0.576044
9660.000000;0.575498
9659.000000;0.575196
9658.000000;0.575042
9657.000000;0.574871
9656.000000;0.574469
9655.000000;0.573759
9654.000000;0.572864
9653.000000;0.571892
9652.000000;0.570813
9651.000000;0.569645
9650.000000;0.568597
9649.000000;0.567873
9648.000000;0.567466
9647.000000;0.567255
9646.000000;0.567146
9645.000000;0.567000
9644.000000;0.566608
9643.000000;0.565907
9642.000000;0.565077
9641.000000;0.564300
9640.000000;0.563596
9639.000000;0.562996
9638.000000;0.562635
9637.000000;0.562476
9636.000000;0.562155
9635.000000;0.561378
9634.000000;0.560349
9633.000000;0.559557
9632.000000;0.559207
9631.000000;0.559079
9630.000000;0.558865
9629.000000;0.558414
9628.000000;0.557714
9627.000000;0.556870
9626.000000;0.556079
9625.000000;0.555470
9624.000000;0.554938
9623.000000;0.554274
9622.000000;0.553438
9621.000000;0.552615
9620.000000;0.552024
9619.000000;0.551729
9618.000000;0.551590
9617.000000;0.551350
9616.000000;0.550830
9615.000000;0.550124
9614.000000;0.549510
9613.000000;0.549107
9612.000000;0.548712
9611.000000;0.548035
9610.000000;0.547028
9609.000000;0.545908
9608.000000;0.544972
9607.000000;0.544409
9606.000000;0.544202
9605.000000;0.544142
9604.000000;0.544021
9603.000000;0.543825
9602.000000;0.543640
9601.000000;0.543399
9600.000000;0.542887
9599.000000;0.542010
9598.000000;0.540866
9597.000000;0.539552
9596.000000;0.538134
9595.000000;0.536838
9594.000000;0.535995
9593.000000;0.535688
9592.000000;0.535647
9591.000000;0.535588
9590.000000;0.535462
9589.000000;0.535291
9588.000000;0.534997
9587.000000;0.534528
9586.000000;0.533940
9585.000000;0.533240
9584.000000;0.532347
9583.000000;0.531318
9582.000000;0.530420
9581.000000;0.529821
9580.000000;0.529407
9579.000000;0.529018
9578.000000;0.528650
9577.000000;0.528330
9576.000000;0.527992
9575.000000;0.527619
9574.000000;0.527291
9573.000000;0.526963
9572.000000;0.526422
9571.000000;0.525608
9570.000000;0.524763
9569.000000;0.524102
9568.000000;0.523562
9567.000000;0.523037
9566.000000;0.522593
9565.000000;0.522262
9564.000000;0.521873
9563.000000;0.521313
9562.000000;0.520740
9561.000000;0.520277
9560.000000;0.519734
9559.000000;0.518928
9558.000000;0.518104
9557.000000;0.517703
9556.000000;0.517763
9555.000000;0.517857
9554.000000;0.517579
9553.000000;0.516868
9552.000000;0.515891
9551.000000;0.514858
9550.000000;0.513964
9549.000000;0.513332
9548.000000;0.512957
9547.000000;0.512766
9546.000000;0.512675
9545.000000;0.512527
9544.000000;0.512083
9543.000000;0.511228
9542.000000;0.510140
9541.000000;0.509141
9540.000000;0.508430
9539.000000;0.508004
9538.000000;0.507738
9537.000000;0.507461
9536.000000;0.507050
9535.000000;0.506512
9534.000000;0.505905
9533.000000;0.505171
9532.000000;0.504192
9531.000000;0.503056
9530.000000;0.502043
9529.000000;0.501309
9528.000000;0.500745
9527.000000;0.500245
9526.000000;0.499867
9525.000000;0.499615
9524.000000;0.499284
9523.000000;0.498685
9522.000000;0.497868
9521.000000;0.496974
9520.000000;0.496061
9519.000000;0.495234
9518.000000;0.494745
9517.000000;0.494740
9516.000000;0.495023
9515.000000;0.495262
9514.000000;0.495325
9513.000000;0.495281
9512.000000;0.495156
9511.000000;0.494871
9510.000000;0.494342
9509.000000;0.493545
9508.000000;0.492550
9507.000000;0.491548
9506.000000;0.490742
9505.000000;0.490146
9504.000000;0.489629
9503.000000;0.489179
9502.000000;0.488932
9501.000000;0.488857
9500.000000;0.488640
9499.000000;0.488060
9498.000000;0.487283
9497.000000;0.486649
9496.000000;0.486306
9495.000000;0.486178
9494.000000;0.486131
9493.000000;0.486014
9492.000000;0.485659
9491.000000;0.485006
9490.000000;0.484168
9489.000000;0.483309
9488.000000;0.482557
9487.000000;0.482017
9486.000000;0.481684
9485.000000;0.481336
9484.000000;0.480734
9483.000000;0.479975
9482.000000;0.479374
9481.000000;0.478972
9480.000000;0.478489
9479.000000;0.477849
9478.000000;0.477380
9477.000000;0.477277
9476.000000;0.477220
9475.000000;0.476788
9474.000000;0.476006
9473.000000;0.475235
9472.000000;0.474712
9471.000000;0.474452
9470.000000;0.474380
9469.000000;0.474281
9468.000000;0.473832
9467.000000;0.472939
9466.000000;0.471937
9465.000000;0.471211
9464.000000;0.470775
9463.000000;0.470418
9462.000000;0.470070
9461.000000;0.469775
9460.000000;0.469463
9459.000000;0.469018
9458.000000;0.468470
9457.000000;0.467913
9456.000000;0.467338
9455.000000;0.466751
9454.000000;0.466293
9453.000000;0.466004
9452.000000;0.465646
9451.000000;0.464990
9450.000000;0.464164
9449.000000;0.463476
9448.000000;0.463014
9447.000000;0.462680
9446.000000;0.462459
9445.000000;0.462364
9444.000000;0.462188
9443.000000;0.461637
9442.000000;0.460710
9441.000000;0.459721
9440.000000;0.458940
9439.000000;0.458390
9438.000000;0.457976
9437.000000;0.457624
9436.000000;0.457303
9435.000000;0.457062
9434.000000;0.457001
9433.000000;0.457083
9432.000000;0.457029
9431.000000;0.456540
9430.000000;0.455600
9429.000000;0.454447
9428.000000;0.453350
9427.000000;0.452518
9426.000000;0.452086
9425.000000;0.451998
9424.000000;0.451965
9423.000000;0.451706
9422.000000;0.451189
9421.000000;0.450553
9420.000000;0.449889
9419.000000;0.449230
9418.000000;0.448645
9417.000000;0.448205
9416.000000;0.447915
9415.000000;0.447768
9414.000000;0.447743
9413.000000;0.447662
9412.000000;0.447245
9411.000000;0.446477
9410.000000;0.445727
9409.000000;0.445313
9408.000000;0.445098
9407.000000;0.444721
9406.000000;0.444092
9405.000000;0.443417
9404.000000;0.442866
9403.000000;0.442456
9402.000000;0.442182
9401.000000;0.441989
9400.000000;0.441654
9399.000000;0.440965
9398.000000;0.440034
9397.000000;0.439234
9396.000000;0.438783
9395.000000;0.438548
9394.000000;0.438274
9393.000000;0.437844
9392.000000;0.437302
9391.000000;0.436747
9390.000000;0.436235
9389.000000;0.435751
9388.000000;0.435259
9387.000000;0.434822
9386.000000;0.434587
9385.000000;0.434586
9384.000000;0.434638
9383.000000;0.434512
9382.000000;0.434121
9381.000000;0.433516
9380.000000;0.432818
9379.000000;0.432214
9378.000000;0.431877
9377.000000;0.431757
9376.000000;0.431574
9375.000000;0.431119
9374.000000;0.430466
9373.000000;0.429810
9372.000000;0.429248
9371.000000;0.428828
9370.000000;0.428625
9369.000000;0.428596
9368.000000;0.428492
9367.000000;0.428106
9366.000000;0.427475
9365.000000;0.426734
9364.000000;0.425915
9363.000000;0.425078
9362.000000;0.424470
9361.000000;0.424285
9360.000000;0.424347
9359.000000;0.424287
9358.000000;0.423997
9357.000000;0.423698
9356.000000;0.423552
9355.000000;0.423410
9354.000000;0.423001
9353.000000;0.422232
9352.000000;0.421257
9351.000000;0.420336
9350.000000;0.419640
9349.000000;0.419150
9348.000000;0.418726
9347.000000;0.418272
9346.000000;0.417775
9345.000000;0.417226
9344.000000;0.416644
9343.000000;0.416188
9342.000000;0.416071
9341.000000;0.416262
9340.000000;0.416435
9339.000000;0.416346
9338.000000;0.416113
9337.000000;0.416002
9336.000000;0.416048
9335.000000;0.416001
9334.000000;0.415589
9333.000000;0.414743
9332.000000;0.413670
9331.000000;0.412783
9330.000000;0.412391
9329.000000;0.412371
9328.000000;0.412273
9327.000000;0.411830
9326.000000;0.411221
9325.000000;0.410732
9324.000000;0.410371
9323.000000;0.409993
9322.000000;0.409612
9321.000000;0.409352
9320.000000;0.409191
9319.000000;0.408969
9318.000000;0.408626
9317.000000;0.408289
9316.000000;0.408122
9315.000000;0.408153
9314.000000;0.408173
9313.000000;0.407805
9312.000000;0.406827
9311.000000;0.405502
9310.000000;0.404422
9309.000000;0.403903
9308.000000;0.403719
9307.000000;0.403500
9306.000000;0.403173
9305.000000;0.402872
9304.000000;0.402642
9303.000000;0.402441
9302.000000;0.402270
9301.000000;0.402078
9300.000000;0.401709
9299.000000;0.401152
9298.000000;0.400710
9297.000000;0.400648
9296.000000;0.400788
9295.000000;0.400723
9294.000000;0.400325
9293.000000;0.399808
9292.000000;0.399344
9291.000000;0.398898
9290.000000;0.398415
9289.000000;0.397933
9288.000000;0.397461
9287.000000;0.396979
9286.000000;0.396559
9285.000000;0.396339
9284.000000;0.396317
9283.000000;0.396311
9282.000000;0.396130
9281.000000;0.395720
9280.000000;0.395163
9279.000000;0.394642
9278.000000;0.394355
9277.000000;0.394296
9276.000000;0.394181
9275.000000;0.393720
9274.000000;0.392949
9273.000000;0.392185
9272.000000;0.391668
9271.000000;0.391376
9270.000000;0.391150
9269.000000;0.390881
9268.000000;0.390542
9267.000000;0.390155
9266.000000;0.389780
9265.000000;0.389495
9264.000000;0.389359
9263.000000;0.389365
9262.000000;0.389381
9261.000000;0.389170
9260.000000;0.388597
9259.000000;0.387826
9258.000000;0.387164
9257.000000;0.386682
9256.000000;0.386167
9255.000000;0.385530
9254.000000;0.385037
9253.000000;0.384973
9252.000000;0.385264
9251.000000;0.385624
9250.000000;0.385921
9249.000000;0.386178
9248.000000;0.386312
9247.000000;0.386106
9246.000000;0.385460
9245.000000;0.384503
9244.000000;0.383512
9243.000000;0.382804
9242.000000;0.382579
9241.000000;0.382679
9240.000000;0.382608
9239.000000;0.382024
9238.000000;0.381187
9237.000000;0.380695
9236.000000;0.380772
9235.000000;0.381024
9234.000000;0.380938
9233.000000;0.380407
9232.000000;0.379685
9231.000000;0.379024
9230.000000;0.378514
9229.000000;0.378177
9228.000000;0.378010
9227.000000;0.377892
9226.000000;0.377602
9225.000000;0.377031
9224.000000;0.376363
9223.000000;0.375938
9222.000000;0.375891
9221.000000;0.376029
9220.000000;0.376085
9219.000000;0.376000
9218.000000;0.375828
9217.000000;0.375493
9216.000000;0.374865
9215.000000;0.374059
9214.000000;0.373426
9213.000000;0.373187
9212.000000;0.373229
9211.000000;0.373314
9210.000000;0.373308
9209.000000;0.373148
9208.000000;0.372784
9207.000000;0.372282
9206.000000;0.371835
9205.000000;0.371539
9204.000000;0.371278
9203.000000;0.370912
9202.000000;0.370442
9201.000000;0.369929
9200.000000;0.369436
9199.000000;0.369156
9198.000000;0.369362
9197.000000;0.370013
9196.000000;0.370564
9195.000000;0.370433
9194.000000;0.369592
9193.000000;0.368526
9192.000000;0.367671
9191.000000;0.367129
9190.000000;0.366854
9189.000000;0.366857
9188.000000;0.367098
9187.000000;0.367363
9186.000000;0.367376
9185.000000;0.367039
9184.000000;0.366516
9183.000000;0.366064
9182.000000;0.365788
9181.000000;0.365572
9180.000000;0.365291
9179.000000;0.365000
9178.000000;0.364833
9177.000000;0.364740
9176.000000;0.364505
9175.000000;0.364050
9174.000000;0.363569
9173.000000;0.363289
9172.000000;0.363246
9171.000000;0.363333
9170.000000;0.363400
9169.000000;0.363241
9168.000000;0.362672
9167.000000;0.361789
9166.000000;0.360997
9165.000000;0.360600
9164.000000;0.360455
9163.000000;0.360171
9162.000000;0.359589
9161.000000;0.358926
9160.000000;0.358521
9159.000000;0.358529
9158.000000;0.358834
9157.000000;0.359140
9156.000000;0.359186
9155.000000;0.358960
9154.000000;0.358654
9153.000000;0.358394
9152.000000;0.358097
9151.000000;0.357657
9150.000000;0.357142
9149.000000;0.356693
9148.000000;0.356326
9147.000000;0.355949
9146.000000;0.355506
9145.000000;0.355028
9144.000000;0.354613
9143.000000;0.354404
9142.000000;0.354512
9141.000000;0.354861
9140.000000;0.355201
9139.000000;0.355337
9138.000000;0.355276
9137.000000;0.355117
9136.000000;0.354905
9135.000000;0.354658
9134.000000;0.354385
9133.000000;0.354002
9132.000000;0.353406
9131.000000;0.352726
9130.000000;0.352347
9129.000000;0.352489
9128.000000;0.352861
9127.000000;0.352928
9126.000000;0.352495
9125.000000;0.351884
9124.000000;0.351530
9123.000000;0.351517
9122.000000;0.351530
9121.000000;0.351213
9120.000000;0.350570
9119.000000;0.349986
9118.000000;0.349845
9117.000000;0.350117
9116.000000;0.350439
9115.000000;0.350548
9114.000000;0.350495
9113.000000;0.350421
9112.000000;0.350318
9111.000000;0.350105
9110.000000;0.349773
9109.000000;0.349365
9108.000000;0.348938
9107.000000;0.348633
9106.000000;0.348627
9105.000000;0.348869
9104.000000;0.348994
9103.000000;0.348656
9102.000000;0.347904
9101.000000;0.347138
9100.000000;0.346728
9099.000000;0.346746
9098.000000;0.346966
9097.000000;0.347036
9096.000000;0.346743
9095.000000;0.346192
9094.000000;0.345683
9093.000000;0.345367
9092.000000;0.345123
9091.000000;0.344816
9090.000000;0.344497
9089.000000;0.344270
9088.000000;0.344111
9087.000000;0.343930
9086.000000;0.343719
9085.000000;0.343506
9084.000000;0.343269
9083.000000;0.343008
9082.000000;0.342805
9081.000000;0.342718
9080.000000;0.342665
9079.000000;0.342516
9078.000000;0.342223
9077.000000;0.341813
9076.000000;0.341354
9075.000000;0.340971
9074.000000;0.340777
9073.000000;0.340734
9072.000000;0.340717
9071.000000;0.340754
9070.000000;0.341018
9069.000000;0.341497
9068.000000;0.341850
9067.000000;0.341758
9066.000000;0.341276
9065.000000;0.340669
9064.000000;0.340041
9063.000000;0.339324
9062.000000;0.338551
9061.000000;0.337934
9060.000000;0.337656
9059.000000;0.337708
9058.000000;0.337926
9057.000000;0.338107
9056.000000;0.338136
9055.000000;0.338041
9054.000000;0.337918
9053.000000;0.337785
