Criado como novo conjunto de dados;"1909daniel.spp","-4224761.9 Secs"
cm-1;Abs
10000.000000;1.564154
9999.000000;1.562289
9998.000000;1.560438
9997.000000;1.558583
9996.000000;1.556757
9995.000000;1.554896
9994.000000;1.553180
9993.000000;1.552165
9992.000000;1.551892
9991.000000;1.551984
9990.000000;1.551744
9989.000000;1.551020
9988.000000;1.550542
9987.000000;1.551040
9986.000000;1.552013
9985.000000;1.551979
9984.000000;1.550278
9983.000000;1.548128
9982.000000;1.547288
9981.000000;1.548000
9980.000000;1.548784
9979.000000;1.548277
9978.000000;1.546753
9977.000000;1.545488
9976.000000;1.545068
9975.000000;1.544964
9974.000000;1.544655
9973.000000;1.544417
9972.000000;1.544658
9971.000000;1.544921
9970.000000;1.544171
9969.000000;1.542165
9968.000000;1.540038
9967.000000;1.539182
9966.000000;1.539752
9965.000000;1.540551
9964.000000;1.540395
9963.000000;1.539317
9962.000000;1.538239
9961.000000;1.537759
9960.000000;1.537695
9959.000000;1.537750
9958.000000;1.538066
9957.000000;1.538864
9956.000000;1.539767
9955.000000;1.539903
9954.000000;1.538740
9953.000000;1.536606
9952.000000;1.534347
9951.000000;1.532609
9950.000000;1.531417
9949.000000;1.530273
9948.000000;1.528687
9947.000000;1.526770
9946.000000;1.525250
9945.000000;1.524747
9944.000000;1.525178
9943.000000;1.525999
9942.000000;1.526821
9941.000000;1.527471
9940.000000;1.527563
9939.000000;1.526557
9938.000000;1.524449
9937.000000;1.522027
9936.000000;1.520163
9935.000000;1.519094
9934.000000;1.518624
9933.000000;1.518689
9932.000000;1.519330
9931.000000;1.520273
9930.000000;1.520848
9929.000000;1.520383
9928.000000;1.518705
9927.000000;1.516420
9926.000000;1.514743
9925.000000;1.514662
9924.000000;1.515887
9923.000000;1.516850
9922.000000;1.516161
9921.000000;1.513952
9920.000000;1.511409
9919.000000;1.509271
9918.000000;1.507405
9917.000000;1.505713
9916.000000;1.504648
9915.000000;1.504468
9914.000000;1.504550
9913.000000;1.504029
9912.000000;1.502917
9911.000000;1.502140
9910.000000;1.502434
9909.000000;1.503491
9908.000000;1.504173
9907.000000;1.503475
9906.000000;1.501412
9905.000000;1.499112
9904.000000;1.497874
9903.000000;1.497930
9902.000000;1.498218
9901.000000;1.497584
9900.000000;1.496094
9899.000000;1.494822
9898.000000;1.494537
9897.000000;1.495027
9896.000000;1.495666
9895.000000;1.496094
9894.000000;1.496160
9893.000000;1.495656
9892.000000;1.494527
9891.000000;1.493083
9890.000000;1.491663
9889.000000;1.490292
9888.000000;1.488980
9887.000000;1.488125
9886.000000;1.488191
9885.000000;1.489052
9884.000000;1.490084
9883.000000;1.490922
9882.000000;1.491653
9881.000000;1.492072
9880.000000;1.491289
9879.000000;1.488652
9878.000000;1.484887
9877.000000;1.481803
9876.000000;1.480776
9875.000000;1.481792
9874.000000;1.483880
9873.000000;1.486050
9872.000000;1.487594
9871.000000;1.487804
9870.000000;1.486054
9869.000000;1.482456
9868.000000;1.478184
9867.000000;1.474776
9866.000000;1.473094
9865.000000;1.472985
9864.000000;1.473761
9863.000000;1.474800
9862.000000;1.475726
9861.000000;1.476305
9860.000000;1.476384
9859.000000;1.475845
9858.000000;1.474500
9857.000000;1.472197
9856.000000;1.469258
9855.000000;1.466712
9854.000000;1.465720
9853.000000;1.466582
9852.000000;1.468367
9851.000000;1.469571
9850.000000;1.469206
9849.000000;1.467394
9848.000000;1.465140
9847.000000;1.463609
9846.000000;1.463341
9845.000000;1.463894
9844.000000;1.464248
9843.000000;1.463720
9842.000000;1.462555
9841.000000;1.461597
9840.000000;1.461465
9839.000000;1.462057
9838.000000;1.462767
9837.000000;1.462993
9836.000000;1.462423
9835.000000;1.460949
9834.000000;1.458593
9833.000000;1.455667
9832.000000;1.452927
9831.000000;1.451279
9830.000000;1.451095
9829.000000;1.451821
9828.000000;1.452444
9827.000000;1.452324
9826.000000;1.451399
9825.000000;1.449770
9824.000000;1.447608
9823.000000;1.445493
9822.000000;1.444224
9821.000000;1.443960
9820.000000;1.443985
9819.000000;1.443719
9818.000000;1.443574
9817.000000;1.444194
9816.000000;1.445054
9815.000000;1.444710
9814.000000;1.442708
9813.000000;1.440510
9812.000000;1.439983
9811.000000;1.441363
9810.000000;1.443062
9809.000000;1.443255
9808.000000;1.441383
9807.000000;1.438251
9806.000000;1.435133
9805.000000;1.432920
9804.000000;1.431756
9803.000000;1.431206
9802.000000;1.430772
9801.000000;1.430345
9800.000000;1.430154
9799.000000;1.430339
9798.000000;1.430758
9797.000000;1.431237
9796.000000;1.431750
9795.000000;1.432248
9794.000000;1.432509
9793.000000;1.432320
9792.000000;1.431855
9791.000000;1.431717
9790.000000;1.432366
9789.000000;1.433420
9788.000000;1.433671
9787.000000;1.432080
9786.000000;1.428854
9785.000000;1.425359
9784.000000;1.422868
9783.000000;1.421493
9782.000000;1.420433
9781.000000;1.419083
9780.000000;1.417663
9779.000000;1.416788
9778.000000;1.416751
9777.000000;1.417317
9776.000000;1.417964
9775.000000;1.418144
9774.000000;1.417476
9773.000000;1.415989
9772.000000;1.414156
9771.000000;1.412517
9770.000000;1.411319
9769.000000;1.410539
9768.000000;1.410099
9767.000000;1.409882
9766.000000;1.409648
9765.000000;1.409187
9764.000000;1.408564
9763.000000;1.408005
9762.000000;1.407549
9761.000000;1.407039
9760.000000;1.406495
9759.000000;1.406219
9758.000000;1.406340
9757.000000;1.406479
9756.000000;1.406170
9755.000000;1.405489
9754.000000;1.404915
9753.000000;1.404593
9752.000000;1.404096
9751.000000;1.403016
9750.000000;1.401501
9749.000000;1.400000
9748.000000;1.398724
9747.000000;1.397653
9746.000000;1.396889
9745.000000;1.396608
9744.000000;1.396657
9743.000000;1.396582
9742.000000;1.396257
9741.000000;1.396194
9740.000000;1.396818
9739.000000;1.397589
9738.000000;1.397295
9737.000000;1.395375
9736.000000;1.392669
9735.000000;1.390650
9734.000000;1.390158
9733.000000;1.391020
9732.000000;1.392567
9731.000000;1.394069
9730.000000;1.394815
9729.000000;1.394352
9728.000000;1.392908
9727.000000;1.391236
9726.000000;1.389767
9725.000000;1.388140
9724.000000;1.385833
9723.000000;1.383094
9722.000000;1.380926
9721.000000;1.380159
9720.000000;1.380781
9719.000000;1.382123
9718.000000;1.383419
9717.000000;1.384125
9716.000000;1.383922
9715.000000;1.382687
9714.000000;1.380613
9713.000000;1.378331
9712.000000;1.376726
9711.000000;1.376366
9710.000000;1.376993
9709.000000;1.377719
9708.000000;1.377837
9707.000000;1.377342
9706.000000;1.376676
9705.000000;1.376187
9704.000000;1.375960
9703.000000;1.375912
9702.000000;1.375742
9701.000000;1.375028
9700.000000;1.373733
9699.000000;1.372481
9698.000000;1.371906
9697.000000;1.371809
9696.000000;1.371384
9695.000000;1.370249
9694.000000;1.368836
9693.000000;1.367743
9692.000000;1.367134
9691.000000;1.366891
9690.000000;1.366871
9689.000000;1.366834
9688.000000;1.366429
9687.000000;1.365529
9686.000000;1.364341
9685.000000;1.363014
9684.000000;1.361485
9683.000000;1.359906
9682.000000;1.358872
9681.000000;1.358836
9680.000000;1.359465
9679.000000;1.359909
9678.000000;1.359593
9677.000000;1.358582
9676.000000;1.357319
9675.000000;1.356280
9674.000000;1.355751
9673.000000;1.355689
9672.000000;1.355841
9671.000000;1.356119
9670.000000;1.356614
9669.000000;1.357098
9668.000000;1.356839
9667.000000;1.355283
9666.000000;1.352717
9665.000000;1.349910
9664.000000;1.347383
9663.000000;1.345394
9662.000000;1.344380
9661.000000;1.344796
9660.000000;1.346408
9659.000000;1.348255
9658.000000;1.349496
9657.000000;1.349918
9656.000000;1.349569
9655.000000;1.348433
9654.000000;1.346709
9653.000000;1.344943
9652.000000;1.343488
9651.000000;1.342040
9650.000000;1.340057
9649.000000;1.337562
9648.000000;1.335253
9647.000000;1.333865
9646.000000;1.333586
9645.000000;1.333981
9644.000000;1.334363
9643.000000;1.334330
9642.000000;1.334019
9641.000000;1.333867
9640.000000;1.334131
9639.000000;1.334737
9638.000000;1.335442
9637.000000;1.335918
9636.000000;1.335759
9635.000000;1.334801
9634.000000;1.333560
9633.000000;1.332956
9632.000000;1.333291
9631.000000;1.333680
9630.000000;1.332802
9629.000000;1.330228
9628.000000;1.326846
9627.000000;1.324086
9626.000000;1.322855
9625.000000;1.323036
9624.000000;1.323695
9623.000000;1.323815
9622.000000;1.323134
9621.000000;1.322371
9620.000000;1.322384
9619.000000;1.323079
9618.000000;1.323410
9617.000000;1.322532
9616.000000;1.320735
9615.000000;1.319083
9614.000000;1.318288
9613.000000;1.318084
9612.000000;1.317755
9611.000000;1.317137
9610.000000;1.316915
9609.000000;1.317871
9608.000000;1.319948
9607.000000;1.322064
9606.000000;1.322878
9605.000000;1.321792
9604.000000;1.319314
9603.000000;1.316605
9602.000000;1.314704
9601.000000;1.313960
9600.000000;1.314019
9599.000000;1.314334
9598.000000;1.314636
9597.000000;1.314825
9596.000000;1.314590
9595.000000;1.313489
9594.000000;1.311555
9593.000000;1.309525
9592.000000;1.308229
9591.000000;1.307854
9590.000000;1.307913
9589.000000;1.307773
9588.000000;1.306999
9587.000000;1.305424
9586.000000;1.303254
9585.000000;1.301171
9584.000000;1.300042
9583.000000;1.300327
9582.000000;1.301702
9581.000000;1.303188
9580.000000;1.303671
9579.000000;1.302556
9578.000000;1.300240
9577.000000;1.297985
9576.000000;1.297075
9575.000000;1.297861
9574.000000;1.299504
9573.000000;1.300627
9572.000000;1.300304
9571.000000;1.298609
9570.000000;1.296424
9569.000000;1.294698
9568.000000;1.293720
9567.000000;1.293031
9566.000000;1.292144
9565.000000;1.291277
9564.000000;1.291140
9563.000000;1.291951
9562.000000;1.292938
9561.000000;1.293014
9560.000000;1.291875
9559.000000;1.290219
9558.000000;1.288943
9557.000000;1.288309
9556.000000;1.287887
9555.000000;1.287115
9554.000000;1.285763
9553.000000;1.283929
9552.000000;1.281827
9551.000000;1.279832
9550.000000;1.278598
9549.000000;1.278730
9548.000000;1.280085
9547.000000;1.281584
9546.000000;1.282084
9545.000000;1.281469
9544.000000;1.280582
9543.000000;1.280099
9542.000000;1.279873
9541.000000;1.279456
9540.000000;1.278801
9539.000000;1.278136
9538.000000;1.277454
9537.000000;1.276578
9536.000000;1.275569
9535.000000;1.274657
9534.000000;1.273829
9533.000000;1.272917
9532.000000;1.272121
9531.000000;1.272003
9530.000000;1.272753
9529.000000;1.273797
9528.000000;1.274339
9527.000000;1.274090
9526.000000;1.273229
9525.000000;1.271945
9524.000000;1.270374
9523.000000;1.268848
9522.000000;1.267803
9521.000000;1.267290
9520.000000;1.266844
9519.000000;1.266032
9518.000000;1.265064
9517.000000;1.264640
9516.000000;1.265158
9515.000000;1.266179
9514.000000;1.266807
9513.000000;1.266618
9512.000000;1.266034
9511.000000;1.265625
9510.000000;1.265251
9509.000000;1.264247
9508.000000;1.262477
9507.000000;1.260778
9506.000000;1.260095
9505.000000;1.260340
9504.000000;1.260495
9503.000000;1.259864
9502.000000;1.258806
9501.000000;1.258085
9500.000000;1.257895
9499.000000;1.257874
9498.000000;1.257837
9497.000000;1.258000
9496.000000;1.258358
9495.000000;1.258236
9494.000000;1.256955
9493.000000;1.254878
9492.000000;1.253308
9491.000000;1.253142
9490.000000;1.253858
9489.000000;1.254132
9488.000000;1.253363
9487.000000;1.252227
9486.000000;1.251634
9485.000000;1.251540
9484.000000;1.251065
9483.000000;1.249599
9482.000000;1.247527
9481.000000;1.245920
9480.000000;1.245560
9479.000000;1.246207
9478.000000;1.246740
9477.000000;1.246117
9476.000000;1.244288
9475.000000;1.242104
9474.000000;1.240382
9473.000000;1.239375
9472.000000;1.239120
9471.000000;1.239752
9470.000000;1.241068
9469.000000;1.242181
9468.000000;1.242253
9467.000000;1.241535
9466.000000;1.241063
9465.000000;1.241194
9464.000000;1.241044
9463.000000;1.239701
9462.000000;1.237559
9461.000000;1.235997
9460.000000;1.235944
9459.000000;1.237140
9458.000000;1.238632
9457.000000;1.239642
9456.000000;1.239973
9455.000000;1.239836
9454.000000;1.239443
9453.000000;1.238715
9452.000000;1.237374
9451.000000;1.235335
9450.000000;1.232894
9449.000000;1.230501
9448.000000;1.228512
9447.000000;1.227307
9446.000000;1.227380
9445.000000;1.228906
9444.000000;1.231168
9443.000000;1.232751
9442.000000;1.232558
9441.000000;1.230672
9440.000000;1.228157
9439.000000;1.226102
9438.000000;1.224868
9437.000000;1.224141
9436.000000;1.223526
9435.000000;1.223019
9434.000000;1.222851
9433.000000;1.223001
9432.000000;1.223080
9431.000000;1.222816
9430.000000;1.222420
9429.000000;1.222237
9428.000000;1.222157
9427.000000;1.221685
9426.000000;1.220644
9425.000000;1.219492
9424.000000;1.218756
9423.000000;1.218370
9422.000000;1.217827
9421.000000;1.216910
9420.000000;1.216038
9419.000000;1.215744
9418.000000;1.215956
9417.000000;1.216026
9416.000000;1.215486
9415.000000;1.214588
9414.000000;1.213935
9413.000000;1.213734
9412.000000;1.213675
9411.000000;1.213474
9410.000000;1.213171
9409.000000;1.212797
9408.000000;1.212139
9407.000000;1.211166
9406.000000;1.210426
9405.000000;1.210558
9404.000000;1.211403
9403.000000;1.211963
9402.000000;1.211340
9401.000000;1.209546
9400.000000;1.207331
9399.000000;1.205479
9398.000000;1.204369
9397.000000;1.203926
9396.000000;1.203721
9395.000000;1.203241
9394.000000;1.202254
9393.000000;1.200949
9392.000000;1.199712
9391.000000;1.198909
9390.000000;1.198849
9389.000000;1.199670
9388.000000;1.201067
9387.000000;1.202268
9386.000000;1.202598
9385.000000;1.202109
9384.000000;1.201468
9383.000000;1.201202
9382.000000;1.201231
9381.000000;1.201177
9380.000000;1.200902
9379.000000;1.200601
9378.000000;1.200482
9377.000000;1.200551
9376.000000;1.200726
9375.000000;1.200985
9374.000000;1.201246
9373.000000;1.201141
9372.000000;1.200152
9371.000000;1.198089
9370.000000;1.195364
9369.000000;1.192698
9368.000000;1.190614
9367.000000;1.189275
9366.000000;1.188731
9365.000000;1.189026
9364.000000;1.189886
9363.000000;1.190580
9362.000000;1.190495
9361.000000;1.189817
9360.000000;1.189376
9359.000000;1.189744
9358.000000;1.190662
9357.000000;1.191398
9356.000000;1.191488
9355.000000;1.190998
9354.000000;1.190192
9353.000000;1.189187
9352.000000;1.187987
9351.000000;1.186670
9350.000000;1.185465
9349.000000;1.184668
9348.000000;1.184447
9347.000000;1.184651
9346.000000;1.184791
9345.000000;1.184332
9344.000000;1.183207
9343.000000;1.182037
9342.000000;1.181693
9341.000000;1.182552
9340.000000;1.184194
9339.000000;1.185765
9338.000000;1.186598
9337.000000;1.186509
9336.000000;1.185684
9335.000000;1.184384
9334.000000;1.182738
9333.000000;1.180814
9332.000000;1.178885
9331.000000;1.177477
9330.000000;1.176927
9329.000000;1.176924
9328.000000;1.176782
9327.000000;1.176269
9326.000000;1.175827
9325.000000;1.175765
9324.000000;1.175601
9323.000000;1.174659
9322.000000;1.173142
9321.000000;1.172061
9320.000000;1.172083
9319.000000;1.172921
9318.000000;1.173973
9317.000000;1.175036
9316.000000;1.176083
9315.000000;1.176692
9314.000000;1.176221
9313.000000;1.174501
9312.000000;1.172084
9311.000000;1.169869
9310.000000;1.168647
9309.000000;1.168778
9308.000000;1.169920
9307.000000;1.171040
9306.000000;1.171034
9305.000000;1.169552
9304.000000;1.167197
9303.000000;1.164886
9302.000000;1.163160
9301.000000;1.162037
9300.000000;1.161304
9299.000000;1.160837
9298.000000;1.160720
9297.000000;1.161076
9296.000000;1.161710
9295.000000;1.162087
9294.000000;1.161915
9293.000000;1.161627
9292.000000;1.161966
9291.000000;1.163014
9290.000000;1.163919
9289.000000;1.163714
9288.000000;1.162284
9287.000000;1.160436
9286.000000;1.159169
9285.000000;1.158971
9284.000000;1.159541
9283.000000;1.159986
9282.000000;1.159459
9281.000000;1.157881
9280.000000;1.156034
9279.000000;1.154835
9278.000000;1.154576
9277.000000;1.154930
9276.000000;1.155436
9275.000000;1.155747
9274.000000;1.155609
9273.000000;1.155039
9272.000000;1.154533
9271.000000;1.154699
9270.000000;1.155552
9269.000000;1.156359
9268.000000;1.156271
9267.000000;1.154978
9266.000000;1.152769
9265.000000;1.150335
9264.000000;1.148644
9263.000000;1.148556
9262.000000;1.150018
9261.000000;1.151753
9260.000000;1.152248
9259.000000;1.151208
9258.000000;1.149681
9257.000000;1.148673
9256.000000;1.148085
9255.000000;1.147215
9254.000000;1.145983
9253.000000;1.145219
9252.000000;1.145737
9251.000000;1.147436
9250.000000;1.149382
9249.000000;1.150591
9248.000000;1.150720
9247.000000;1.150110
9246.000000;1.149306
9245.000000;1.148596
9244.000000;1.147955
9243.000000;1.147302
9242.000000;1.146666
9241.000000;1.146042
9240.000000;1.145319
9239.000000;1.144552
9238.000000;1.144126
9237.000000;1.144305
9236.000000;1.144641
9235.000000;1.144275
9234.000000;1.142958
9233.000000;1.141410
9232.000000;1.140454
9231.000000;1.140161
9230.000000;1.140118
9229.000000;1.140169
9228.000000;1.140360
9227.000000;1.140378
9226.000000;1.139731
9225.000000;1.138589
9224.000000;1.137834
9223.000000;1.137938
9222.000000;1.138256
9221.000000;1.137859
9220.000000;1.136781
9219.000000;1.135958
9218.000000;1.136060
9217.000000;1.136828
9216.000000;1.137531
9215.000000;1.137656
9214.000000;1.137125
9213.000000;1.136227
9212.000000;1.135489
9211.000000;1.135326
9210.000000;1.135619
9209.000000;1.135816
9208.000000;1.135614
9207.000000;1.135305
9206.000000;1.135276
9205.000000;1.135356
9204.000000;1.134958
9203.000000;1.133796
9202.000000;1.132217
9201.000000;1.130856
9200.000000;1.130242
9199.000000;1.130663
9198.000000;1.131982
9197.000000;1.133398
9196.000000;1.133755
9195.000000;1.132501
9194.000000;1.130323
9193.000000;1.128591
9192.000000;1.128114
9191.000000;1.128561
9190.000000;1.129039
9189.000000;1.129037
9188.000000;1.128677
9187.000000;1.128274
9186.000000;1.127920
9185.000000;1.127537
9184.000000;1.127140
9183.000000;1.126846
9182.000000;1.126670
9181.000000;1.126464
9180.000000;1.126108
9179.000000;1.125679
9178.000000;1.125333
9177.000000;1.125063
9176.000000;1.124679
9175.000000;1.124044
9174.000000;1.123234
9173.000000;1.122410
9172.000000;1.121593
9171.000000;1.120695
9170.000000;1.119737
9169.000000;1.118918
9168.000000;1.118404
9167.000000;1.118171
9166.000000;1.118120
9165.000000;1.118247
9164.000000;1.118568
9163.000000;1.118929
9162.000000;1.119057
9161.000000;1.118842
9160.000000;1.118453
9159.000000;1.118131
9158.000000;1.117972
9157.000000;1.117986
9156.000000;1.118225
9155.000000;1.118718
9154.000000;1.119341
9153.000000;1.119881
9152.000000;1.120154
9151.000000;1.119987
9150.000000;1.119204
9149.000000;1.117845
9148.000000;1.116356
9147.000000;1.115325
9146.000000;1.114945
9145.000000;1.114884
9144.000000;1.114761
9143.000000;1.114611
9142.000000;1.114742
9141.000000;1.115254
9140.000000;1.115866
9139.000000;1.116213
9138.000000;1.116138
9137.000000;1.115695
9136.000000;1.115013
9135.000000;1.114219
9134.000000;1.113409
9133.000000;1.112592
9132.000000;1.111732
9131.000000;1.110859
9130.000000;1.110091
9129.000000;1.109460
9128.000000;1.108806
9127.000000;1.107990
9126.000000;1.107176
9125.000000;1.106753
9124.000000;1.106873
9123.000000;1.107211
9122.000000;1.107317
9121.000000;1.107154
9120.000000;1.107100
9119.000000;1.107474
9118.000000;1.108197
9117.000000;1.108925
9116.000000;1.109350
9115.000000;1.109310
9114.000000;1.108805
9113.000000;1.108061
9112.000000;1.107468
9111.000000;1.107270
9110.000000;1.107345
9109.000000;1.107403
9108.000000;1.107320
9107.000000;1.107103
9106.000000;1.106669
9105.000000;1.105955
9104.000000;1.105222
9103.000000;1.104907
9102.000000;1.105099
9101.000000;1.105451
9100.000000;1.105731
9099.000000;1.106133
9098.000000;1.106805
9097.000000;1.107365
9096.000000;1.107243
9095.000000;1.106350
9094.000000;1.105081
9093.000000;1.103819
9092.000000;1.102794
9091.000000;1.102302
9090.000000;1.102492
9089.000000;1.102855
9088.000000;1.102459
9087.000000;1.101034
9086.000000;1.099473
9085.000000;1.098850
9084.000000;1.099203
9083.000000;1.099644
9082.000000;1.099562
9081.000000;1.099237
9080.000000;1.099194
9079.000000;1.099369
9078.000000;1.099211
9077.000000;1.098388
9076.000000;1.097145
9075.000000;1.096022
9074.000000;1.095415
9073.000000;1.095349
9072.000000;1.095498
9071.000000;1.095450
9070.000000;1.095108
9069.000000;1.094840
9068.000000;1.095067
9067.000000;1.095669
9066.000000;1.095983
9065.000000;1.095509
9064.000000;1.094503
9063.000000;1.093699
9062.000000;1.093545
9061.000000;1.093901
9060.000000;1.094425
9059.000000;1.094957
9058.000000;1.095411
9057.000000;1.095511
9056.000000;1.094901
9055.000000;1.093546
9054.000000;1.091888
9053.000000;1.090600
