Criado como novo conjunto de dados;"1909daniel.spp","-4252483.3 Secs"
cm-1;Abs
10000.000000;1.907387
9999.000000;1.911160
9998.000000;1.910515
9997.000000;1.908434
9996.000000;1.908276
9995.000000;1.909855
9994.000000;1.910267
9993.000000;1.907965
9992.000000;1.904645
9991.000000;1.902739
9990.000000;1.902358
9989.000000;1.901582
9988.000000;1.899261
9987.000000;1.896550
9986.000000;1.895369
9985.000000;1.895908
9984.000000;1.896223
9983.000000;1.894583
9982.000000;1.891878
9981.000000;1.890807
9980.000000;1.892515
9979.000000;1.894960
9978.000000;1.895272
9977.000000;1.893171
9976.000000;1.890975
9975.000000;1.890605
9974.000000;1.891804
9973.000000;1.893129
9972.000000;1.893255
9971.000000;1.891092
9970.000000;1.886244
9969.000000;1.880194
9968.000000;1.875749
9967.000000;1.874435
9966.000000;1.875287
9965.000000;1.876762
9964.000000;1.878827
9963.000000;1.881911
9962.000000;1.884656
9961.000000;1.884629
9960.000000;1.881348
9959.000000;1.877120
9958.000000;1.874658
9957.000000;1.874908
9956.000000;1.877021
9955.000000;1.879318
9954.000000;1.880299
9953.000000;1.879725
9952.000000;1.878756
9951.000000;1.878403
9950.000000;1.877991
9949.000000;1.875853
9948.000000;1.871468
9947.000000;1.866141
9946.000000;1.861743
9945.000000;1.859881
9944.000000;1.861718
9943.000000;1.866881
9942.000000;1.872454
9941.000000;1.874732
9940.000000;1.872773
9939.000000;1.869076
9938.000000;1.866356
9937.000000;1.864975
9936.000000;1.864001
9935.000000;1.863219
9934.000000;1.862872
9933.000000;1.862387
9932.000000;1.860659
9931.000000;1.857573
9930.000000;1.854481
9929.000000;1.852890
9928.000000;1.853277
9927.000000;1.855166
9926.000000;1.857584
9925.000000;1.859257
9924.000000;1.858997
9923.000000;1.856530
9922.000000;1.852959
9921.000000;1.849873
9920.000000;1.847982
9919.000000;1.846958
9918.000000;1.846282
9917.000000;1.845986
9916.000000;1.846389
9915.000000;1.847034
9914.000000;1.846590
9913.000000;1.844335
9912.000000;1.841213
9911.000000;1.838933
9910.000000;1.837980
9909.000000;1.837183
9908.000000;1.835656
9907.000000;1.834207
9906.000000;1.834133
9905.000000;1.835477
9904.000000;1.837200
9903.000000;1.838643
9902.000000;1.840078
9901.000000;1.841784
9900.000000;1.843188
9899.000000;1.843008
9898.000000;1.840113
9897.000000;1.834648
9896.000000;1.828698
9895.000000;1.825408
9894.000000;1.826551
9893.000000;1.830727
9892.000000;1.834410
9891.000000;1.835250
9890.000000;1.834109
9889.000000;1.833426
9888.000000;1.834047
9887.000000;1.834171
9886.000000;1.831365
9885.000000;1.825460
9884.000000;1.819306
9883.000000;1.816533
9882.000000;1.818495
9881.000000;1.823164
9880.000000;1.826928
9879.000000;1.827557
9878.000000;1.825454
9877.000000;1.822480
9876.000000;1.820139
9875.000000;1.819008
9874.000000;1.819145
9873.000000;1.820218
9872.000000;1.821252
9871.000000;1.820911
9870.000000;1.818566
9869.000000;1.815074
9868.000000;1.812180
9867.000000;1.811045
9866.000000;1.811496
9865.000000;1.812671
9864.000000;1.813988
9863.000000;1.815273
9862.000000;1.816261
9861.000000;1.816451
9860.000000;1.815540
9859.000000;1.813791
9858.000000;1.811783
9857.000000;1.809933
9856.000000;1.808390
9855.000000;1.807046
9854.000000;1.805404
9853.000000;1.802839
9852.000000;1.799495
9851.000000;1.796774
9850.000000;1.796250
9849.000000;1.797982
9848.000000;1.800268
9847.000000;1.801141
9846.000000;1.800104
9845.000000;1.798353
9844.000000;1.797409
9843.000000;1.797749
9842.000000;1.798735
9841.000000;1.799497
9840.000000;1.799631
9839.000000;1.799038
9838.000000;1.797514
9837.000000;1.795011
9836.000000;1.792257
9835.000000;1.790422
9834.000000;1.789785
9833.000000;1.789263
9832.000000;1.787933
9831.000000;1.786676
9830.000000;1.787256
9829.000000;1.789742
9828.000000;1.791712
9827.000000;1.790553
9826.000000;1.786211
9825.000000;1.781150
9824.000000;1.778039
9823.000000;1.778008
9822.000000;1.780313
9821.000000;1.782809
9820.000000;1.783347
9819.000000;1.781748
9818.000000;1.780212
9817.000000;1.780809
9816.000000;1.782744
9815.000000;1.783259
9814.000000;1.781385
9813.000000;1.779240
9812.000000;1.778901
9811.000000;1.779629
9810.000000;1.779229
9809.000000;1.777089
9808.000000;1.774424
9807.000000;1.772102
9806.000000;1.769925
9805.000000;1.767904
9804.000000;1.766704
9803.000000;1.766542
9802.000000;1.766866
9801.000000;1.767477
9800.000000;1.768681
9799.000000;1.769821
9798.000000;1.768958
9797.000000;1.765082
9796.000000;1.759983
9795.000000;1.756729
9794.000000;1.756576
9793.000000;1.758160
9792.000000;1.759500
9791.000000;1.759966
9790.000000;1.760078
9789.000000;1.760158
9788.000000;1.759902
9787.000000;1.759175
9786.000000;1.758658
9785.000000;1.759384
9784.000000;1.761609
9783.000000;1.764285
9782.000000;1.765798
9781.000000;1.765210
9780.000000;1.762772
9779.000000;1.759408
9778.000000;1.756001
9777.000000;1.753184
9776.000000;1.751338
9775.000000;1.750467
9774.000000;1.750179
9773.000000;1.750001
9772.000000;1.749574
9771.000000;1.748598
9770.000000;1.747058
9769.000000;1.745530
9768.000000;1.744780
9767.000000;1.744927
9766.000000;1.745350
9765.000000;1.745492
9764.000000;1.745330
9763.000000;1.744925
9762.000000;1.744047
9761.000000;1.742562
9760.000000;1.740734
9759.000000;1.738886
9758.000000;1.737219
9757.000000;1.736236
9756.000000;1.736707
9755.000000;1.738528
9754.000000;1.740080
9753.000000;1.739610
9752.000000;1.737104
9751.000000;1.734128
9750.000000;1.732143
9749.000000;1.731736
9748.000000;1.733002
9747.000000;1.735488
9746.000000;1.737663
9745.000000;1.737644
9744.000000;1.735073
9743.000000;1.731716
9742.000000;1.729712
9741.000000;1.729728
9740.000000;1.731089
9739.000000;1.733022
9738.000000;1.735116
9737.000000;1.736851
9736.000000;1.737369
9735.000000;1.735911
9734.000000;1.732368
9733.000000;1.727592
9732.000000;1.723197
9731.000000;1.720590
9730.000000;1.719731
9729.000000;1.719127
9728.000000;1.717664
9727.000000;1.716119
9726.000000;1.715984
9725.000000;1.717065
9724.000000;1.717273
9723.000000;1.715190
9722.000000;1.711942
9721.000000;1.709758
9720.000000;1.709425
9719.000000;1.709945
9718.000000;1.710290
9717.000000;1.710633
9716.000000;1.711507
9715.000000;1.712548
9714.000000;1.712838
9713.000000;1.711938
9712.000000;1.709803
9711.000000;1.706180
9710.000000;1.701145
9709.000000;1.696281
9708.000000;1.694284
9707.000000;1.696653
9706.000000;1.701988
9705.000000;1.707042
9704.000000;1.709549
9703.000000;1.709687
9702.000000;1.708841
9701.000000;1.707881
9700.000000;1.706942
9699.000000;1.705978
9698.000000;1.704832
9697.000000;1.703183
9696.000000;1.701181
9695.000000;1.699988
9694.000000;1.700808
9693.000000;1.703259
9692.000000;1.705442
9691.000000;1.706012
9690.000000;1.705602
9689.000000;1.705596
9688.000000;1.706079
9687.000000;1.705740
9686.000000;1.703521
9685.000000;1.699768
9684.000000;1.695738
9683.000000;1.692567
9682.000000;1.690743
9681.000000;1.689926
9680.000000;1.689077
9679.000000;1.687360
9678.000000;1.685219
9677.000000;1.684035
9676.000000;1.684456
9675.000000;1.685581
9674.000000;1.686149
9673.000000;1.685943
9672.000000;1.685422
9671.000000;1.684502
9670.000000;1.682629
9669.000000;1.679931
9668.000000;1.677467
9667.000000;1.676234
9666.000000;1.676433
9665.000000;1.677660
9664.000000;1.679209
9663.000000;1.680119
9662.000000;1.679634
9661.000000;1.677964
9660.000000;1.676186
9659.000000;1.675258
9658.000000;1.675425
9657.000000;1.676439
9656.000000;1.677747
9655.000000;1.678416
9654.000000;1.677622
9653.000000;1.675488
9652.000000;1.672923
9651.000000;1.670493
9650.000000;1.668001
9649.000000;1.665354
9648.000000;1.663114
9647.000000;1.661663
9646.000000;1.660552
9645.000000;1.659468
9644.000000;1.659346
9643.000000;1.661458
9642.000000;1.665402
9641.000000;1.668898
9640.000000;1.670082
9639.000000;1.669399
9638.000000;1.668540
9637.000000;1.668067
9636.000000;1.666997
9635.000000;1.664626
9634.000000;1.661933
9633.000000;1.660720
9632.000000;1.661620
9631.000000;1.663315
9630.000000;1.663694
9629.000000;1.661596
9628.000000;1.657664
9627.000000;1.653828
9626.000000;1.651926
9625.000000;1.652425
9624.000000;1.653960
9623.000000;1.654266
9622.000000;1.652203
9621.000000;1.648964
9620.000000;1.646954
9619.000000;1.647500
9618.000000;1.649688
9617.000000;1.651205
9616.000000;1.650282
9615.000000;1.647076
9614.000000;1.643324
9613.000000;1.640592
9612.000000;1.638984
9611.000000;1.637741
9610.000000;1.636821
9609.000000;1.637059
9608.000000;1.638522
9607.000000;1.639688
9606.000000;1.639165
9605.000000;1.637594
9604.000000;1.636733
9603.000000;1.637075
9602.000000;1.637547
9601.000000;1.637363
9600.000000;1.636879
9599.000000;1.636323
9598.000000;1.635035
9597.000000;1.632684
9596.000000;1.630179
9595.000000;1.628654
9594.000000;1.628207
9593.000000;1.628289
9592.000000;1.628782
9591.000000;1.629790
9590.000000;1.630765
9589.000000;1.630835
9588.000000;1.629891
9587.000000;1.628549
9586.000000;1.626994
9585.000000;1.624644
9584.000000;1.621314
9583.000000;1.618150
9582.000000;1.616832
9581.000000;1.617848
9580.000000;1.619801
9579.000000;1.620706
9578.000000;1.620168
9577.000000;1.619931
9576.000000;1.621690
9575.000000;1.624591
9574.000000;1.625786
9573.000000;1.623717
9572.000000;1.619920
9571.000000;1.617177
9570.000000;1.616844
9569.000000;1.618366
9568.000000;1.620336
9567.000000;1.621240
9566.000000;1.619982
9565.000000;1.616900
9564.000000;1.613883
9563.000000;1.612514
9562.000000;1.612367
9561.000000;1.611937
9560.000000;1.610937
9559.000000;1.610500
9558.000000;1.611223
9557.000000;1.612210
9556.000000;1.612382
9555.000000;1.611699
9554.000000;1.610459
9553.000000;1.608439
9552.000000;1.605680
9551.000000;1.603325
9550.000000;1.602580
9549.000000;1.603269
9548.000000;1.604318
9547.000000;1.605273
9546.000000;1.606382
9545.000000;1.607289
9544.000000;1.606769
9543.000000;1.604207
9542.000000;1.600665
9541.000000;1.598014
9540.000000;1.597422
9539.000000;1.598867
9538.000000;1.601420
9537.000000;1.603519
9536.000000;1.603507
9535.000000;1.600878
9534.000000;1.596994
9533.000000;1.593889
9532.000000;1.592334
9531.000000;1.591579
9530.000000;1.590883
9529.000000;1.590437
9528.000000;1.590406
9527.000000;1.589969
9526.000000;1.588212
9525.000000;1.585586
9524.000000;1.583580
9523.000000;1.583148
9522.000000;1.584159
9521.000000;1.585976
9520.000000;1.587715
9519.000000;1.588201
9518.000000;1.586779
9517.000000;1.584447
9516.000000;1.583231
9515.000000;1.583975
9514.000000;1.585389
9513.000000;1.585680
9512.000000;1.584480
9511.000000;1.582661
9510.000000;1.581052
9509.000000;1.580164
9508.000000;1.580525
9507.000000;1.582223
9506.000000;1.584216
9505.000000;1.584935
9504.000000;1.583759
9503.000000;1.581379
9502.000000;1.578689
9501.000000;1.575977
9500.000000;1.573361
9499.000000;1.571482
9498.000000;1.571304
9497.000000;1.573155
9496.000000;1.576081
9495.000000;1.578235
9494.000000;1.578261
9493.000000;1.576578
9492.000000;1.575029
9491.000000;1.574908
9490.000000;1.575580
9489.000000;1.575369
9488.000000;1.573611
9487.000000;1.571284
9486.000000;1.569627
9485.000000;1.568850
9484.000000;1.568406
9483.000000;1.567982
9482.000000;1.567695
9481.000000;1.567557
9480.000000;1.567163
9479.000000;1.566039
9478.000000;1.564163
9477.000000;1.562091
9476.000000;1.560594
9475.000000;1.560170
9474.000000;1.560781
9473.000000;1.561878
9472.000000;1.562688
9471.000000;1.562662
9470.000000;1.561854
9469.000000;1.560859
9468.000000;1.560216
9467.000000;1.559829
9466.000000;1.559272
9465.000000;1.558513
9464.000000;1.557919
9463.000000;1.557737
9462.000000;1.557875
9461.000000;1.558273
9460.000000;1.559042
9459.000000;1.559922
9458.000000;1.560065
9457.000000;1.558818
9456.000000;1.556554
9455.000000;1.554345
9454.000000;1.552943
9453.000000;1.552276
9452.000000;1.551796
9451.000000;1.551070
9450.000000;1.550095
9449.000000;1.549114
9448.000000;1.548121
9447.000000;1.546735
9446.000000;1.544900
9445.000000;1.543531
9444.000000;1.543754
9443.000000;1.545394
9442.000000;1.546841
9441.000000;1.546825
9440.000000;1.545788
9439.000000;1.544988
9438.000000;1.544742
9437.000000;1.544249
9436.000000;1.542899
9435.000000;1.541074
9434.000000;1.539763
9433.000000;1.539926
9432.000000;1.541939
9431.000000;1.544966
9430.000000;1.547002
9429.000000;1.546258
9428.000000;1.542799
9427.000000;1.538504
9426.000000;1.535384
9425.000000;1.534156
9424.000000;1.534191
9423.000000;1.534432
9422.000000;1.534415
9421.000000;1.534629
9420.000000;1.535725
9419.000000;1.537261
9418.000000;1.537729
9417.000000;1.536319
9416.000000;1.534102
9415.000000;1.532694
9414.000000;1.532254
9413.000000;1.531560
9412.000000;1.529771
9411.000000;1.527144
9410.000000;1.524208
9409.000000;1.521360
9408.000000;1.519466
9407.000000;1.519750
9406.000000;1.522326
9405.000000;1.525394
9404.000000;1.526645
9403.000000;1.525354
9402.000000;1.522705
9401.000000;1.520412
9400.000000;1.519444
9399.000000;1.519815
9398.000000;1.521107
9397.000000;1.522922
9396.000000;1.524734
9395.000000;1.525507
9394.000000;1.524109
9393.000000;1.520670
9392.000000;1.517047
9391.000000;1.515121
9390.000000;1.514780
9389.000000;1.514384
9388.000000;1.513259
9387.000000;1.512740
9386.000000;1.514302
9385.000000;1.517519
9384.000000;1.520471
9383.000000;1.521600
9382.000000;1.520558
9381.000000;1.517760
9380.000000;1.514093
9379.000000;1.510916
9378.000000;1.509368
9377.000000;1.509337
9376.000000;1.509595
9375.000000;1.509187
9374.000000;1.508389
9373.000000;1.508131
9372.000000;1.508864
9371.000000;1.510173
9370.000000;1.511165
9369.000000;1.510991
9368.000000;1.509229
9367.000000;1.506155
9366.000000;1.502786
9365.000000;1.500441
9364.000000;1.499987
9363.000000;1.501273
9362.000000;1.503226
9361.000000;1.504581
9360.000000;1.504727
9359.000000;1.503975
9358.000000;1.503026
9357.000000;1.502254
9356.000000;1.501539
9355.000000;1.500660
9354.000000;1.499600
9353.000000;1.498453
9352.000000;1.497250
9351.000000;1.496063
9350.000000;1.495306
9349.000000;1.495769
9348.000000;1.497915
9347.000000;1.500972
9346.000000;1.503147
9345.000000;1.503198
9344.000000;1.501624
9343.000000;1.499869
9342.000000;1.498697
9341.000000;1.497911
9340.000000;1.497367
9339.000000;1.497339
9338.000000;1.497670
9337.000000;1.497431
9336.000000;1.496052
9335.000000;1.494224
9334.000000;1.493002
9333.000000;1.492377
9332.000000;1.491486
9331.000000;1.490091
9330.000000;1.489017
9329.000000;1.488908
9328.000000;1.489310
9327.000000;1.489387
9326.000000;1.489028
9325.000000;1.488648
9324.000000;1.488174
9323.000000;1.486993
9322.000000;1.484986
9321.000000;1.483021
9320.000000;1.482062
9319.000000;1.482131
9318.000000;1.482479
9317.000000;1.482558
9316.000000;1.482444
9315.000000;1.482257
9314.000000;1.481624
9313.000000;1.480112
9312.000000;1.478029
9311.000000;1.476441
9310.000000;1.476197
9309.000000;1.477073
9308.000000;1.478031
9307.000000;1.478320
9306.000000;1.478098
9305.000000;1.477826
9304.000000;1.477288
9303.000000;1.475753
9302.000000;1.473258
9301.000000;1.471193
9300.000000;1.470982
9299.000000;1.472341
9298.000000;1.473530
9297.000000;1.473504
9296.000000;1.473117
9295.000000;1.473653
9294.000000;1.474805
9293.000000;1.475083
9292.000000;1.474054
9291.000000;1.473016
9290.000000;1.473062
9289.000000;1.473464
9288.000000;1.472759
9287.000000;1.470937
9286.000000;1.469511
9285.000000;1.469507
9284.000000;1.470323
9283.000000;1.470774
9282.000000;1.470509
9281.000000;1.469910
9280.000000;1.469197
9279.000000;1.468384
9278.000000;1.467828
9277.000000;1.468116
9276.000000;1.469310
9275.000000;1.470831
9274.000000;1.472159
9273.000000;1.473136
9272.000000;1.473503
9271.000000;1.472805
9270.000000;1.471114
9269.000000;1.469281
9268.000000;1.467922
9267.000000;1.466550
9266.000000;1.464345
9265.000000;1.461592
9264.000000;1.459597
9263.000000;1.459105
9262.000000;1.459406
9261.000000;1.459261
9260.000000;1.458340
9259.000000;1.457383
9258.000000;1.457103
9257.000000;1.457298
9256.000000;1.457086
9255.000000;1.455986
9254.000000;1.454688
9253.000000;1.454528
9252.000000;1.456015
9251.000000;1.458082
9250.000000;1.459146
9249.000000;1.458823
9248.000000;1.458110
9247.000000;1.457826
9246.000000;1.457514
9245.000000;1.456229
9244.000000;1.453950
9243.000000;1.451656
9242.000000;1.450172
9241.000000;1.449491
9240.000000;1.449240
9239.000000;1.449322
9238.000000;1.449846
9237.000000;1.450610
9236.000000;1.451027
9235.000000;1.450751
9234.000000;1.450231
9233.000000;1.450309
9232.000000;1.451125
9231.000000;1.451749
9230.000000;1.451268
9229.000000;1.450017
9228.000000;1.449136
9227.000000;1.448987
9226.000000;1.448644
9225.000000;1.447158
9224.000000;1.444889
9223.000000;1.443269
9222.000000;1.443545
9221.000000;1.445852
9220.000000;1.449017
9219.000000;1.451018
9218.000000;1.450245
9217.000000;1.446849
9216.000000;1.442639
9215.000000;1.439554
9214.000000;1.438505
9213.000000;1.439451
9212.000000;1.441738
9211.000000;1.444059
9210.000000;1.444880
9209.000000;1.443766
9208.000000;1.441960
9207.000000;1.441033
9206.000000;1.441246
9205.000000;1.441649
9204.000000;1.441406
9203.000000;1.440460
9202.000000;1.439200
9201.000000;1.438165
9200.000000;1.437980
9199.000000;1.438849
9198.000000;1.439970
9197.000000;1.439995
9196.000000;1.438307
9195.000000;1.435553
9194.000000;1.433018
9193.000000;1.431825
9192.000000;1.432410
9191.000000;1.434182
9190.000000;1.435736
9189.000000;1.435955
9188.000000;1.434946
9187.000000;1.433606
9186.000000;1.432576
9185.000000;1.432155
9184.000000;1.432770
9183.000000;1.434526
9182.000000;1.436265
9181.000000;1.436126
9180.000000;1.433564
9179.000000;1.430167
9178.000000;1.428087
9177.000000;1.428213
9176.000000;1.430006
9175.000000;1.432313
9174.000000;1.433893
9173.000000;1.433872
9172.000000;1.432479
9171.000000;1.431099
9170.000000;1.430974
9169.000000;1.431859
9168.000000;1.432247
9167.000000;1.430923
9166.000000;1.428105
9165.000000;1.425193
9164.000000;1.423683
9163.000000;1.424208
9162.000000;1.426112
9161.000000;1.427799
9160.000000;1.427833
9159.000000;1.425963
9158.000000;1.423154
9157.000000;1.420773
9156.000000;1.419723
9155.000000;1.420021
9154.000000;1.420965
9153.000000;1.421801
9152.000000;1.422341
9151.000000;1.422830
9150.000000;1.423288
9149.000000;1.423320
9148.000000;1.422725
9147.000000;1.421942
9146.000000;1.421524
9145.000000;1.421381
9144.000000;1.420887
9143.000000;1.419694
9142.000000;1.418176
9141.000000;1.417059
9140.000000;1.416734
9139.000000;1.416902
9138.000000;1.416832
9137.000000;1.416036
9136.000000;1.414753
9135.000000;1.413693
9134.000000;1.413316
9133.000000;1.413520
9132.000000;1.413980
9131.000000;1.414542
9130.000000;1.415115
9129.000000;1.415410
9128.000000;1.415102
9127.000000;1.414188
9126.000000;1.413075
9125.000000;1.412391
9124.000000;1.412688
9123.000000;1.414068
9122.000000;1.415924
9121.000000;1.417204
9120.000000;1.417219
9119.000000;1.416260
9118.000000;1.415236
9117.000000;1.414762
9116.000000;1.414724
9115.000000;1.414639
9114.000000;1.414228
9113.000000;1.413506
9112.000000;1.412487
9111.000000;1.411056
9110.000000;1.409265
9109.000000;1.407672
9108.000000;1.407176
9107.000000;1.408248
9106.000000;1.410226
9105.000000;1.411542
9104.000000;1.410947
9103.000000;1.408609
9102.000000;1.405890
9101.000000;1.404072
9100.000000;1.403392
9099.000000;1.403253
9098.000000;1.403213
9097.000000;1.403513
9096.000000;1.404582
9095.000000;1.406265
9094.000000;1.407855
9093.000000;1.408827
9092.000000;1.409159
9091.000000;1.408831
9090.000000;1.407478
9089.000000;1.405064
9088.000000;1.402702
9087.000000;1.402110
9086.000000;1.404012
9085.000000;1.407233
9084.000000;1.409496
9083.000000;1.409216
9082.000000;1.406659
9081.000000;1.403559
9080.000000;1.401663
9079.000000;1.401425
9078.000000;1.401928
9077.000000;1.402100
9076.000000;1.402006
9075.000000;1.402660
9074.000000;1.404561
9073.000000;1.406785
9072.000000;1.407779
9071.000000;1.406825
9070.000000;1.404533
9069.000000;1.402076
9068.000000;1.400279
9067.000000;1.399345
9066.000000;1.399134
9065.000000;1.399521
9064.000000;1.400498
9063.000000;1.401870
9062.000000;1.402932
9061.000000;1.402767
9060.000000;1.401115
9059.000000;1.398791
9058.000000;1.396971
9057.000000;1.396130
9056.000000;1.395864
9055.000000;1.395618
9054.000000;1.395294
9053.000000;1.395111
