Criado como novo conjunto de dados;"1909daniel.spp","-4253743.1 Secs"
cm-1;Abs
10000.000000;1.787138
9999.000000;1.788310
9998.000000;1.790102
9997.000000;1.791234
9996.000000;1.790840
9995.000000;1.789159
9994.000000;1.786891
9993.000000;1.784582
9992.000000;1.782736
9991.000000;1.781766
9990.000000;1.781523
9989.000000;1.781313
9988.000000;1.780675
9987.000000;1.779883
9986.000000;1.779517
9985.000000;1.779769
9984.000000;1.780345
9983.000000;1.780774
9982.000000;1.780638
9981.000000;1.779748
9980.000000;1.778268
9979.000000;1.776731
9978.000000;1.775956
9977.000000;1.776585
9976.000000;1.778334
9975.000000;1.779841
9974.000000;1.779526
9973.000000;1.776805
9972.000000;1.772764
9971.000000;1.769458
9970.000000;1.768334
9969.000000;1.769276
9968.000000;1.770682
9967.000000;1.770575
9966.000000;1.768316
9965.000000;1.765235
9964.000000;1.763340
9963.000000;1.763399
9962.000000;1.764427
9961.000000;1.765014
9960.000000;1.764761
9959.000000;1.764111
9958.000000;1.763177
9957.000000;1.761553
9956.000000;1.759302
9955.000000;1.757340
9954.000000;1.756574
9953.000000;1.757068
9952.000000;1.758133
9951.000000;1.758747
9950.000000;1.757880
9949.000000;1.755167
9948.000000;1.751424
9947.000000;1.748092
9946.000000;1.746094
9945.000000;1.745464
9944.000000;1.746119
9943.000000;1.748310
9942.000000;1.751828
9941.000000;1.755259
9940.000000;1.756918
9939.000000;1.756511
9938.000000;1.755169
9937.000000;1.753707
9936.000000;1.751731
9935.000000;1.748703
9934.000000;1.745075
9933.000000;1.741935
9932.000000;1.739909
9931.000000;1.738709
9930.000000;1.737520
9929.000000;1.735538
9928.000000;1.732459
9927.000000;1.728963
9926.000000;1.726700
9925.000000;1.727195
9924.000000;1.730336
9923.000000;1.734054
9922.000000;1.735881
9921.000000;1.734942
9920.000000;1.732405
9919.000000;1.730232
9918.000000;1.729772
9917.000000;1.731166
9916.000000;1.733438
9915.000000;1.735070
9914.000000;1.735055
9913.000000;1.733616
9912.000000;1.731699
9911.000000;1.729859
9910.000000;1.727908
9909.000000;1.725567
9908.000000;1.723171
9907.000000;1.721557
9906.000000;1.721323
9905.000000;1.722323
9904.000000;1.723880
9903.000000;1.725371
9902.000000;1.726521
9901.000000;1.727215
9900.000000;1.727189
9899.000000;1.725955
9898.000000;1.723266
9897.000000;1.719875
9896.000000;1.717493
9895.000000;1.717433
9894.000000;1.719059
9893.000000;1.719889
9892.000000;1.717900
9891.000000;1.713812
9890.000000;1.710514
9889.000000;1.710101
9888.000000;1.711930
9887.000000;1.713624
9886.000000;1.713556
9885.000000;1.712003
9884.000000;1.710139
9883.000000;1.708604
9882.000000;1.707235
9881.000000;1.705710
9880.000000;1.704115
9879.000000;1.702942
9878.000000;1.702594
9877.000000;1.702770
9876.000000;1.702477
9875.000000;1.701014
9874.000000;1.698787
9873.000000;1.696718
9872.000000;1.695057
9871.000000;1.693381
9870.000000;1.691730
9869.000000;1.690958
9868.000000;1.691597
9867.000000;1.692971
9866.000000;1.693957
9865.000000;1.694226
9864.000000;1.694202
9863.000000;1.694103
9862.000000;1.693771
9861.000000;1.693333
9860.000000;1.693274
9859.000000;1.693807
9858.000000;1.694584
9857.000000;1.694948
9856.000000;1.694224
9855.000000;1.692169
9854.000000;1.689657
9853.000000;1.688494
9852.000000;1.689676
9851.000000;1.691800
9850.000000;1.692054
9849.000000;1.689192
9848.000000;1.684812
9847.000000;1.681392
9846.000000;1.679916
9845.000000;1.679800
9844.000000;1.680270
9843.000000;1.680902
9842.000000;1.681187
9841.000000;1.680597
9840.000000;1.679278
9839.000000;1.678052
9838.000000;1.677513
9837.000000;1.677412
9836.000000;1.677125
9835.000000;1.676454
9834.000000;1.675750
9833.000000;1.675456
9832.000000;1.675708
9831.000000;1.676154
9830.000000;1.676162
9829.000000;1.675276
9828.000000;1.673470
9827.000000;1.671246
9826.000000;1.669529
9825.000000;1.669220
9824.000000;1.670507
9823.000000;1.672377
9822.000000;1.673136
9821.000000;1.671786
9820.000000;1.668837
9819.000000;1.665681
9818.000000;1.663491
9817.000000;1.662800
9816.000000;1.663568
9815.000000;1.665197
9814.000000;1.666656
9813.000000;1.667020
9812.000000;1.666039
9811.000000;1.663985
9810.000000;1.661145
9809.000000;1.657821
9808.000000;1.654716
9807.000000;1.652751
9806.000000;1.652244
9805.000000;1.652514
9804.000000;1.652516
9803.000000;1.651789
9802.000000;1.650690
9801.000000;1.649824
9800.000000;1.649433
9799.000000;1.649395
9798.000000;1.649595
9797.000000;1.649980
9796.000000;1.650222
9795.000000;1.649704
9794.000000;1.648168
9793.000000;1.646209
9792.000000;1.644710
9791.000000;1.643809
9790.000000;1.642937
9789.000000;1.641996
9788.000000;1.641836
9787.000000;1.643055
9786.000000;1.644779
9785.000000;1.645457
9784.000000;1.644873
9783.000000;1.644474
9782.000000;1.645219
9781.000000;1.645865
9780.000000;1.644242
9779.000000;1.640149
9778.000000;1.636098
9777.000000;1.634896
9776.000000;1.636952
9775.000000;1.640057
9774.000000;1.641483
9773.000000;1.640104
9772.000000;1.636608
9771.000000;1.632367
9770.000000;1.628646
9769.000000;1.626434
9768.000000;1.626067
9767.000000;1.626793
9766.000000;1.627257
9765.000000;1.626803
9764.000000;1.626116
9763.000000;1.626325
9762.000000;1.627671
9761.000000;1.629232
9760.000000;1.629818
9759.000000;1.628977
9758.000000;1.627256
9757.000000;1.625627
9756.000000;1.624614
9755.000000;1.623952
9754.000000;1.623144
9753.000000;1.622203
9752.000000;1.621528
9751.000000;1.621039
9750.000000;1.619993
9749.000000;1.618042
9748.000000;1.615919
9747.000000;1.614590
9746.000000;1.614172
9745.000000;1.614269
9744.000000;1.614917
9743.000000;1.616364
9742.000000;1.618015
9741.000000;1.618522
9740.000000;1.617175
9739.000000;1.614637
9738.000000;1.612043
9737.000000;1.609936
9736.000000;1.608266
9735.000000;1.606863
9734.000000;1.605597
9733.000000;1.604503
9732.000000;1.603994
9731.000000;1.604567
9730.000000;1.605879
9729.000000;1.606483
9728.000000;1.605187
9727.000000;1.602506
9726.000000;1.600143
9725.000000;1.599250
9724.000000;1.599725
9723.000000;1.600866
9722.000000;1.601954
9721.000000;1.602250
9720.000000;1.601289
9719.000000;1.599560
9718.000000;1.598278
9717.000000;1.598064
9716.000000;1.598100
9715.000000;1.596964
9714.000000;1.594254
9713.000000;1.591150
9712.000000;1.589400
9711.000000;1.589852
9710.000000;1.591735
9709.000000;1.593138
9708.000000;1.592516
9707.000000;1.590100
9706.000000;1.587707
9705.000000;1.587042
9704.000000;1.588161
9703.000000;1.589515
9702.000000;1.589449
9701.000000;1.587682
9700.000000;1.585430
9699.000000;1.584196
9698.000000;1.584463
9697.000000;1.585417
9696.000000;1.585884
9695.000000;1.585546
9694.000000;1.585111
9693.000000;1.585301
9692.000000;1.585895
9691.000000;1.585903
9690.000000;1.584527
9689.000000;1.581787
9688.000000;1.578373
9687.000000;1.575230
9686.000000;1.573186
9685.000000;1.572507
9684.000000;1.572671
9683.000000;1.572925
9682.000000;1.573106
9681.000000;1.573608
9680.000000;1.574399
9679.000000;1.574522
9678.000000;1.573049
9677.000000;1.570353
9676.000000;1.567880
9675.000000;1.566669
9674.000000;1.566504
9673.000000;1.566566
9672.000000;1.566472
9671.000000;1.566350
9670.000000;1.566214
9669.000000;1.565761
9668.000000;1.564797
9667.000000;1.563497
9666.000000;1.562149
9665.000000;1.560933
9664.000000;1.560088
9663.000000;1.560061
9662.000000;1.561064
9661.000000;1.562394
9660.000000;1.562550
9659.000000;1.560523
9658.000000;1.557072
9657.000000;1.554385
9656.000000;1.554152
9655.000000;1.555940
9654.000000;1.557599
9653.000000;1.557417
9652.000000;1.555703
9651.000000;1.554062
9650.000000;1.553490
9649.000000;1.553621
9648.000000;1.553612
9647.000000;1.553120
9646.000000;1.552197
9645.000000;1.550768
9644.000000;1.548726
9643.000000;1.546455
9642.000000;1.544833
9641.000000;1.544492
9640.000000;1.545201
9639.000000;1.546106
9638.000000;1.546548
9637.000000;1.546601
9636.000000;1.546816
9635.000000;1.547566
9634.000000;1.548588
9633.000000;1.549084
9632.000000;1.548316
9631.000000;1.546184
9630.000000;1.543277
9629.000000;1.540467
9628.000000;1.538448
9627.000000;1.537468
9626.000000;1.537313
9625.000000;1.537559
9624.000000;1.537987
9623.000000;1.538706
9622.000000;1.539702
9621.000000;1.540303
9620.000000;1.539451
9619.000000;1.536814
9618.000000;1.533493
9617.000000;1.531241
9616.000000;1.530972
9615.000000;1.532134
9614.000000;1.533423
9613.000000;1.533855
9612.000000;1.533142
9611.000000;1.531406
9610.000000;1.528916
9609.000000;1.526066
9608.000000;1.523312
9607.000000;1.521050
9606.000000;1.519644
9605.000000;1.519451
9604.000000;1.520563
9603.000000;1.522493
9602.000000;1.524296
9601.000000;1.525131
9600.000000;1.524666
9599.000000;1.523017
9598.000000;1.520628
9597.000000;1.518287
9596.000000;1.516891
9595.000000;1.516764
9594.000000;1.517217
9593.000000;1.517002
9592.000000;1.515349
9591.000000;1.512547
9590.000000;1.509657
9589.000000;1.507871
9588.000000;1.507999
9587.000000;1.510033
9586.000000;1.512911
9585.000000;1.514919
9584.000000;1.514829
9583.000000;1.512852
9582.000000;1.510211
9581.000000;1.507756
9580.000000;1.505433
9579.000000;1.503172
9578.000000;1.501711
9577.000000;1.502023
9576.000000;1.504076
9575.000000;1.506643
9574.000000;1.508445
9573.000000;1.509195
9572.000000;1.509372
9571.000000;1.509452
9570.000000;1.509622
9569.000000;1.509695
9568.000000;1.508937
9567.000000;1.506461
9566.000000;1.502432
9565.000000;1.498574
9564.000000;1.496811
9563.000000;1.497489
9562.000000;1.499358
9561.000000;1.501047
9560.000000;1.501967
9559.000000;1.501958
9558.000000;1.500867
9557.000000;1.498830
9556.000000;1.496444
9555.000000;1.494220
9554.000000;1.492177
9553.000000;1.490267
9552.000000;1.488857
9551.000000;1.488410
9550.000000;1.488929
9549.000000;1.489996
9548.000000;1.491153
9547.000000;1.491989
9546.000000;1.492024
9545.000000;1.490910
9544.000000;1.488797
9543.000000;1.486225
9542.000000;1.483794
9541.000000;1.482024
9540.000000;1.481204
9539.000000;1.481255
9538.000000;1.481872
9537.000000;1.482926
9536.000000;1.484433
9535.000000;1.485944
9534.000000;1.486472
9533.000000;1.485463
9532.000000;1.483446
9531.000000;1.481233
9530.000000;1.478915
9529.000000;1.476288
9528.000000;1.473900
9527.000000;1.472708
9526.000000;1.472694
9525.000000;1.472717
9524.000000;1.472057
9523.000000;1.471409
9522.000000;1.471870
9521.000000;1.473375
9520.000000;1.474597
9519.000000;1.474187
9518.000000;1.471875
9517.000000;1.468602
9516.000000;1.465878
9515.000000;1.464776
9514.000000;1.465143
9513.000000;1.465826
9512.000000;1.465891
9511.000000;1.465493
9510.000000;1.465379
9509.000000;1.465815
9508.000000;1.466320
9507.000000;1.466291
9506.000000;1.465655
9505.000000;1.464928
9504.000000;1.464767
9503.000000;1.465321
9502.000000;1.465889
9501.000000;1.465491
9500.000000;1.463999
9499.000000;1.462334
9498.000000;1.461216
9497.000000;1.460143
9496.000000;1.458152
9495.000000;1.455404
9494.000000;1.453338
9493.000000;1.453158
9492.000000;1.454640
9491.000000;1.456385
9490.000000;1.456859
9489.000000;1.455232
9488.000000;1.451941
9487.000000;1.448907
9486.000000;1.448514
9485.000000;1.451485
9484.000000;1.455734
9483.000000;1.457811
9482.000000;1.455958
9481.000000;1.451640
9480.000000;1.447972
9479.000000;1.447037
9478.000000;1.448600
9477.000000;1.450716
9476.000000;1.451429
9475.000000;1.450286
9474.000000;1.448416
9473.000000;1.447157
9472.000000;1.446750
9471.000000;1.446465
9470.000000;1.445737
9469.000000;1.444700
9468.000000;1.443562
9467.000000;1.442072
9466.000000;1.440025
9465.000000;1.437946
9464.000000;1.436749
9463.000000;1.436788
9462.000000;1.437591
9461.000000;1.438459
9460.000000;1.439073
9459.000000;1.439505
9458.000000;1.439870
9457.000000;1.440080
9456.000000;1.439872
9455.000000;1.439012
9454.000000;1.437551
9453.000000;1.435903
9452.000000;1.434605
9451.000000;1.433985
9450.000000;1.434072
9449.000000;1.434696
9448.000000;1.435557
9447.000000;1.436303
9446.000000;1.436711
9445.000000;1.436699
9444.000000;1.436070
9443.000000;1.434534
9442.000000;1.432226
9441.000000;1.429995
9440.000000;1.428791
9439.000000;1.428738
9438.000000;1.428999
9437.000000;1.428588
9436.000000;1.427148
9435.000000;1.425067
9434.000000;1.423175
9433.000000;1.422385
9432.000000;1.423205
9431.000000;1.425253
9430.000000;1.427338
9429.000000;1.428171
9428.000000;1.427061
9427.000000;1.424250
9426.000000;1.420942
9425.000000;1.418763
9424.000000;1.418622
9423.000000;1.419834
9422.000000;1.420577
9421.000000;1.419586
9420.000000;1.417266
9419.000000;1.414922
9418.000000;1.413302
9417.000000;1.412370
9416.000000;1.412036
9415.000000;1.412344
9414.000000;1.412913
9413.000000;1.412894
9412.000000;1.411919
9411.000000;1.410737
9410.000000;1.410479
9409.000000;1.411361
9408.000000;1.412399
9407.000000;1.412436
9406.000000;1.411231
9405.000000;1.409501
9404.000000;1.408193
9403.000000;1.407841
9402.000000;1.408237
9401.000000;1.408408
9400.000000;1.407173
9399.000000;1.404272
9398.000000;1.400977
9397.000000;1.399110
9396.000000;1.399180
9395.000000;1.399868
9394.000000;1.399632
9393.000000;1.398467
9392.000000;1.397589
9391.000000;1.397783
9390.000000;1.398809
9389.000000;1.400281
9388.000000;1.402246
9387.000000;1.404563
9386.000000;1.406423
9385.000000;1.406995
9384.000000;1.406234
9383.000000;1.404753
9382.000000;1.403306
9381.000000;1.402579
9380.000000;1.402870
9379.000000;1.403483
9378.000000;1.402972
9377.000000;1.400645
9376.000000;1.397511
9375.000000;1.395178
9374.000000;1.394097
9373.000000;1.393469
9372.000000;1.392622
9371.000000;1.391753
9370.000000;1.391236
9369.000000;1.390925
9368.000000;1.390486
9367.000000;1.389993
9366.000000;1.389839
9365.000000;1.390189
9364.000000;1.390760
9363.000000;1.391080
9362.000000;1.390924
9361.000000;1.390562
9360.000000;1.390500
9359.000000;1.390860
9358.000000;1.391202
9357.000000;1.391052
9356.000000;1.390306
9355.000000;1.388939
9354.000000;1.386791
9353.000000;1.384112
9352.000000;1.381939
9351.000000;1.381275
9350.000000;1.381970
9349.000000;1.382921
9348.000000;1.383300
9347.000000;1.383091
9346.000000;1.382591
9345.000000;1.382106
9344.000000;1.382152
9343.000000;1.383079
9342.000000;1.384253
9341.000000;1.384358
9340.000000;1.383023
9339.000000;1.381485
9338.000000;1.381099
9337.000000;1.381701
9336.000000;1.381971
9335.000000;1.381019
9334.000000;1.379048
9333.000000;1.376744
9332.000000;1.374654
9331.000000;1.373092
9330.000000;1.372072
9329.000000;1.371279
9328.000000;1.370539
9327.000000;1.370311
9326.000000;1.371305
9325.000000;1.373449
9324.000000;1.375513
9323.000000;1.376052
9322.000000;1.374650
9321.000000;1.372078
9320.000000;1.369337
9319.000000;1.366853
9318.000000;1.364753
9317.000000;1.363597
9316.000000;1.364182
9315.000000;1.366251
9314.000000;1.367855
9313.000000;1.366909
9312.000000;1.363612
9311.000000;1.360573
9310.000000;1.360192
9309.000000;1.362433
9308.000000;1.365355
9307.000000;1.367252
9306.000000;1.367748
9305.000000;1.367303
9304.000000;1.366538
9303.000000;1.365957
9302.000000;1.365574
9301.000000;1.364763
9300.000000;1.363009
9299.000000;1.360787
9298.000000;1.359157
9297.000000;1.358524
9296.000000;1.358390
9295.000000;1.358299
9294.000000;1.358285
9293.000000;1.358249
9292.000000;1.357705
9291.000000;1.356556
9290.000000;1.355496
9289.000000;1.355138
9288.000000;1.355281
9287.000000;1.355502
9286.000000;1.355931
9285.000000;1.356773
9284.000000;1.357486
9283.000000;1.357308
9282.000000;1.356474
9281.000000;1.356084
9280.000000;1.356711
9279.000000;1.357751
9278.000000;1.358269
9277.000000;1.357944
9276.000000;1.356967
9275.000000;1.355620
9274.000000;1.354334
9273.000000;1.353622
9272.000000;1.353476
9271.000000;1.353184
9270.000000;1.352163
9269.000000;1.350656
9268.000000;1.349267
9267.000000;1.348188
9266.000000;1.347327
9265.000000;1.346854
9264.000000;1.347047
9263.000000;1.347703
9262.000000;1.348264
9261.000000;1.348518
9260.000000;1.348648
9259.000000;1.348566
9258.000000;1.347732
9257.000000;1.345908
9256.000000;1.343674
9255.000000;1.341888
9254.000000;1.340881
9253.000000;1.340374
9252.000000;1.339937
9251.000000;1.339340
9250.000000;1.338697
9249.000000;1.338490
9248.000000;1.339193
9247.000000;1.340539
9246.000000;1.341372
9245.000000;1.340634
9244.000000;1.338551
9243.000000;1.336502
9242.000000;1.335649
9241.000000;1.335940
9240.000000;1.336516
9239.000000;1.336711
9238.000000;1.336415
9237.000000;1.335761
9236.000000;1.335007
9235.000000;1.334694
9234.000000;1.335420
9233.000000;1.337099
9232.000000;1.338597
9231.000000;1.338599
9230.000000;1.337087
9229.000000;1.335527
9228.000000;1.335282
9227.000000;1.336097
9226.000000;1.336494
9225.000000;1.335558
9224.000000;1.333834
9223.000000;1.332389
9222.000000;1.331551
9221.000000;1.330932
9220.000000;1.330342
9219.000000;1.330107
9218.000000;1.330459
9217.000000;1.330954
9216.000000;1.330730
9215.000000;1.329374
9214.000000;1.327474
9213.000000;1.326264
9212.000000;1.326638
9211.000000;1.328458
9210.000000;1.330765
9209.000000;1.332550
9208.000000;1.333202
9207.000000;1.332454
9206.000000;1.330373
9205.000000;1.327542
9204.000000;1.324874
9203.000000;1.322978
9202.000000;1.321899
9201.000000;1.321586
9200.000000;1.322225
9199.000000;1.323770
9198.000000;1.325405
9197.000000;1.325968
9196.000000;1.325034
9195.000000;1.323279
9194.000000;1.321715
9193.000000;1.320824
9192.000000;1.320426
9191.000000;1.320031
9190.000000;1.319231
9189.000000;1.318035
9188.000000;1.316924
9187.000000;1.316459
9186.000000;1.316753
9185.000000;1.317388
9184.000000;1.317865
9183.000000;1.318006
9182.000000;1.317913
9181.000000;1.317714
9180.000000;1.317447
9179.000000;1.317035
9178.000000;1.316301
9177.000000;1.315113
9176.000000;1.313573
9175.000000;1.312031
9174.000000;1.310902
9173.000000;1.310459
9172.000000;1.310707
9171.000000;1.311324
9170.000000;1.311814
9169.000000;1.311932
9168.000000;1.312016
9167.000000;1.312664
9166.000000;1.313926
9165.000000;1.314941
9164.000000;1.314613
9163.000000;1.312772
9162.000000;1.310471
9161.000000;1.309025
9160.000000;1.308852
9159.000000;1.309354
9158.000000;1.309842
9157.000000;1.310310
9156.000000;1.311102
9155.000000;1.312097
9154.000000;1.312610
9153.000000;1.312085
9152.000000;1.310614
9151.000000;1.308814
9150.000000;1.307459
9149.000000;1.307108
9148.000000;1.307583
9147.000000;1.307770
9146.000000;1.306564
9145.000000;1.304315
9144.000000;1.302797
9143.000000;1.303286
9142.000000;1.305018
9141.000000;1.306041
9140.000000;1.305419
9139.000000;1.303995
9138.000000;1.303079
9137.000000;1.303127
9136.000000;1.303705
9135.000000;1.304156
9134.000000;1.304091
9133.000000;1.303554
9132.000000;1.302895
9131.000000;1.302334
9130.000000;1.301718
9129.000000;1.300889
9128.000000;1.300130
9127.000000;1.299846
9126.000000;1.299866
9125.000000;1.299541
9124.000000;1.298644
9123.000000;1.297761
9122.000000;1.297583
9121.000000;1.298239
9120.000000;1.299378
9119.000000;1.300456
9118.000000;1.300831
9117.000000;1.300048
9116.000000;1.298336
9115.000000;1.296577
9114.000000;1.295509
9113.000000;1.295177
9112.000000;1.295293
9111.000000;1.295773
9110.000000;1.296611
9109.000000;1.297547
9108.000000;1.298257
9107.000000;1.298707
9106.000000;1.298977
9105.000000;1.298850
9104.000000;1.297962
9103.000000;1.296377
9102.000000;1.294712
9101.000000;1.293641
9100.000000;1.293435
9099.000000;1.293898
9098.000000;1.294510
9097.000000;1.294728
9096.000000;1.294451
9095.000000;1.294228
9094.000000;1.294706
9093.000000;1.295772
9092.000000;1.296419
9091.000000;1.295636
9090.000000;1.293388
9089.000000;1.290655
9088.000000;1.288614
9087.000000;1.287832
9086.000000;1.288034
9085.000000;1.288392
9084.000000;1.288069
9083.000000;1.286757
9082.000000;1.284930
9081.000000;1.283528
9080.000000;1.283219
9079.000000;1.283868
9078.000000;1.284769
9077.000000;1.285387
9076.000000;1.285711
9075.000000;1.285842
9074.000000;1.285586
9073.000000;1.284836
9072.000000;1.284147
9071.000000;1.284434
9070.000000;1.285920
9069.000000;1.287656
9068.000000;1.288313
9067.000000;1.287349
9066.000000;1.285347
9065.000000;1.283430
9064.000000;1.282463
9063.000000;1.282545
9062.000000;1.282971
9061.000000;1.282804
9060.000000;1.281816
9059.000000;1.280828
9058.000000;1.280898
9057.000000;1.282132
9056.000000;1.283422
9055.000000;1.283480
9054.000000;1.282141
9053.000000;1.280561
