Criado como novo conjunto de dados;"1909daniel.spp","-4218281.4 Secs"
cm-1;Abs
10000.000000;1.348340
9999.000000;1.347526
9998.000000;1.346253
9997.000000;1.344560
9996.000000;1.342487
9995.000000;1.340288
9994.000000;1.338528
9993.000000;1.337556
9992.000000;1.337330
9991.000000;1.337497
9990.000000;1.337728
9989.000000;1.337954
9988.000000;1.338378
9987.000000;1.339083
9986.000000;1.339632
9985.000000;1.339352
9984.000000;1.338191
9983.000000;1.336970
9982.000000;1.336478
9981.000000;1.336474
9980.000000;1.335889
9979.000000;1.334045
9978.000000;1.331561
9977.000000;1.329936
9976.000000;1.330142
9975.000000;1.331609
9974.000000;1.332742
9973.000000;1.332586
9972.000000;1.331720
9971.000000;1.331234
9970.000000;1.331203
9969.000000;1.330733
9968.000000;1.329289
9967.000000;1.327273
9966.000000;1.325264
9965.000000;1.323453
9964.000000;1.322000
9963.000000;1.321265
9962.000000;1.321316
9961.000000;1.321687
9960.000000;1.322008
9959.000000;1.322417
9958.000000;1.323000
9957.000000;1.323281
9956.000000;1.322813
9955.000000;1.321938
9954.000000;1.321435
9953.000000;1.321587
9952.000000;1.322004
9951.000000;1.322157
9950.000000;1.321702
9949.000000;1.320517
9948.000000;1.318819
9947.000000;1.317113
9946.000000;1.315716
9945.000000;1.314477
9944.000000;1.313211
9943.000000;1.312142
9942.000000;1.311526
9941.000000;1.311056
9940.000000;1.310120
9939.000000;1.308581
9938.000000;1.306926
9937.000000;1.305698
9936.000000;1.305159
9935.000000;1.305301
9934.000000;1.305832
9933.000000;1.306329
9932.000000;1.306690
9931.000000;1.307246
9930.000000;1.308066
9929.000000;1.308403
9928.000000;1.307361
9927.000000;1.305015
9926.000000;1.302430
9925.000000;1.300664
9924.000000;1.300047
9923.000000;1.300184
9922.000000;1.300205
9921.000000;1.299229
9920.000000;1.297142
9919.000000;1.294889
9918.000000;1.293635
9917.000000;1.293734
9916.000000;1.294684
9915.000000;1.295696
9914.000000;1.295895
9913.000000;1.294566
9912.000000;1.292040
9911.000000;1.289997
9910.000000;1.289869
9909.000000;1.291012
9908.000000;1.291404
9907.000000;1.290172
9906.000000;1.288355
9905.000000;1.287031
9904.000000;1.286062
9903.000000;1.285129
9902.000000;1.284791
9901.000000;1.285557
9900.000000;1.286716
9899.000000;1.287033
9898.000000;1.286196
9897.000000;1.284784
9896.000000;1.283243
9895.000000;1.281699
9894.000000;1.280392
9893.000000;1.279484
9892.000000;1.278679
9891.000000;1.277704
9890.000000;1.276912
9889.000000;1.276716
9888.000000;1.276690
9887.000000;1.276040
9886.000000;1.274833
9885.000000;1.273908
9884.000000;1.273611
9883.000000;1.273417
9882.000000;1.272905
9881.000000;1.272363
9880.000000;1.272170
9879.000000;1.272216
9878.000000;1.272201
9877.000000;1.272027
9876.000000;1.271627
9875.000000;1.270779
9874.000000;1.269344
9873.000000;1.267421
9872.000000;1.265201
9871.000000;1.263053
9870.000000;1.261723
9869.000000;1.261841
9868.000000;1.263023
9867.000000;1.263959
9866.000000;1.263734
9865.000000;1.262706
9864.000000;1.261812
9863.000000;1.261486
9862.000000;1.261597
9861.000000;1.261962
9860.000000;1.262370
9859.000000;1.262384
9858.000000;1.261636
9857.000000;1.260245
9856.000000;1.258594
9855.000000;1.256866
9854.000000;1.255151
9853.000000;1.253774
9852.000000;1.252993
9851.000000;1.252472
9850.000000;1.251653
9849.000000;1.250673
9848.000000;1.250340
9847.000000;1.251011
9846.000000;1.251947
9845.000000;1.252098
9844.000000;1.251248
9843.000000;1.249978
9842.000000;1.248690
9841.000000;1.247224
9840.000000;1.245522
9839.000000;1.244168
9838.000000;1.243831
9837.000000;1.244336
9836.000000;1.244693
9835.000000;1.244192
9834.000000;1.243173
9833.000000;1.242520
9832.000000;1.242579
9831.000000;1.242816
9830.000000;1.242462
9829.000000;1.241272
9828.000000;1.239660
9827.000000;1.238351
9826.000000;1.237894
9825.000000;1.238296
9824.000000;1.239055
9823.000000;1.239641
9822.000000;1.239897
9821.000000;1.239810
9820.000000;1.239075
9819.000000;1.237349
9818.000000;1.234943
9817.000000;1.232796
9816.000000;1.231529
9815.000000;1.230902
9814.000000;1.230405
9813.000000;1.229972
9812.000000;1.229749
9811.000000;1.229478
9810.000000;1.228700
9809.000000;1.227487
9808.000000;1.226472
9807.000000;1.226032
9806.000000;1.225814
9805.000000;1.225216
9804.000000;1.224042
9803.000000;1.222538
9802.000000;1.221021
9801.000000;1.219713
9800.000000;1.218783
9799.000000;1.218290
9798.000000;1.218077
9797.000000;1.217876
9796.000000;1.217553
9795.000000;1.217173
9794.000000;1.216823
9793.000000;1.216462
9792.000000;1.216026
9791.000000;1.215610
9790.000000;1.215356
9789.000000;1.215139
9788.000000;1.214573
9787.000000;1.213539
9786.000000;1.212536
9785.000000;1.212149
9784.000000;1.212242
9783.000000;1.212078
9782.000000;1.211324
9781.000000;1.210444
9780.000000;1.209904
9779.000000;1.209487
9778.000000;1.208821
9777.000000;1.208100
9776.000000;1.207682
9775.000000;1.207278
9774.000000;1.206267
9773.000000;1.204774
9772.000000;1.203695
9771.000000;1.203525
9770.000000;1.203778
9769.000000;1.203698
9768.000000;1.203015
9767.000000;1.201740
9766.000000;1.199844
9765.000000;1.197595
9764.000000;1.195756
9763.000000;1.194874
9762.000000;1.194589
9761.000000;1.194134
9760.000000;1.193393
9759.000000;1.192942
9758.000000;1.193128
9757.000000;1.193533
9756.000000;1.193450
9755.000000;1.192619
9754.000000;1.191439
9753.000000;1.190614
9752.000000;1.190600
9751.000000;1.191147
9750.000000;1.191355
9749.000000;1.190422
9748.000000;1.188444
9747.000000;1.186289
9746.000000;1.184707
9745.000000;1.183795
9744.000000;1.183273
9743.000000;1.183000
9742.000000;1.183030
9741.000000;1.183294
9740.000000;1.183485
9739.000000;1.183322
9738.000000;1.182866
9737.000000;1.182457
9736.000000;1.182318
9735.000000;1.182282
9734.000000;1.182018
9733.000000;1.181453
9732.000000;1.180795
9731.000000;1.180144
9730.000000;1.179381
9729.000000;1.178543
9728.000000;1.177999
9727.000000;1.177917
9726.000000;1.177793
9725.000000;1.176930
9724.000000;1.175360
9723.000000;1.173865
9722.000000;1.173020
9721.000000;1.172608
9720.000000;1.172097
9719.000000;1.171354
9718.000000;1.170651
9717.000000;1.170178
9716.000000;1.169890
9715.000000;1.169724
9714.000000;1.169649
9713.000000;1.169451
9712.000000;1.168763
9711.000000;1.167494
9710.000000;1.166116
9709.000000;1.165296
9708.000000;1.165180
9707.000000;1.165201
9706.000000;1.164700
9705.000000;1.163679
9704.000000;1.162763
9703.000000;1.162424
9702.000000;1.162414
9701.000000;1.162119
9700.000000;1.161371
9699.000000;1.160655
9698.000000;1.160499
9697.000000;1.160862
9696.000000;1.161230
9695.000000;1.161122
9694.000000;1.160315
9693.000000;1.158709
9692.000000;1.156368
9691.000000;1.153798
9690.000000;1.151879
9689.000000;1.151185
9688.000000;1.151435
9687.000000;1.151831
9686.000000;1.151877
9685.000000;1.151625
9684.000000;1.151156
9683.000000;1.150267
9682.000000;1.148881
9681.000000;1.147379
9680.000000;1.146176
9679.000000;1.145220
9678.000000;1.144283
9677.000000;1.143536
9676.000000;1.143295
9675.000000;1.143289
9674.000000;1.142786
9673.000000;1.141645
9672.000000;1.140624
9671.000000;1.140321
9670.000000;1.140288
9669.000000;1.139694
9668.000000;1.138514
9667.000000;1.137467
9666.000000;1.136908
9665.000000;1.136440
9664.000000;1.135735
9663.000000;1.135211
9662.000000;1.135542
9661.000000;1.136719
9660.000000;1.137875
9659.000000;1.138086
9658.000000;1.137198
9657.000000;1.135875
9656.000000;1.134928
9655.000000;1.134590
9654.000000;1.134410
9653.000000;1.133806
9652.000000;1.132641
9651.000000;1.131213
9650.000000;1.129840
9649.000000;1.128658
9648.000000;1.127770
9647.000000;1.127341
9646.000000;1.127508
9645.000000;1.128231
9644.000000;1.129173
9643.000000;1.129661
9642.000000;1.128961
9641.000000;1.126937
9640.000000;1.124444
9639.000000;1.122736
9638.000000;1.122321
9637.000000;1.122583
9636.000000;1.122613
9635.000000;1.122232
9634.000000;1.122002
9633.000000;1.122339
9632.000000;1.122843
9631.000000;1.122580
9630.000000;1.120972
9629.000000;1.118429
9628.000000;1.116108
9627.000000;1.114951
9626.000000;1.114845
9625.000000;1.114745
9624.000000;1.113718
9623.000000;1.111856
9622.000000;1.110080
9621.000000;1.109197
9620.000000;1.109297
9619.000000;1.109920
9618.000000;1.110491
9617.000000;1.110543
9616.000000;1.109873
9615.000000;1.108750
9614.000000;1.107816
9613.000000;1.107483
9612.000000;1.107434
9611.000000;1.106958
9610.000000;1.105804
9609.000000;1.104522
9608.000000;1.103838
9607.000000;1.103847
9606.000000;1.103950
9605.000000;1.103519
9604.000000;1.102462
9603.000000;1.101174
9602.000000;1.100074
9601.000000;1.099249
9600.000000;1.098525
9599.000000;1.097818
9598.000000;1.097330
9597.000000;1.097273
9596.000000;1.097437
9595.000000;1.097247
9594.000000;1.096332
9593.000000;1.094934
9592.000000;1.093671
9591.000000;1.092987
9590.000000;1.092908
9589.000000;1.093149
9588.000000;1.093316
9587.000000;1.093103
9586.000000;1.092502
9585.000000;1.091761
9584.000000;1.091036
9583.000000;1.090241
9582.000000;1.089343
9581.000000;1.088524
9580.000000;1.087849
9579.000000;1.087005
9578.000000;1.085754
9577.000000;1.084468
9576.000000;1.083779
9575.000000;1.083734
9574.000000;1.083747
9573.000000;1.083455
9572.000000;1.083164
9571.000000;1.083285
9570.000000;1.083732
9569.000000;1.084114
9568.000000;1.084191
9567.000000;1.083826
9566.000000;1.082778
9565.000000;1.080957
9564.000000;1.078828
9563.000000;1.077245
9562.000000;1.076774
9561.000000;1.077216
9560.000000;1.077782
9559.000000;1.077753
9558.000000;1.077087
9557.000000;1.076379
9556.000000;1.076166
9555.000000;1.076359
9554.000000;1.076507
9553.000000;1.076413
9552.000000;1.076155
9551.000000;1.075603
9550.000000;1.074472
9549.000000;1.072934
9548.000000;1.071664
9547.000000;1.071039
9546.000000;1.070687
9545.000000;1.070071
9544.000000;1.069134
9543.000000;1.068074
9542.000000;1.066959
9541.000000;1.065952
9540.000000;1.065558
9539.000000;1.066099
9538.000000;1.067091
9537.000000;1.067580
9536.000000;1.067055
9535.000000;1.065727
9534.000000;1.064077
9533.000000;1.062534
9532.000000;1.061471
9531.000000;1.061021
9530.000000;1.060855
9529.000000;1.060474
9528.000000;1.059779
9527.000000;1.059111
9526.000000;1.058781
9525.000000;1.058813
9524.000000;1.059056
9523.000000;1.059255
9522.000000;1.059033
9521.000000;1.058100
9520.000000;1.056566
9519.000000;1.054896
9518.000000;1.053579
9517.000000;1.052935
9516.000000;1.053036
9515.000000;1.053594
9514.000000;1.054046
9513.000000;1.053993
9512.000000;1.053463
9511.000000;1.052630
9510.000000;1.051541
9509.000000;1.050363
9508.000000;1.049524
9507.000000;1.049210
9506.000000;1.048953
9505.000000;1.048203
9504.000000;1.047113
9503.000000;1.046275
9502.000000;1.045799
9501.000000;1.045237
9500.000000;1.044379
9499.000000;1.043562
9498.000000;1.043091
9497.000000;1.042874
9496.000000;1.042784
9495.000000;1.042925
9494.000000;1.043331
9493.000000;1.043728
9492.000000;1.043784
9491.000000;1.043400
9490.000000;1.042636
9489.000000;1.041590
9488.000000;1.040437
9487.000000;1.039352
9486.000000;1.038335
9485.000000;1.037302
9484.000000;1.036317
9483.000000;1.035485
9482.000000;1.034710
9481.000000;1.033881
9480.000000;1.033263
9479.000000;1.033284
9478.000000;1.033884
9477.000000;1.034420
9476.000000;1.034300
9475.000000;1.033421
9474.000000;1.032026
9473.000000;1.030525
9472.000000;1.029417
9471.000000;1.028918
9470.000000;1.028635
9469.000000;1.028038
9468.000000;1.027253
9467.000000;1.026875
9466.000000;1.026967
9465.000000;1.026902
9464.000000;1.026386
9463.000000;1.025962
9462.000000;1.026117
9461.000000;1.026507
9460.000000;1.026513
9459.000000;1.026095
9458.000000;1.025618
9457.000000;1.025233
9456.000000;1.024929
9455.000000;1.024804
9454.000000;1.024764
9453.000000;1.024281
9452.000000;1.023025
9451.000000;1.021534
9450.000000;1.020676
9449.000000;1.020567
9448.000000;1.020557
9447.000000;1.020162
9446.000000;1.019469
9445.000000;1.018627
9444.000000;1.017531
9443.000000;1.016201
9442.000000;1.015026
9441.000000;1.014417
9440.000000;1.014431
9439.000000;1.014799
9438.000000;1.015146
9437.000000;1.015191
9436.000000;1.014965
9435.000000;1.014823
9434.000000;1.014989
9433.000000;1.015115
9432.000000;1.014566
9431.000000;1.013195
9430.000000;1.011553
9429.000000;1.010276
9428.000000;1.009561
9427.000000;1.009317
9426.000000;1.009519
9425.000000;1.010153
9424.000000;1.010927
9423.000000;1.011286
9422.000000;1.010831
9421.000000;1.009719
9420.000000;1.008543
9419.000000;1.007716
9418.000000;1.007023
9417.000000;1.005984
9416.000000;1.004655
9415.000000;1.003712
9414.000000;1.003525
9413.000000;1.003519
9412.000000;1.002851
9411.000000;1.001495
9410.000000;1.000184
9409.000000;0.999393
9408.000000;0.998954
9407.000000;0.998666
9406.000000;0.998659
9405.000000;0.998953
9404.000000;0.999166
9403.000000;0.999063
9402.000000;0.998976
9401.000000;0.999255
9400.000000;0.999555
9399.000000;0.999145
9398.000000;0.997880
9397.000000;0.996414
9396.000000;0.995359
9395.000000;0.994628
9394.000000;0.993777
9393.000000;0.992690
9392.000000;0.991685
9391.000000;0.991096
9390.000000;0.991017
9389.000000;0.991420
9388.000000;0.992258
9387.000000;0.993325
9386.000000;0.994148
9385.000000;0.994248
9384.000000;0.993515
9383.000000;0.992248
9382.000000;0.990863
9381.000000;0.989642
9380.000000;0.988715
9379.000000;0.988074
9378.000000;0.987569
9377.000000;0.987024
9376.000000;0.986465
9375.000000;0.986086
9374.000000;0.985921
9373.000000;0.985722
9372.000000;0.985339
9371.000000;0.985036
9370.000000;0.985146
9369.000000;0.985496
9368.000000;0.985487
9367.000000;0.984770
9366.000000;0.983582
9365.000000;0.982352
9364.000000;0.981263
9363.000000;0.980340
9362.000000;0.979670
9361.000000;0.979276
9360.000000;0.978954
9359.000000;0.978529
9358.000000;0.978177
9357.000000;0.978147
9356.000000;0.978203
9355.000000;0.977717
9354.000000;0.976449
9353.000000;0.974930
9352.000000;0.973812
9351.000000;0.973050
9350.000000;0.972104
9349.000000;0.970914
9348.000000;0.970243
9347.000000;0.970799
9346.000000;0.972251
9345.000000;0.973390
9344.000000;0.973304
9343.000000;0.972192
9342.000000;0.970959
9341.000000;0.970234
9340.000000;0.969969
9339.000000;0.969805
9338.000000;0.969630
9337.000000;0.969724
9336.000000;0.970376
9335.000000;0.971354
9334.000000;0.971813
9333.000000;0.970932
9332.000000;0.968799
9331.000000;0.966528
9330.000000;0.965316
9329.000000;0.965413
9328.000000;0.966125
9327.000000;0.966670
9326.000000;0.966772
9325.000000;0.966447
9324.000000;0.965652
9323.000000;0.964441
9322.000000;0.963272
9321.000000;0.962711
9320.000000;0.962755
9319.000000;0.962686
9318.000000;0.961814
9317.000000;0.960283
9316.000000;0.958991
9315.000000;0.958692
9314.000000;0.959269
9313.000000;0.959904
9312.000000;0.959895
9311.000000;0.959249
9310.000000;0.958469
9309.000000;0.957887
9308.000000;0.957331
9307.000000;0.956470
9306.000000;0.955326
9305.000000;0.954344
9304.000000;0.953964
9303.000000;0.954213
9302.000000;0.954684
9301.000000;0.954836
9300.000000;0.954348
9299.000000;0.953358
9298.000000;0.952407
9297.000000;0.952047
9296.000000;0.952377
9295.000000;0.952962
9294.000000;0.953246
9293.000000;0.953027
9292.000000;0.952466
9291.000000;0.951731
9290.000000;0.950792
9289.000000;0.949587
9288.000000;0.948277
9287.000000;0.947241
9286.000000;0.946813
9285.000000;0.947032
9284.000000;0.947609
9283.000000;0.948145
9282.000000;0.948416
9281.000000;0.948456
9280.000000;0.948371
9279.000000;0.948130
9278.000000;0.947609
9277.000000;0.946773
9276.000000;0.945732
9275.000000;0.944672
9274.000000;0.943812
9273.000000;0.943334
9272.000000;0.943152
9271.000000;0.942855
9270.000000;0.942128
9269.000000;0.941245
9268.000000;0.940837
9267.000000;0.941097
9266.000000;0.941505
9265.000000;0.941542
9264.000000;0.941413
9263.000000;0.941749
9262.000000;0.942710
9261.000000;0.943752
9260.000000;0.944284
9259.000000;0.944219
9258.000000;0.943786
9257.000000;0.943039
9256.000000;0.941806
9255.000000;0.940062
9254.000000;0.938177
9253.000000;0.936710
9252.000000;0.936022
9251.000000;0.936099
9250.000000;0.936687
9249.000000;0.937486
9248.000000;0.938137
9247.000000;0.938157
9246.000000;0.937194
9245.000000;0.935480
9244.000000;0.933859
9243.000000;0.933146
9242.000000;0.933434
9241.000000;0.934073
9240.000000;0.934299
9239.000000;0.933844
9238.000000;0.933007
9237.000000;0.932298
9236.000000;0.931994
9235.000000;0.931986
9234.000000;0.932050
9233.000000;0.932204
9232.000000;0.932606
9231.000000;0.933089
9230.000000;0.933122
9229.000000;0.932444
9228.000000;0.931466
9227.000000;0.930685
9226.000000;0.929926
9225.000000;0.928621
9224.000000;0.926760
9223.000000;0.925104
9222.000000;0.924373
9221.000000;0.924594
9220.000000;0.925340
9219.000000;0.926202
9218.000000;0.926853
9217.000000;0.926959
9216.000000;0.926366
9215.000000;0.925301
9214.000000;0.924226
9213.000000;0.923531
9212.000000;0.923406
9211.000000;0.923781
9210.000000;0.924281
9209.000000;0.924426
9208.000000;0.924057
9207.000000;0.923466
9206.000000;0.923006
9205.000000;0.922747
9204.000000;0.922562
9203.000000;0.922334
9202.000000;0.921975
9201.000000;0.921475
9200.000000;0.921079
9199.000000;0.921168
9198.000000;0.921737
9197.000000;0.922187
9196.000000;0.921927
9195.000000;0.921062
9194.000000;0.920195
9193.000000;0.919640
9192.000000;0.919115
9191.000000;0.918212
9190.000000;0.916954
9189.000000;0.915813
9188.000000;0.915343
9187.000000;0.915790
9186.000000;0.916889
9185.000000;0.918017
9184.000000;0.918616
9183.000000;0.918521
9182.000000;0.917881
9181.000000;0.916940
9180.000000;0.915977
9179.000000;0.915289
9178.000000;0.914983
9177.000000;0.914831
9176.000000;0.914533
9175.000000;0.914065
9174.000000;0.913624
9173.000000;0.913305
9172.000000;0.913079
9171.000000;0.912967
9170.000000;0.912948
9169.000000;0.912745
9168.000000;0.912084
9167.000000;0.911213
9166.000000;0.910789
9165.000000;0.911049
9164.000000;0.911374
9163.000000;0.910957
9162.000000;0.909746
9161.000000;0.908450
9160.000000;0.907747
9159.000000;0.907698
9158.000000;0.907861
9157.000000;0.907742
9156.000000;0.907147
9155.000000;0.906331
9154.000000;0.905826
9153.000000;0.905959
9152.000000;0.906483
9151.000000;0.906783
9150.000000;0.906486
9149.000000;0.905751
9148.000000;0.904923
9147.000000;0.904141
9146.000000;0.903414
9145.000000;0.902915
9144.000000;0.902922
9143.000000;0.903434
9142.000000;0.904040
9141.000000;0.904268
9140.000000;0.904011
9139.000000;0.903520
9138.000000;0.903106
9137.000000;0.902920
9136.000000;0.902958
9135.000000;0.903110
9134.000000;0.903207
9133.000000;0.903138
9132.000000;0.902989
9131.000000;0.902997
9130.000000;0.903314
9129.000000;0.903805
9128.000000;0.904106
9127.000000;0.903893
9126.000000;0.903172
9125.000000;0.902321
9124.000000;0.901764
9123.000000;0.901506
9122.000000;0.901068
9121.000000;0.900053
9120.000000;0.898701
9119.000000;0.897658
9118.000000;0.897237
9117.000000;0.897136
9116.000000;0.896928
9115.000000;0.896544
9114.000000;0.896146
9113.000000;0.895805
9112.000000;0.895548
9111.000000;0.895502
9110.000000;0.895676
9109.000000;0.895758
9108.000000;0.895486
9107.000000;0.895135
9106.000000;0.895272
9105.000000;0.895955
9104.000000;0.896542
9103.000000;0.896416
9102.000000;0.895640
9101.000000;0.894751
9100.000000;0.894148
9099.000000;0.893886
9098.000000;0.893850
9097.000000;0.893864
9096.000000;0.893716
9095.000000;0.893299
9094.000000;0.892733
9093.000000;0.892217
9092.000000;0.891828
9091.000000;0.891527
9090.000000;0.891276
9089.000000;0.891020
9088.000000;0.890660
9087.000000;0.890188
9086.000000;0.889761
9085.000000;0.889502
9084.000000;0.889304
9083.000000;0.889019
9082.000000;0.888735
9081.000000;0.888646
9080.000000;0.888700
9079.000000;0.888622
9078.000000;0.888322
9077.000000;0.887997
9076.000000;0.887809
9075.000000;0.887672
9074.000000;0.887495
9073.000000;0.887416
9072.000000;0.887598
9071.000000;0.887947
9070.000000;0.888221
9069.000000;0.888356
9068.000000;0.888479
9067.000000;0.888635
9066.000000;0.888632
9065.000000;0.888182
9064.000000;0.887135
9063.000000;0.885634
9062.000000;0.884135
9061.000000;0.883234
9060.000000;0.883285
9059.000000;0.884134
9058.000000;0.885252
9057.000000;0.886137
9056.000000;0.886549
9055.000000;0.886447
9054.000000;0.885900
9053.000000;0.885080
