Criado como novo conjunto de dados;"1909daniel.spp","-4263823.6 Secs"
cm-1;Abs
10000.000000;1.868458
9999.000000;1.866319
9998.000000;1.864246
9997.000000;1.863834
9996.000000;1.864833
9995.000000;1.865450
9994.000000;1.864809
9993.000000;1.863415
9992.000000;1.862561
9991.000000;1.862861
9990.000000;1.863945
9989.000000;1.864735
9988.000000;1.864399
9987.000000;1.863336
9986.000000;1.862719
9985.000000;1.862637
9984.000000;1.861448
9983.000000;1.857797
9982.000000;1.852810
9981.000000;1.849153
9980.000000;1.848382
9979.000000;1.850123
9978.000000;1.853172
9977.000000;1.856179
9976.000000;1.857354
9975.000000;1.855150
9974.000000;1.850090
9973.000000;1.844624
9972.000000;1.840641
9971.000000;1.838300
9970.000000;1.837363
9969.000000;1.838330
9968.000000;1.841285
9967.000000;1.844346
9966.000000;1.844742
9965.000000;1.841645
9964.000000;1.837000
9963.000000;1.833385
9962.000000;1.831987
9961.000000;1.832703
9960.000000;1.834894
9959.000000;1.837420
9958.000000;1.838637
9957.000000;1.837370
9956.000000;1.834114
9955.000000;1.830758
9954.000000;1.829066
9953.000000;1.829463
9952.000000;1.830950
9951.000000;1.832155
9950.000000;1.832504
9949.000000;1.832374
9948.000000;1.832465
9947.000000;1.833276
9946.000000;1.834859
9945.000000;1.836274
9944.000000;1.835409
9943.000000;1.830724
9942.000000;1.823698
9941.000000;1.818265
9940.000000;1.817127
9939.000000;1.819436
9938.000000;1.822484
9937.000000;1.824701
9936.000000;1.825855
9935.000000;1.825337
9934.000000;1.822699
9933.000000;1.819715
9932.000000;1.819271
9931.000000;1.821517
9930.000000;1.822847
9929.000000;1.819872
9928.000000;1.813430
9927.000000;1.807384
9926.000000;1.804768
9925.000000;1.806344
9924.000000;1.811203
9923.000000;1.816979
9922.000000;1.820487
9921.000000;1.820079
9920.000000;1.817366
9919.000000;1.815407
9918.000000;1.815333
9917.000000;1.815714
9916.000000;1.815131
9915.000000;1.814117
9914.000000;1.814071
9913.000000;1.815248
9912.000000;1.816569
9911.000000;1.817029
9910.000000;1.816614
9909.000000;1.815757
9908.000000;1.814329
9907.000000;1.811693
9906.000000;1.807967
9905.000000;1.804821
9904.000000;1.804176
9903.000000;1.806017
9902.000000;1.808119
9901.000000;1.808242
9900.000000;1.806225
9899.000000;1.803540
9898.000000;1.801399
9897.000000;1.799973
9896.000000;1.799010
9895.000000;1.798274
9894.000000;1.797465
9893.000000;1.796358
9892.000000;1.795017
9891.000000;1.793508
9890.000000;1.791684
9889.000000;1.789714
9888.000000;1.788417
9887.000000;1.788468
9886.000000;1.789450
9885.000000;1.790156
9884.000000;1.789674
9883.000000;1.787714
9882.000000;1.784341
9881.000000;1.780252
9880.000000;1.777040
9879.000000;1.776111
9878.000000;1.777304
9877.000000;1.779306
9876.000000;1.781381
9875.000000;1.783793
9874.000000;1.786368
9873.000000;1.787767
9872.000000;1.786852
9871.000000;1.784124
9870.000000;1.781210
9869.000000;1.779316
9868.000000;1.778422
9867.000000;1.777687
9866.000000;1.776299
9865.000000;1.774169
9864.000000;1.772272
9863.000000;1.771982
9862.000000;1.773669
9861.000000;1.776049
9860.000000;1.777071
9859.000000;1.775477
9858.000000;1.771699
9857.000000;1.767610
9856.000000;1.765334
9855.000000;1.765680
9854.000000;1.767374
9853.000000;1.768165
9852.000000;1.766916
9851.000000;1.764210
9850.000000;1.761088
9849.000000;1.758088
9848.000000;1.755718
9847.000000;1.754887
9846.000000;1.756009
9845.000000;1.758040
9844.000000;1.759150
9843.000000;1.758432
9842.000000;1.756511
9841.000000;1.754437
9840.000000;1.752470
9839.000000;1.750134
9838.000000;1.747258
9837.000000;1.744746
9836.000000;1.744138
9835.000000;1.746195
9834.000000;1.749853
9833.000000;1.752870
9832.000000;1.753730
9831.000000;1.752783
9830.000000;1.751363
9829.000000;1.750214
9828.000000;1.749091
9827.000000;1.747546
9826.000000;1.745529
9825.000000;1.743338
9824.000000;1.741409
9823.000000;1.740253
9822.000000;1.740405
9821.000000;1.742175
9820.000000;1.745132
9819.000000;1.747712
9818.000000;1.747870
9817.000000;1.744904
9816.000000;1.740504
9815.000000;1.737304
9814.000000;1.736459
9813.000000;1.737097
9812.000000;1.737961
9811.000000;1.738793
9810.000000;1.739817
9809.000000;1.740719
9808.000000;1.740891
9807.000000;1.740201
9806.000000;1.738805
9805.000000;1.736717
9804.000000;1.734348
9803.000000;1.732895
9802.000000;1.733224
9801.000000;1.734569
9800.000000;1.735213
9799.000000;1.734554
9798.000000;1.733630
9797.000000;1.733230
9796.000000;1.732479
9795.000000;1.730125
9794.000000;1.726625
9793.000000;1.723855
9792.000000;1.723002
9791.000000;1.723557
9790.000000;1.724235
9789.000000;1.724325
9788.000000;1.723838
9787.000000;1.722776
9786.000000;1.721048
9785.000000;1.719220
9784.000000;1.718617
9783.000000;1.719980
9782.000000;1.722412
9781.000000;1.724150
9780.000000;1.724252
9779.000000;1.723051
9778.000000;1.721160
9777.000000;1.718848
9776.000000;1.716630
9775.000000;1.715740
9774.000000;1.717260
9773.000000;1.720735
9772.000000;1.723995
9771.000000;1.724547
9770.000000;1.721377
9769.000000;1.715694
9768.000000;1.710015
9767.000000;1.706333
9766.000000;1.704953
9765.000000;1.704969
9764.000000;1.705655
9763.000000;1.706975
9762.000000;1.708692
9761.000000;1.709663
9760.000000;1.708725
9759.000000;1.706106
9758.000000;1.703347
9757.000000;1.701761
9756.000000;1.701367
9755.000000;1.701235
9754.000000;1.700489
9753.000000;1.698959
9752.000000;1.697187
9751.000000;1.695874
9750.000000;1.695103
9749.000000;1.694140
9748.000000;1.692251
9747.000000;1.689623
9746.000000;1.687236
9745.000000;1.685971
9744.000000;1.686028
9743.000000;1.686954
9742.000000;1.687753
9741.000000;1.687127
9740.000000;1.684594
9739.000000;1.681515
9738.000000;1.680116
9737.000000;1.681131
9736.000000;1.682950
9735.000000;1.683477
9734.000000;1.682470
9733.000000;1.681360
9732.000000;1.681195
9731.000000;1.681766
9730.000000;1.682512
9729.000000;1.683232
9728.000000;1.683679
9727.000000;1.683276
9726.000000;1.681911
9725.000000;1.680482
9724.000000;1.679990
9723.000000;1.680392
9722.000000;1.680884
9721.000000;1.680956
9720.000000;1.680518
9719.000000;1.679257
9718.000000;1.676902
9717.000000;1.674321
9716.000000;1.673257
9715.000000;1.674266
9714.000000;1.675497
9713.000000;1.674312
9712.000000;1.670082
9711.000000;1.664856
9710.000000;1.661360
9709.000000;1.660808
9708.000000;1.662244
9707.000000;1.663438
9706.000000;1.662814
9705.000000;1.660972
9704.000000;1.660088
9703.000000;1.661465
9702.000000;1.663908
9701.000000;1.664993
9700.000000;1.663791
9699.000000;1.661591
9698.000000;1.660039
9697.000000;1.659576
9696.000000;1.659788
9695.000000;1.660230
9694.000000;1.660398
9693.000000;1.659665
9692.000000;1.657978
9691.000000;1.656288
9690.000000;1.655732
9689.000000;1.656570
9688.000000;1.658171
9687.000000;1.659568
9686.000000;1.659748
9685.000000;1.657986
9684.000000;1.654526
9683.000000;1.650746
9682.000000;1.648055
9681.000000;1.646616
9680.000000;1.645546
9679.000000;1.644152
9678.000000;1.642529
9677.000000;1.641185
9676.000000;1.640654
9675.000000;1.641348
9674.000000;1.643134
9673.000000;1.644977
9672.000000;1.645511
9671.000000;1.644192
9670.000000;1.641686
9669.000000;1.639189
9668.000000;1.637648
9667.000000;1.637452
9666.000000;1.638269
9665.000000;1.639082
9664.000000;1.638911
9663.000000;1.637716
9662.000000;1.636291
9661.000000;1.635211
9660.000000;1.634354
9659.000000;1.633560
9658.000000;1.633266
9657.000000;1.634122
9656.000000;1.636131
9655.000000;1.638395
9654.000000;1.639652
9653.000000;1.639166
9652.000000;1.637425
9651.000000;1.635960
9650.000000;1.635975
9649.000000;1.637019
9648.000000;1.637323
9647.000000;1.635554
9646.000000;1.631856
9645.000000;1.627256
9644.000000;1.622770
9643.000000;1.619375
9642.000000;1.618028
9641.000000;1.618940
9640.000000;1.621146
9639.000000;1.623353
9638.000000;1.625094
9637.000000;1.626617
9636.000000;1.627799
9635.000000;1.627921
9634.000000;1.626613
9633.000000;1.624448
9632.000000;1.622354
9631.000000;1.620835
9630.000000;1.620030
9629.000000;1.620083
9628.000000;1.620822
9627.000000;1.621196
9626.000000;1.619813
9625.000000;1.616530
9624.000000;1.613095
9623.000000;1.611622
9622.000000;1.612385
9621.000000;1.613557
9620.000000;1.613404
9619.000000;1.612039
9618.000000;1.610519
9617.000000;1.609097
9616.000000;1.607220
9615.000000;1.604990
9614.000000;1.603555
9613.000000;1.603617
9612.000000;1.604380
9611.000000;1.604482
9610.000000;1.603443
9609.000000;1.601706
9608.000000;1.599797
9607.000000;1.598217
9606.000000;1.597775
9605.000000;1.599012
9604.000000;1.601165
9603.000000;1.602408
9602.000000;1.601563
9601.000000;1.599317
9600.000000;1.597521
9599.000000;1.597523
9598.000000;1.599218
9597.000000;1.601268
9596.000000;1.602074
9595.000000;1.600825
9594.000000;1.597905
9593.000000;1.594425
9592.000000;1.591565
9591.000000;1.590360
9590.000000;1.591554
9589.000000;1.595010
9588.000000;1.599267
9587.000000;1.602238
9586.000000;1.602735
9585.000000;1.601084
9584.000000;1.598243
9583.000000;1.594910
9582.000000;1.591586
9581.000000;1.588748
9580.000000;1.586571
9579.000000;1.584845
9578.000000;1.583409
9577.000000;1.582624
9576.000000;1.583083
9575.000000;1.584729
9574.000000;1.586515
9573.000000;1.587143
9572.000000;1.586177
9571.000000;1.584448
9570.000000;1.583414
9569.000000;1.583968
9568.000000;1.585529
9567.000000;1.586276
9566.000000;1.584603
9565.000000;1.580527
9564.000000;1.575588
9563.000000;1.571477
9562.000000;1.568958
9561.000000;1.567959
9560.000000;1.568209
9559.000000;1.569446
9558.000000;1.571058
9557.000000;1.572041
9556.000000;1.571768
9555.000000;1.570661
9554.000000;1.569691
9553.000000;1.569189
9552.000000;1.568555
9551.000000;1.567225
9550.000000;1.565484
9549.000000;1.564061
9548.000000;1.563372
9547.000000;1.563478
9546.000000;1.564238
9545.000000;1.565016
9544.000000;1.564586
9543.000000;1.562113
9542.000000;1.558305
9541.000000;1.555011
9540.000000;1.553426
9539.000000;1.553160
9538.000000;1.553099
9537.000000;1.552541
9536.000000;1.551330
9535.000000;1.549672
9534.000000;1.548419
9533.000000;1.548927
9532.000000;1.551801
9531.000000;1.555869
9530.000000;1.558985
9529.000000;1.559912
9528.000000;1.559046
9527.000000;1.557479
9526.000000;1.555952
9525.000000;1.554528
9524.000000;1.552660
9523.000000;1.549796
9522.000000;1.546455
9521.000000;1.544415
9520.000000;1.544995
9519.000000;1.547160
9518.000000;1.548256
9517.000000;1.547028
9516.000000;1.545076
9515.000000;1.544767
9514.000000;1.546626
9513.000000;1.549416
9512.000000;1.551991
9511.000000;1.554089
9510.000000;1.555628
9509.000000;1.556241
9508.000000;1.555704
9507.000000;1.554325
9506.000000;1.552659
9505.000000;1.551035
9504.000000;1.549301
9503.000000;1.546781
9502.000000;1.542819
9501.000000;1.537989
9500.000000;1.534480
9499.000000;1.534392
9498.000000;1.537393
9497.000000;1.540591
9496.000000;1.541214
9495.000000;1.539171
9494.000000;1.536468
9493.000000;1.534629
9492.000000;1.533525
9491.000000;1.532479
9490.000000;1.531508
9489.000000;1.530996
9488.000000;1.530730
9487.000000;1.529998
9486.000000;1.528693
9485.000000;1.527682
9484.000000;1.527782
9483.000000;1.528693
9482.000000;1.529349
9481.000000;1.529229
9480.000000;1.528843
9479.000000;1.528804
9478.000000;1.528873
9477.000000;1.528237
9476.000000;1.526514
9475.000000;1.524210
9474.000000;1.522306
9473.000000;1.521517
9472.000000;1.521735
9471.000000;1.521985
9470.000000;1.521179
9469.000000;1.519324
9468.000000;1.517809
9467.000000;1.517985
9466.000000;1.519430
9465.000000;1.520165
9464.000000;1.518876
9463.000000;1.516418
9462.000000;1.514689
9461.000000;1.514503
9460.000000;1.515107
9459.000000;1.515486
9458.000000;1.515452
9457.000000;1.515299
9456.000000;1.514966
9455.000000;1.514018
9454.000000;1.512357
9453.000000;1.510533
9452.000000;1.509227
9451.000000;1.508608
9450.000000;1.508303
9449.000000;1.507842
9448.000000;1.506970
9447.000000;1.505659
9446.000000;1.504159
9445.000000;1.503136
9444.000000;1.503396
9443.000000;1.505014
9442.000000;1.506796
9441.000000;1.507122
9440.000000;1.505595
9439.000000;1.503550
9438.000000;1.502681
9437.000000;1.503475
9436.000000;1.505167
9435.000000;1.506785
9434.000000;1.507704
9433.000000;1.507344
9432.000000;1.505190
9431.000000;1.501618
9430.000000;1.498239
9429.000000;1.496748
9428.000000;1.497374
9427.000000;1.498709
9426.000000;1.499141
9425.000000;1.498300
9424.000000;1.497022
9423.000000;1.496189
9422.000000;1.495922
9421.000000;1.495693
9420.000000;1.494907
9419.000000;1.493407
9418.000000;1.491615
9417.000000;1.490258
9416.000000;1.489855
9415.000000;1.490318
9414.000000;1.491013
9413.000000;1.491291
9412.000000;1.490937
9411.000000;1.490046
9410.000000;1.488650
9409.000000;1.486873
9408.000000;1.485393
9407.000000;1.485210
9406.000000;1.486602
9405.000000;1.488485
9404.000000;1.489189
9403.000000;1.488006
9402.000000;1.485843
9401.000000;1.484240
9400.000000;1.483865
9399.000000;1.484021
9398.000000;1.483548
9397.000000;1.482101
9396.000000;1.480487
9395.000000;1.479677
9394.000000;1.479592
9393.000000;1.479206
9392.000000;1.477969
9391.000000;1.476664
9390.000000;1.476333
9389.000000;1.476671
9388.000000;1.476296
9387.000000;1.474765
9386.000000;1.473472
9385.000000;1.473956
9384.000000;1.475930
9383.000000;1.477663
9382.000000;1.477957
9381.000000;1.477049
9380.000000;1.475740
9379.000000;1.474589
9378.000000;1.474107
9377.000000;1.474748
9376.000000;1.476170
9375.000000;1.477078
9374.000000;1.476406
9373.000000;1.474430
9372.000000;1.472295
9371.000000;1.470788
9370.000000;1.469959
9369.000000;1.469488
9368.000000;1.468875
9367.000000;1.467549
9366.000000;1.465457
9365.000000;1.463493
9364.000000;1.462824
9363.000000;1.463756
9362.000000;1.465604
9361.000000;1.467425
9360.000000;1.468448
9359.000000;1.468096
9358.000000;1.466420
9357.000000;1.464559
9356.000000;1.463880
9355.000000;1.464316
9354.000000;1.464299
9353.000000;1.462836
9352.000000;1.461005
9351.000000;1.460632
9350.000000;1.461955
9349.000000;1.463388
9348.000000;1.463408
9347.000000;1.461901
9346.000000;1.459684
9345.000000;1.457579
9344.000000;1.456161
9343.000000;1.455678
9342.000000;1.455687
9341.000000;1.455176
9340.000000;1.453590
9339.000000;1.451607
9338.000000;1.450432
9337.000000;1.450436
9336.000000;1.450899
9335.000000;1.451105
9334.000000;1.451149
9333.000000;1.451343
9332.000000;1.451257
9331.000000;1.450097
9330.000000;1.448016
9329.000000;1.446381
9328.000000;1.446358
9327.000000;1.447650
9326.000000;1.449015
9325.000000;1.449806
9324.000000;1.450392
9323.000000;1.451064
9322.000000;1.451284
9321.000000;1.450350
9320.000000;1.448315
9319.000000;1.445913
9318.000000;1.443912
9317.000000;1.442871
9316.000000;1.443099
9315.000000;1.444280
9314.000000;1.445327
9313.000000;1.445200
9312.000000;1.443943
9311.000000;1.442561
9310.000000;1.441836
9309.000000;1.441577
9308.000000;1.441101
9307.000000;1.440121
9306.000000;1.439008
9305.000000;1.438351
9304.000000;1.438416
9303.000000;1.438978
9302.000000;1.439588
9301.000000;1.439968
9300.000000;1.440088
9299.000000;1.439916
9298.000000;1.439369
9297.000000;1.438614
9296.000000;1.438128
9295.000000;1.438224
9294.000000;1.438711
9293.000000;1.439202
9292.000000;1.439478
9291.000000;1.439331
9290.000000;1.438397
9289.000000;1.436590
9288.000000;1.434442
9287.000000;1.432490
9286.000000;1.430608
9285.000000;1.428581
9284.000000;1.427094
9283.000000;1.427200
9282.000000;1.428735
9281.000000;1.430075
9280.000000;1.429855
9279.000000;1.428330
9278.000000;1.426577
9277.000000;1.425082
9276.000000;1.423808
9275.000000;1.423097
9274.000000;1.423515
9273.000000;1.424830
9272.000000;1.425863
9271.000000;1.425643
9270.000000;1.424369
9269.000000;1.423071
9268.000000;1.422583
9267.000000;1.422893
9266.000000;1.423299
9265.000000;1.423178
9264.000000;1.422715
9263.000000;1.422706
9262.000000;1.423495
9261.000000;1.424339
9260.000000;1.424176
9259.000000;1.422851
9258.000000;1.421150
9257.000000;1.419713
9256.000000;1.418466
9255.000000;1.417245
9254.000000;1.416458
9253.000000;1.416807
9252.000000;1.418434
9251.000000;1.420487
9250.000000;1.421499
9249.000000;1.420374
9248.000000;1.417402
9247.000000;1.414266
9246.000000;1.412651
9245.000000;1.412802
9244.000000;1.413546
9243.000000;1.413681
9242.000000;1.413085
9241.000000;1.412321
9240.000000;1.411628
9239.000000;1.410746
9238.000000;1.409556
9237.000000;1.408546
9236.000000;1.408476
9235.000000;1.409657
9234.000000;1.411588
9233.000000;1.413315
9232.000000;1.414191
9231.000000;1.414288
9230.000000;1.413923
9229.000000;1.412972
9228.000000;1.411098
9227.000000;1.408624
9226.000000;1.406549
9225.000000;1.405401
9224.000000;1.404604
9223.000000;1.403510
9222.000000;1.402666
9221.000000;1.403267
9220.000000;1.405377
9219.000000;1.407390
9218.000000;1.407628
9217.000000;1.406102
9216.000000;1.404271
9215.000000;1.403404
9214.000000;1.403616
9213.000000;1.404262
9212.000000;1.404758
9211.000000;1.404915
9210.000000;1.404812
9209.000000;1.404557
9208.000000;1.404149
9207.000000;1.403538
9206.000000;1.402860
9205.000000;1.402483
9204.000000;1.402582
9203.000000;1.402753
9202.000000;1.402311
9201.000000;1.401067
9200.000000;1.399646
9199.000000;1.398917
9198.000000;1.399124
9197.000000;1.399644
9196.000000;1.399588
9195.000000;1.398559
9194.000000;1.396866
9193.000000;1.395180
9192.000000;1.394116
9191.000000;1.393960
9190.000000;1.394558
9189.000000;1.395427
9188.000000;1.396055
9187.000000;1.396177
9186.000000;1.395827
9185.000000;1.395113
9184.000000;1.394134
9183.000000;1.393200
9182.000000;1.392827
9181.000000;1.393114
9180.000000;1.393308
9179.000000;1.392488
9178.000000;1.390746
9177.000000;1.389230
9176.000000;1.388873
9175.000000;1.389496
9174.000000;1.390355
9173.000000;1.391086
9172.000000;1.391697
9171.000000;1.392017
9170.000000;1.391761
9169.000000;1.391043
9168.000000;1.390322
9167.000000;1.389893
9166.000000;1.389804
9165.000000;1.390077
9164.000000;1.390523
9163.000000;1.390526
9162.000000;1.389630
9161.000000;1.388302
9160.000000;1.387453
9159.000000;1.387112
9158.000000;1.386294
9157.000000;1.384487
9156.000000;1.382539
9155.000000;1.381652
9154.000000;1.382038
9153.000000;1.382915
9152.000000;1.383321
9151.000000;1.382575
9150.000000;1.380506
9149.000000;1.377811
9148.000000;1.375844
9147.000000;1.375484
9146.000000;1.376372
9145.000000;1.377538
9144.000000;1.378494
9143.000000;1.379336
9142.000000;1.380188
9141.000000;1.381098
9140.000000;1.382103
9139.000000;1.382893
9138.000000;1.382839
9137.000000;1.381887
9136.000000;1.380940
9135.000000;1.380711
9134.000000;1.380609
9133.000000;1.379632
9132.000000;1.378085
9131.000000;1.377376
9130.000000;1.378108
9129.000000;1.379391
9128.000000;1.380120
9127.000000;1.379943
9126.000000;1.378792
9125.000000;1.376592
9124.000000;1.373879
9123.000000;1.371808
9122.000000;1.370966
9121.000000;1.370776
9120.000000;1.370475
9119.000000;1.370081
9118.000000;1.369995
9117.000000;1.370367
9116.000000;1.371348
9115.000000;1.373168
9114.000000;1.375265
9113.000000;1.376080
9112.000000;1.374741
9111.000000;1.372451
9110.000000;1.371158
9109.000000;1.371212
9108.000000;1.371304
9107.000000;1.370497
9106.000000;1.369269
9105.000000;1.368449
9104.000000;1.368130
9103.000000;1.367959
9102.000000;1.367817
9101.000000;1.367888
9100.000000;1.368439
9099.000000;1.369599
9098.000000;1.370979
9097.000000;1.371570
9096.000000;1.370590
9095.000000;1.368555
9094.000000;1.366896
9093.000000;1.366347
9092.000000;1.366327
9091.000000;1.366058
9090.000000;1.365612
9089.000000;1.365483
9088.000000;1.365639
9087.000000;1.365537
9086.000000;1.364799
9085.000000;1.363494
9084.000000;1.362009
9083.000000;1.360895
9082.000000;1.360559
9081.000000;1.360766
9080.000000;1.360649
9079.000000;1.359616
9078.000000;1.358119
9077.000000;1.357225
9076.000000;1.357493
9075.000000;1.358434
9074.000000;1.358999
9073.000000;1.358594
9072.000000;1.357697
9071.000000;1.357485
9070.000000;1.358643
9069.000000;1.360514
9068.000000;1.361701
9067.000000;1.361623
9066.000000;1.361078
9065.000000;1.361087
9064.000000;1.361616
9063.000000;1.361796
9062.000000;1.361077
9061.000000;1.359771
9060.000000;1.358595
9059.000000;1.358074
9058.000000;1.358266
9057.000000;1.358719
9056.000000;1.358689
9055.000000;1.357703
9054.000000;1.356013
9053.000000;1.354385
