Criado como novo conjunto de dados;"1909daniel.spp","-4212881.0 Secs"
cm-1;Abs
10000.000000;1.171047
9999.000000;1.170824
9998.000000;1.170602
9997.000000;1.170379
9996.000000;1.170158
9995.000000;1.169934
9994.000000;1.169715
9993.000000;1.169489
9992.000000;1.169276
9991.000000;1.169038
9990.000000;1.168849
9989.000000;1.168451
9988.000000;1.167807
9987.000000;1.167127
9986.000000;1.166042
9985.000000;1.164159
9984.000000;1.162004
9983.000000;1.160916
9982.000000;1.161380
9981.000000;1.162175
9980.000000;1.161663
9979.000000;1.159558
9978.000000;1.156935
9977.000000;1.154920
9976.000000;1.153903
9975.000000;1.153673
9974.000000;1.153709
9973.000000;1.153517
9972.000000;1.153145
9971.000000;1.153230
9970.000000;1.154101
9969.000000;1.155054
9968.000000;1.155000
9967.000000;1.153702
9966.000000;1.151853
9965.000000;1.150116
9964.000000;1.148692
9963.000000;1.147772
9962.000000;1.147637
9961.000000;1.147982
9960.000000;1.147764
9959.000000;1.146285
9958.000000;1.144182
9957.000000;1.142818
9956.000000;1.142711
9955.000000;1.142997
9954.000000;1.142549
9953.000000;1.141294
9952.000000;1.140095
9951.000000;1.139564
9950.000000;1.139427
9949.000000;1.139071
9948.000000;1.138267
9947.000000;1.137165
9946.000000;1.135929
9945.000000;1.134731
9944.000000;1.133864
9943.000000;1.133472
9942.000000;1.133283
9941.000000;1.132975
9940.000000;1.132674
9939.000000;1.132693
9938.000000;1.132837
9937.000000;1.132489
9936.000000;1.131443
9935.000000;1.130171
9934.000000;1.129097
9933.000000;1.128083
9932.000000;1.126880
9931.000000;1.125690
9930.000000;1.124878
9929.000000;1.124360
9928.000000;1.123649
9927.000000;1.122465
9926.000000;1.121066
9925.000000;1.119976
9924.000000;1.119481
9923.000000;1.119382
9922.000000;1.119223
9921.000000;1.118803
9920.000000;1.118403
9919.000000;1.118368
9918.000000;1.118554
9917.000000;1.118455
9916.000000;1.117847
9915.000000;1.116959
9914.000000;1.115984
9913.000000;1.114779
9912.000000;1.113173
9911.000000;1.111339
9910.000000;1.109696
9909.000000;1.108630
9908.000000;1.108326
9907.000000;1.108599
9906.000000;1.108792
9905.000000;1.108171
9904.000000;1.106654
9903.000000;1.104908
9902.000000;1.103589
9901.000000;1.102740
9900.000000;1.102052
9899.000000;1.101426
9898.000000;1.100994
9897.000000;1.100745
9896.000000;1.100415
9895.000000;1.099718
9894.000000;1.098574
9893.000000;1.097162
9892.000000;1.095852
9891.000000;1.094960
9890.000000;1.094507
9889.000000;1.094260
9888.000000;1.094004
9887.000000;1.093622
9886.000000;1.092964
9885.000000;1.091941
9884.000000;1.090829
9883.000000;1.090152
9882.000000;1.090076
9881.000000;1.090135
9880.000000;1.089741
9879.000000;1.088819
9878.000000;1.087738
9877.000000;1.086787
9876.000000;1.085927
9875.000000;1.085025
9874.000000;1.084132
9873.000000;1.083414
9872.000000;1.082891
9871.000000;1.082355
9870.000000;1.081688
9869.000000;1.081206
9868.000000;1.081401
9867.000000;1.082160
9866.000000;1.082514
9865.000000;1.081546
9864.000000;1.079464
9863.000000;1.077371
9862.000000;1.075995
9861.000000;1.075077
9860.000000;1.074063
9859.000000;1.072942
9858.000000;1.072176
9857.000000;1.072053
9856.000000;1.072329
9855.000000;1.072375
9854.000000;1.071604
9853.000000;1.069952
9852.000000;1.068025
9851.000000;1.066573
9850.000000;1.065813
9849.000000;1.065425
9848.000000;1.065148
9847.000000;1.065002
9846.000000;1.064934
9845.000000;1.064659
9844.000000;1.064011
9843.000000;1.063129
9842.000000;1.062189
9841.000000;1.061253
9840.000000;1.060533
9839.000000;1.060363
9838.000000;1.060616
9837.000000;1.060444
9836.000000;1.059067
9835.000000;1.056718
9834.000000;1.054509
9833.000000;1.053408
9832.000000;1.053511
9831.000000;1.054173
9830.000000;1.054573
9829.000000;1.054256
9828.000000;1.053398
9827.000000;1.052614
9826.000000;1.052398
9825.000000;1.052728
9824.000000;1.053145
9823.000000;1.053108
9822.000000;1.052259
9821.000000;1.050611
9820.000000;1.048639
9819.000000;1.047054
9818.000000;1.046286
9817.000000;1.046128
9816.000000;1.045945
9815.000000;1.045229
9814.000000;1.043995
9813.000000;1.042735
9812.000000;1.041962
9811.000000;1.041700
9810.000000;1.041389
9809.000000;1.040441
9808.000000;1.038894
9807.000000;1.037340
9806.000000;1.036199
9805.000000;1.035313
9804.000000;1.034342
9803.000000;1.033293
9802.000000;1.032472
9801.000000;1.032060
9800.000000;1.031935
9799.000000;1.031818
9798.000000;1.031430
9797.000000;1.030566
9796.000000;1.029217
9795.000000;1.027711
9794.000000;1.026610
9793.000000;1.026314
9792.000000;1.026646
9791.000000;1.026901
9790.000000;1.026463
9789.000000;1.025411
9788.000000;1.024366
9787.000000;1.023713
9786.000000;1.023215
9785.000000;1.022497
9784.000000;1.021585
9783.000000;1.020720
9782.000000;1.019878
9781.000000;1.018878
9780.000000;1.017851
9779.000000;1.017166
9778.000000;1.016893
9777.000000;1.016717
9776.000000;1.016395
9775.000000;1.015929
9774.000000;1.015248
9773.000000;1.014132
9772.000000;1.012610
9771.000000;1.011108
9770.000000;1.010024
9769.000000;1.009358
9768.000000;1.008889
9767.000000;1.008484
9766.000000;1.008111
9765.000000;1.007741
9764.000000;1.007372
9763.000000;1.006989
9762.000000;1.006423
9761.000000;1.005482
9760.000000;1.004291
9759.000000;1.003287
9758.000000;1.002745
9757.000000;1.002503
9756.000000;1.002236
9755.000000;1.001806
9754.000000;1.001234
9753.000000;1.000550
9752.000000;0.999819
9751.000000;0.999125
9750.000000;0.998377
9749.000000;0.997297
9748.000000;0.995814
9747.000000;0.994309
9746.000000;0.993266
9745.000000;0.992739
9744.000000;0.992344
9743.000000;0.991724
9742.000000;0.990842
9741.000000;0.989851
9740.000000;0.988876
9739.000000;0.988047
9738.000000;0.987579
9737.000000;0.987597
9736.000000;0.987825
9735.000000;0.987689
9734.000000;0.986933
9733.000000;0.985999
9732.000000;0.985499
9731.000000;0.985354
9730.000000;0.984844
9729.000000;0.983594
9728.000000;0.982120
9727.000000;0.981097
9726.000000;0.980487
9725.000000;0.979833
9724.000000;0.979106
9723.000000;0.978731
9722.000000;0.978824
9721.000000;0.978884
9720.000000;0.978368
9719.000000;0.977239
9718.000000;0.975877
9717.000000;0.974698
9716.000000;0.973879
9715.000000;0.973247
9714.000000;0.972474
9713.000000;0.971550
9712.000000;0.970916
9711.000000;0.970853
9710.000000;0.970915
9709.000000;0.970396
9708.000000;0.969268
9707.000000;0.968158
9706.000000;0.967412
9705.000000;0.966724
9704.000000;0.965801
9703.000000;0.964871
9702.000000;0.964311
9701.000000;0.964115
9700.000000;0.963974
9699.000000;0.963578
9698.000000;0.962702
9697.000000;0.961296
9696.000000;0.959725
9695.000000;0.958653
9694.000000;0.958426
9693.000000;0.958698
9692.000000;0.958823
9691.000000;0.958484
9690.000000;0.957809
9689.000000;0.957015
9688.000000;0.956138
9687.000000;0.955084
9686.000000;0.953874
9685.000000;0.952797
9684.000000;0.952192
9683.000000;0.951995
9682.000000;0.951694
9681.000000;0.950961
9680.000000;0.950149
9679.000000;0.949793
9678.000000;0.949783
9677.000000;0.949483
9676.000000;0.948598
9675.000000;0.947462
9674.000000;0.946424
9673.000000;0.945480
9672.000000;0.944577
9671.000000;0.943811
9670.000000;0.943146
9669.000000;0.942366
9668.000000;0.941509
9667.000000;0.940968
9666.000000;0.940896
9665.000000;0.940827
9664.000000;0.940127
9663.000000;0.938633
9662.000000;0.936734
9661.000000;0.935055
9660.000000;0.934167
9659.000000;0.934249
9658.000000;0.934806
9657.000000;0.934991
9656.000000;0.934421
9655.000000;0.933459
9654.000000;0.932580
9653.000000;0.931823
9652.000000;0.931059
9651.000000;0.930422
9650.000000;0.930110
9649.000000;0.929957
9648.000000;0.929544
9647.000000;0.928651
9646.000000;0.927406
9645.000000;0.926106
9644.000000;0.925035
9643.000000;0.924315
9642.000000;0.923784
9641.000000;0.923145
9640.000000;0.922331
9639.000000;0.921561
9638.000000;0.920987
9637.000000;0.920521
9636.000000;0.920073
9635.000000;0.919693
9634.000000;0.919371
9633.000000;0.918939
9632.000000;0.918293
9631.000000;0.917490
9630.000000;0.916602
9629.000000;0.915707
9628.000000;0.915049
9627.000000;0.914826
9626.000000;0.914762
9625.000000;0.914326
9624.000000;0.913492
9623.000000;0.912816
9622.000000;0.912574
9621.000000;0.912340
9620.000000;0.911728
9619.000000;0.911011
9618.000000;0.910533
9617.000000;0.909965
9616.000000;0.908776
9615.000000;0.907159
9614.000000;0.905906
9613.000000;0.905430
9612.000000;0.905403
9611.000000;0.905285
9610.000000;0.904769
9609.000000;0.903750
9608.000000;0.902326
9607.000000;0.900918
9606.000000;0.900039
9605.000000;0.899805
9604.000000;0.899878
9603.000000;0.899870
9602.000000;0.899590
9601.000000;0.898962
9600.000000;0.897994
9599.000000;0.896900
9598.000000;0.895980
9597.000000;0.895299
9596.000000;0.894629
9595.000000;0.893733
9594.000000;0.892618
9593.000000;0.891491
9592.000000;0.890597
9591.000000;0.890061
9590.000000;0.889802
9589.000000;0.889620
9588.000000;0.889436
9587.000000;0.889317
9586.000000;0.889227
9585.000000;0.888917
9584.000000;0.888223
9583.000000;0.887312
9582.000000;0.886446
9581.000000;0.885628
9580.000000;0.884710
9579.000000;0.883696
9578.000000;0.882695
9577.000000;0.881673
9576.000000;0.880571
9575.000000;0.879579
9574.000000;0.879009
9573.000000;0.878843
9572.000000;0.878643
9571.000000;0.877975
9570.000000;0.876817
9569.000000;0.875558
9568.000000;0.874732
9567.000000;0.874663
9566.000000;0.875182
9565.000000;0.875649
9564.000000;0.875454
9563.000000;0.874560
9562.000000;0.873450
9561.000000;0.872583
9560.000000;0.872042
9559.000000;0.871660
9558.000000;0.871274
9557.000000;0.870800
9556.000000;0.870234
9555.000000;0.869624
9554.000000;0.868971
9553.000000;0.868139
9552.000000;0.866994
9551.000000;0.865655
9550.000000;0.864468
9549.000000;0.863693
9548.000000;0.863313
9547.000000;0.863147
9546.000000;0.863037
9545.000000;0.862893
9544.000000;0.862620
9543.000000;0.862080
9542.000000;0.861136
9541.000000;0.859813
9540.000000;0.858435
9539.000000;0.857486
9538.000000;0.857187
9537.000000;0.857217
9536.000000;0.857002
9535.000000;0.856319
9534.000000;0.855492
9533.000000;0.854973
9532.000000;0.854806
9531.000000;0.854560
9530.000000;0.853731
9529.000000;0.852195
9528.000000;0.850309
9527.000000;0.848648
9526.000000;0.847614
9525.000000;0.847247
9524.000000;0.847329
9523.000000;0.847620
9522.000000;0.847954
9521.000000;0.848153
9520.000000;0.847969
9519.000000;0.847245
9518.000000;0.846165
9517.000000;0.845223
9516.000000;0.844827
9515.000000;0.844950
9514.000000;0.845216
9513.000000;0.845302
9512.000000;0.845088
9511.000000;0.844462
9510.000000;0.843283
9509.000000;0.841681
9508.000000;0.840128
9507.000000;0.838975
9506.000000;0.838074
9505.000000;0.837129
9504.000000;0.836225
9503.000000;0.835677
9502.000000;0.835451
9501.000000;0.835172
9500.000000;0.834710
9499.000000;0.834340
9498.000000;0.834211
9497.000000;0.834052
9496.000000;0.833581
9495.000000;0.832882
9494.000000;0.832167
9493.000000;0.831466
9492.000000;0.830786
9491.000000;0.830283
9490.000000;0.829985
9489.000000;0.829548
9488.000000;0.828623
9487.000000;0.827344
9486.000000;0.826162
9485.000000;0.825326
9484.000000;0.824809
9483.000000;0.824562
9482.000000;0.824475
9481.000000;0.824174
9480.000000;0.823309
9479.000000;0.822098
9478.000000;0.821247
9477.000000;0.821186
9476.000000;0.821624
9475.000000;0.821950
9474.000000;0.821848
9473.000000;0.821406
9472.000000;0.820855
9471.000000;0.820404
9470.000000;0.820139
9469.000000;0.819881
9468.000000;0.819247
9467.000000;0.818044
9466.000000;0.816591
9465.000000;0.815467
9464.000000;0.814914
9463.000000;0.814605
9462.000000;0.814015
9461.000000;0.812944
9460.000000;0.811660
9459.000000;0.810636
9458.000000;0.810195
9457.000000;0.810332
9456.000000;0.810725
9455.000000;0.810877
9454.000000;0.810367
9453.000000;0.809149
9452.000000;0.807645
9451.000000;0.806445
9450.000000;0.805802
9449.000000;0.805455
9448.000000;0.805004
9447.000000;0.804425
9446.000000;0.804067
9445.000000;0.804129
9444.000000;0.804335
9443.000000;0.804240
9442.000000;0.803727
9441.000000;0.803013
9440.000000;0.802231
9439.000000;0.801260
9438.000000;0.800076
9437.000000;0.799035
9436.000000;0.798555
9435.000000;0.798590
9434.000000;0.798668
9433.000000;0.798465
9432.000000;0.798074
9431.000000;0.797613
9430.000000;0.796838
9429.000000;0.795452
9428.000000;0.793716
9427.000000;0.792416
9426.000000;0.792114
9425.000000;0.792581
9424.000000;0.793063
9423.000000;0.792991
9422.000000;0.792358
9421.000000;0.791516
9420.000000;0.790785
9419.000000;0.790263
9418.000000;0.789885
9417.000000;0.789603
9416.000000;0.789459
9415.000000;0.789486
9414.000000;0.789527
9413.000000;0.789231
9412.000000;0.788289
9411.000000;0.786697
9410.000000;0.784794
9409.000000;0.783085
9408.000000;0.781991
9407.000000;0.781711
9406.000000;0.782181
9405.000000;0.783075
9404.000000;0.783898
9403.000000;0.784199
9402.000000;0.783833
9401.000000;0.783012
9400.000000;0.782068
9399.000000;0.781211
9398.000000;0.780494
9397.000000;0.779916
9396.000000;0.779408
9395.000000;0.778798
9394.000000;0.777965
9393.000000;0.777023
9392.000000;0.776171
9391.000000;0.775364
9390.000000;0.774357
9389.000000;0.773168
9388.000000;0.772235
9387.000000;0.771924
9386.000000;0.772090
9385.000000;0.772330
9384.000000;0.772477
9383.000000;0.772573
9382.000000;0.772486
9381.000000;0.771925
9380.000000;0.770862
9379.000000;0.769624
9378.000000;0.768500
9377.000000;0.767533
9376.000000;0.766759
9375.000000;0.766343
9374.000000;0.766285
9373.000000;0.766231
9372.000000;0.765834
9371.000000;0.765191
9370.000000;0.764666
9369.000000;0.764313
9368.000000;0.763747
9367.000000;0.762622
9366.000000;0.761082
9365.000000;0.759620
9364.000000;0.758611
9363.000000;0.758121
9362.000000;0.758071
9361.000000;0.758367
9360.000000;0.758804
9359.000000;0.759045
9358.000000;0.758926
9357.000000;0.758708
9356.000000;0.758758
9355.000000;0.758959
9354.000000;0.758722
9353.000000;0.757730
9352.000000;0.756413
9351.000000;0.755448
9350.000000;0.754963
9349.000000;0.754535
9348.000000;0.753895
9347.000000;0.753236
9346.000000;0.752794
9345.000000;0.752460
9344.000000;0.752010
9343.000000;0.751493
9342.000000;0.751145
9341.000000;0.751042
9340.000000;0.750997
9339.000000;0.750807
9338.000000;0.750469
9337.000000;0.750146
9336.000000;0.749917
9335.000000;0.749598
9334.000000;0.748855
9333.000000;0.747599
9332.000000;0.746225
9331.000000;0.745307
9330.000000;0.745018
9329.000000;0.744993
9328.000000;0.744798
9327.000000;0.744336
9326.000000;0.743748
9325.000000;0.743127
9324.000000;0.742520
9323.000000;0.742057
9322.000000;0.741834
9321.000000;0.741694
9320.000000;0.741331
9319.000000;0.740659
9318.000000;0.739940
9317.000000;0.739488
9316.000000;0.739344
9315.000000;0.739282
9314.000000;0.739059
9313.000000;0.738589
9312.000000;0.737934
9311.000000;0.737211
9310.000000;0.736524
9309.000000;0.735904
9308.000000;0.735267
9307.000000;0.734467
9306.000000;0.733463
9305.000000;0.732454
9304.000000;0.731783
9303.000000;0.731648
9302.000000;0.731907
9301.000000;0.732161
9300.000000;0.732018
9299.000000;0.731338
9298.000000;0.730317
9297.000000;0.729386
9296.000000;0.728888
9295.000000;0.728757
9294.000000;0.728578
9293.000000;0.728054
9292.000000;0.727340
9291.000000;0.726824
9290.000000;0.726646
9289.000000;0.726571
9288.000000;0.726301
9287.000000;0.725780
9286.000000;0.725211
9285.000000;0.724878
9284.000000;0.724926
9283.000000;0.725192
9282.000000;0.725269
9281.000000;0.724858
9280.000000;0.724086
9279.000000;0.723342
9278.000000;0.722790
9277.000000;0.722228
9276.000000;0.721468
9275.000000;0.720664
9274.000000;0.720145
9273.000000;0.720046
9272.000000;0.720216
9271.000000;0.720409
9270.000000;0.720475
9269.000000;0.720421
9268.000000;0.720323
9267.000000;0.720138
9266.000000;0.719599
9265.000000;0.718457
9264.000000;0.716901
9263.000000;0.715559
9262.000000;0.714947
9261.000000;0.715015
9260.000000;0.715332
9259.000000;0.715557
9258.000000;0.715550
9257.000000;0.715172
9256.000000;0.714311
9255.000000;0.713137
9254.000000;0.712088
9253.000000;0.711460
9252.000000;0.711172
9251.000000;0.710986
9250.000000;0.710801
9249.000000;0.710623
9248.000000;0.710412
9247.000000;0.710113
9246.000000;0.709771
9245.000000;0.709442
9244.000000;0.709068
9243.000000;0.708554
9242.000000;0.707933
9241.000000;0.707304
9240.000000;0.706671
9239.000000;0.706011
9238.000000;0.705469
9237.000000;0.705238
9236.000000;0.705259
9235.000000;0.705231
9234.000000;0.705001
9233.000000;0.704713
9232.000000;0.704485
9231.000000;0.704200
9230.000000;0.703783
9229.000000;0.703441
9228.000000;0.703366
9227.000000;0.703343
9226.000000;0.703003
9225.000000;0.702379
9224.000000;0.701881
9223.000000;0.701689
9222.000000;0.701510
9221.000000;0.701040
9220.000000;0.700365
9219.000000;0.699738
9218.000000;0.699204
9217.000000;0.698677
9216.000000;0.698204
9215.000000;0.697915
9214.000000;0.697775
9213.000000;0.697598
9212.000000;0.697285
9211.000000;0.696898
9210.000000;0.696505
9209.000000;0.696086
9208.000000;0.695611
9207.000000;0.695108
9206.000000;0.694645
9205.000000;0.694302
9204.000000;0.694131
9203.000000;0.694086
9202.000000;0.694000
9201.000000;0.693708
9200.000000;0.693193
9199.000000;0.692590
9198.000000;0.692073
9197.000000;0.691715
9196.000000;0.691396
9195.000000;0.690850
9194.000000;0.689927
9193.000000;0.688871
9192.000000;0.688188
9191.000000;0.688151
9190.000000;0.688493
9189.000000;0.688703
9188.000000;0.688535
9187.000000;0.688107
9186.000000;0.687626
9185.000000;0.687183
9184.000000;0.686787
9183.000000;0.686420
9182.000000;0.686023
9181.000000;0.685538
9180.000000;0.684985
9179.000000;0.684466
9178.000000;0.684096
9177.000000;0.683936
9176.000000;0.683936
9175.000000;0.683914
9174.000000;0.683679
9173.000000;0.683252
9172.000000;0.682874
9171.000000;0.682725
9170.000000;0.682698
9169.000000;0.682533
9168.000000;0.682077
9167.000000;0.681346
9166.000000;0.680449
9165.000000;0.679620
9164.000000;0.679180
9163.000000;0.679234
9162.000000;0.679453
9161.000000;0.679343
9160.000000;0.678773
9159.000000;0.678036
9158.000000;0.677412
9157.000000;0.676872
9156.000000;0.676300
9155.000000;0.675812
9154.000000;0.675678
9153.000000;0.675981
9152.000000;0.676436
9151.000000;0.676574
9150.000000;0.676107
9149.000000;0.675153
9148.000000;0.674128
9147.000000;0.673394
9146.000000;0.673036
9145.000000;0.672937
9144.000000;0.672971
9143.000000;0.673005
9142.000000;0.672871
9141.000000;0.672498
9140.000000;0.672073
9139.000000;0.671848
9138.000000;0.671799
9137.000000;0.671656
9136.000000;0.671303
9135.000000;0.670919
9134.000000;0.670651
9133.000000;0.670365
9132.000000;0.669918
9131.000000;0.669511
9130.000000;0.669490
9129.000000;0.669815
9128.000000;0.669989
9127.000000;0.669605
9126.000000;0.668833
9125.000000;0.668245
9124.000000;0.668246
9123.000000;0.668747
9122.000000;0.669321
9121.000000;0.669536
9120.000000;0.669180
9119.000000;0.668343
9118.000000;0.667372
9117.000000;0.666637
9116.000000;0.666253
9115.000000;0.666033
9114.000000;0.665774
9113.000000;0.665514
9112.000000;0.665427
9111.000000;0.665519
9110.000000;0.665583
9109.000000;0.665453
9108.000000;0.665177
9107.000000;0.664875
9106.000000;0.664549
9105.000000;0.664081
9104.000000;0.663350
9103.000000;0.662334
9102.000000;0.661200
9101.000000;0.660323
9100.000000;0.660063
9099.000000;0.660391
9098.000000;0.660850
9097.000000;0.660973
9096.000000;0.660665
9095.000000;0.660129
9094.000000;0.659545
9093.000000;0.658968
9092.000000;0.658451
9091.000000;0.658066
9090.000000;0.657822
9089.000000;0.657677
9088.000000;0.657615
9087.000000;0.657592
9086.000000;0.657452
9085.000000;0.657032
9084.000000;0.656353
9083.000000;0.655614
9082.000000;0.654984
9081.000000;0.654526
9080.000000;0.654267
9079.000000;0.654200
9078.000000;0.654225
9077.000000;0.654224
9076.000000;0.654219
9075.000000;0.654287
9074.000000;0.654320
9073.000000;0.654048
9072.000000;0.653420
9071.000000;0.652813
9070.000000;0.652715
9069.000000;0.653244
9068.000000;0.654036
9067.000000;0.654571
9066.000000;0.654525
9065.000000;0.653874
9064.000000;0.652815
9063.000000;0.651647
9062.000000;0.650668
9061.000000;0.650108
9060.000000;0.650033
9059.000000;0.650287
9058.000000;0.650547
9057.000000;0.650517
9056.000000;0.650121
9055.000000;0.649463
9054.000000;0.648676
9053.000000;0.647879
