Criado como novo conjunto de dados;"1909daniel.spp","-4228182.0 Secs"
cm-1;Abs
10000.000000;1.441712
9999.000000;1.443259
9998.000000;1.444818
9997.000000;1.446381
9996.000000;1.447782
9995.000000;1.447982
9994.000000;1.446509
9993.000000;1.444333
9992.000000;1.442795
9991.000000;1.442588
9990.000000;1.443330
9989.000000;1.444142
9988.000000;1.444312
9987.000000;1.443683
9986.000000;1.442671
9985.000000;1.441948
9984.000000;1.441756
9983.000000;1.441555
9982.000000;1.440654
9981.000000;1.439159
9980.000000;1.437888
9979.000000;1.437214
9978.000000;1.436480
9977.000000;1.434984
9976.000000;1.433140
9975.000000;1.432055
9974.000000;1.432110
9973.000000;1.432555
9972.000000;1.432499
9971.000000;1.431761
9970.000000;1.430596
9969.000000;1.429106
9968.000000;1.427329
9967.000000;1.425567
9966.000000;1.424274
9965.000000;1.423731
9964.000000;1.423942
9963.000000;1.424575
9962.000000;1.424919
9961.000000;1.424333
9960.000000;1.423027
9959.000000;1.422017
9958.000000;1.421952
9957.000000;1.422310
9956.000000;1.422089
9955.000000;1.421000
9954.000000;1.419566
9953.000000;1.418317
9952.000000;1.417365
9951.000000;1.416620
9950.000000;1.415924
9949.000000;1.415089
9948.000000;1.414219
9947.000000;1.413853
9946.000000;1.414291
9945.000000;1.414939
9944.000000;1.414872
9943.000000;1.413992
9942.000000;1.413014
9941.000000;1.412345
9940.000000;1.411648
9939.000000;1.410576
9938.000000;1.409267
9937.000000;1.407973
9936.000000;1.406821
9935.000000;1.406192
9934.000000;1.406572
9933.000000;1.407589
9932.000000;1.407873
9931.000000;1.406553
9930.000000;1.404430
9929.000000;1.402903
9928.000000;1.402132
9927.000000;1.401130
9926.000000;1.399394
9925.000000;1.397499
9924.000000;1.396030
9923.000000;1.394866
9922.000000;1.393844
9921.000000;1.393400
9920.000000;1.393874
9919.000000;1.394557
9918.000000;1.394139
9917.000000;1.392157
9916.000000;1.389557
9915.000000;1.387734
9914.000000;1.387319
9913.000000;1.387921
9912.000000;1.388661
9911.000000;1.388793
9910.000000;1.388085
9909.000000;1.386951
9908.000000;1.386235
9907.000000;1.386609
9906.000000;1.387965
9905.000000;1.389400
9904.000000;1.389891
9903.000000;1.389040
9902.000000;1.387202
9901.000000;1.385086
9900.000000;1.383408
9899.000000;1.382716
9898.000000;1.383085
9897.000000;1.383872
9896.000000;1.384084
9895.000000;1.383237
9894.000000;1.381795
9893.000000;1.380702
9892.000000;1.380553
9891.000000;1.381133
9890.000000;1.381522
9889.000000;1.380757
9888.000000;1.378738
9887.000000;1.376483
9886.000000;1.375199
9885.000000;1.375100
9884.000000;1.375437
9883.000000;1.375580
9882.000000;1.375496
9881.000000;1.375065
9880.000000;1.373747
9879.000000;1.371487
9878.000000;1.369346
9877.000000;1.368553
9876.000000;1.369164
9875.000000;1.370110
9874.000000;1.370335
9873.000000;1.369440
9872.000000;1.367505
9871.000000;1.365001
9870.000000;1.362786
9869.000000;1.361517
9868.000000;1.360945
9867.000000;1.360240
9866.000000;1.359017
9865.000000;1.357640
9864.000000;1.356618
9863.000000;1.356165
9862.000000;1.356310
9861.000000;1.356866
9860.000000;1.357323
9859.000000;1.357323
9858.000000;1.357209
9857.000000;1.357546
9856.000000;1.358156
9855.000000;1.358298
9854.000000;1.357779
9853.000000;1.357060
9852.000000;1.356121
9851.000000;1.354294
9850.000000;1.351695
9849.000000;1.349894
9848.000000;1.350269
9847.000000;1.352221
9846.000000;1.353737
9845.000000;1.353490
9844.000000;1.351698
9843.000000;1.349173
9842.000000;1.346456
9841.000000;1.344039
9840.000000;1.342604
9839.000000;1.342528
9838.000000;1.343345
9837.000000;1.344022
9836.000000;1.343796
9835.000000;1.342742
9834.000000;1.341566
9833.000000;1.340855
9832.000000;1.340513
9831.000000;1.339975
9830.000000;1.338926
9829.000000;1.337624
9828.000000;1.336464
9827.000000;1.335540
9826.000000;1.334856
9825.000000;1.334667
9824.000000;1.335208
9823.000000;1.336133
9822.000000;1.336579
9821.000000;1.335927
9820.000000;1.334401
9819.000000;1.332870
9818.000000;1.332105
9817.000000;1.332131
9816.000000;1.332210
9815.000000;1.331566
9814.000000;1.330189
9813.000000;1.328813
9812.000000;1.328099
9811.000000;1.328078
9810.000000;1.328382
9809.000000;1.328628
9808.000000;1.328377
9807.000000;1.327150
9806.000000;1.324963
9805.000000;1.322609
9804.000000;1.321046
9803.000000;1.320551
9802.000000;1.320696
9801.000000;1.320985
9800.000000;1.321218
9799.000000;1.321306
9798.000000;1.321070
9797.000000;1.320306
9796.000000;1.318881
9795.000000;1.316822
9794.000000;1.314490
9793.000000;1.312596
9792.000000;1.311759
9791.000000;1.311997
9790.000000;1.312770
9789.000000;1.313505
9788.000000;1.313918
9787.000000;1.313872
9786.000000;1.313224
9785.000000;1.311923
9784.000000;1.310148
9783.000000;1.308299
9782.000000;1.306788
9781.000000;1.305842
9780.000000;1.305492
9779.000000;1.305610
9778.000000;1.305824
9777.000000;1.305460
9776.000000;1.303925
9775.000000;1.301456
9774.000000;1.299304
9773.000000;1.298749
9772.000000;1.299891
9771.000000;1.301599
9770.000000;1.302619
9769.000000;1.302444
9768.000000;1.301173
9767.000000;1.299130
9766.000000;1.296900
9765.000000;1.295231
9764.000000;1.294477
9763.000000;1.294373
9762.000000;1.294607
9761.000000;1.295308
9760.000000;1.296607
9759.000000;1.297970
9758.000000;1.298447
9757.000000;1.297619
9756.000000;1.296040
9755.000000;1.294703
9754.000000;1.294184
9753.000000;1.294135
9752.000000;1.293508
9751.000000;1.291546
9750.000000;1.288740
9749.000000;1.286488
9748.000000;1.285634
9747.000000;1.285654
9746.000000;1.285497
9745.000000;1.284871
9744.000000;1.284271
9743.000000;1.284051
9742.000000;1.283989
9741.000000;1.283646
9740.000000;1.282738
9739.000000;1.281329
9738.000000;1.279979
9737.000000;1.279506
9736.000000;1.280144
9735.000000;1.281032
9734.000000;1.280994
9733.000000;1.279795
9732.000000;1.278188
9731.000000;1.276798
9730.000000;1.275477
9729.000000;1.273757
9728.000000;1.271500
9727.000000;1.269089
9726.000000;1.267332
9725.000000;1.267071
9724.000000;1.268362
9723.000000;1.270004
9722.000000;1.270418
9721.000000;1.269205
9720.000000;1.267410
9719.000000;1.266183
9718.000000;1.265712
9717.000000;1.265574
9716.000000;1.265506
9715.000000;1.265460
9714.000000;1.265293
9713.000000;1.264833
9712.000000;1.264118
9711.000000;1.263286
9710.000000;1.262381
9709.000000;1.261465
9708.000000;1.260782
9707.000000;1.260613
9706.000000;1.261046
9705.000000;1.261887
9704.000000;1.262621
9703.000000;1.262494
9702.000000;1.261024
9701.000000;1.258617
9700.000000;1.256471
9699.000000;1.255616
9698.000000;1.256045
9697.000000;1.256828
9696.000000;1.256942
9695.000000;1.256028
9694.000000;1.254559
9693.000000;1.253422
9692.000000;1.253207
9691.000000;1.253728
9690.000000;1.254293
9689.000000;1.254456
9688.000000;1.254339
9687.000000;1.254149
9686.000000;1.253638
9685.000000;1.252273
9684.000000;1.249893
9683.000000;1.247090
9682.000000;1.244874
9681.000000;1.243917
9680.000000;1.244068
9679.000000;1.244588
9678.000000;1.244900
9677.000000;1.244990
9676.000000;1.244974
9675.000000;1.244573
9674.000000;1.243403
9673.000000;1.241657
9672.000000;1.240064
9671.000000;1.239115
9670.000000;1.238658
9669.000000;1.238272
9668.000000;1.237725
9667.000000;1.236968
9666.000000;1.235998
9665.000000;1.234907
9664.000000;1.233824
9663.000000;1.232722
9662.000000;1.231506
9661.000000;1.230371
9660.000000;1.229812
9659.000000;1.230133
9658.000000;1.231109
9657.000000;1.232188
9656.000000;1.232827
9655.000000;1.232627
9654.000000;1.231459
9653.000000;1.229646
9652.000000;1.227784
9651.000000;1.226250
9650.000000;1.225101
9649.000000;1.224474
9648.000000;1.224629
9647.000000;1.225391
9646.000000;1.225916
9645.000000;1.225348
9644.000000;1.223621
9643.000000;1.221398
9642.000000;1.219397
9641.000000;1.217973
9640.000000;1.217138
9639.000000;1.216701
9638.000000;1.216396
9637.000000;1.216042
9636.000000;1.215603
9635.000000;1.215115
9634.000000;1.214712
9633.000000;1.214708
9632.000000;1.215330
9631.000000;1.216257
9630.000000;1.216703
9629.000000;1.216160
9628.000000;1.214858
9627.000000;1.213371
9626.000000;1.212041
9625.000000;1.210976
9624.000000;1.210248
9623.000000;1.209775
9622.000000;1.209244
9621.000000;1.208553
9620.000000;1.208177
9619.000000;1.208641
9618.000000;1.209633
9617.000000;1.210064
9616.000000;1.209186
9615.000000;1.207390
9614.000000;1.205762
9613.000000;1.205006
9612.000000;1.204961
9611.000000;1.204996
9610.000000;1.204655
9609.000000;1.203939
9608.000000;1.203106
9607.000000;1.202378
9606.000000;1.201829
9605.000000;1.201406
9604.000000;1.200879
9603.000000;1.199830
9602.000000;1.198022
9601.000000;1.195912
9600.000000;1.194511
9599.000000;1.194480
9598.000000;1.195423
9597.000000;1.196233
9596.000000;1.196138
9595.000000;1.195288
9594.000000;1.194303
9593.000000;1.193472
9592.000000;1.192564
9591.000000;1.191329
9590.000000;1.190020
9589.000000;1.189314
9588.000000;1.189696
9587.000000;1.190963
9586.000000;1.192291
9585.000000;1.192815
9584.000000;1.192234
9583.000000;1.190984
9582.000000;1.189859
9581.000000;1.189334
9580.000000;1.189049
9579.000000;1.188092
9578.000000;1.185984
9577.000000;1.183335
9576.000000;1.181258
9575.000000;1.180272
9574.000000;1.180039
9573.000000;1.180062
9572.000000;1.180180
9571.000000;1.180270
9570.000000;1.179929
9569.000000;1.178808
9568.000000;1.177128
9567.000000;1.175576
9566.000000;1.174765
9565.000000;1.174841
9564.000000;1.175416
9563.000000;1.175791
9562.000000;1.175471
9561.000000;1.174617
9560.000000;1.173812
9559.000000;1.173325
9558.000000;1.172884
9557.000000;1.172237
9556.000000;1.171562
9555.000000;1.171084
9554.000000;1.170631
9553.000000;1.169890
9552.000000;1.168852
9551.000000;1.167717
9550.000000;1.166575
9549.000000;1.165491
9548.000000;1.164674
9547.000000;1.164227
9546.000000;1.163980
9545.000000;1.163921
9544.000000;1.164485
9543.000000;1.165879
9542.000000;1.167300
9541.000000;1.167457
9540.000000;1.165994
9539.000000;1.163863
9538.000000;1.162116
9537.000000;1.160883
9536.000000;1.159768
9535.000000;1.158763
9534.000000;1.158318
9533.000000;1.158648
9532.000000;1.159296
9531.000000;1.159432
9530.000000;1.158530
9529.000000;1.156827
9528.000000;1.155131
9527.000000;1.154064
9526.000000;1.153533
9525.000000;1.153057
9524.000000;1.152499
9523.000000;1.152124
9522.000000;1.151935
9521.000000;1.151439
9520.000000;1.150315
9519.000000;1.148954
9518.000000;1.148033
9517.000000;1.147782
9516.000000;1.147967
9515.000000;1.148356
9514.000000;1.148833
9513.000000;1.149134
9512.000000;1.148890
9511.000000;1.148030
9510.000000;1.146911
9509.000000;1.145981
9508.000000;1.145439
9507.000000;1.145197
9506.000000;1.144997
9505.000000;1.144565
9504.000000;1.143829
9503.000000;1.143007
9502.000000;1.142349
9501.000000;1.141845
9500.000000;1.141318
9499.000000;1.140743
9498.000000;1.140213
9497.000000;1.139675
9496.000000;1.139025
9495.000000;1.138472
9494.000000;1.138427
9493.000000;1.138851
9492.000000;1.139003
9491.000000;1.138163
9490.000000;1.136453
9489.000000;1.134703
9488.000000;1.133618
9487.000000;1.133279
9486.000000;1.133249
9485.000000;1.132930
9484.000000;1.131960
9483.000000;1.130508
9482.000000;1.129202
9481.000000;1.128555
9480.000000;1.128513
9479.000000;1.128739
9478.000000;1.129174
9477.000000;1.129919
9476.000000;1.130653
9475.000000;1.130678
9474.000000;1.129762
9473.000000;1.128511
9472.000000;1.127630
9471.000000;1.127117
9470.000000;1.126473
9469.000000;1.125461
9468.000000;1.124304
9467.000000;1.123302
9466.000000;1.122571
9465.000000;1.122101
9464.000000;1.121790
9463.000000;1.121482
9462.000000;1.121216
9461.000000;1.121312
9460.000000;1.121934
9459.000000;1.122596
9458.000000;1.122469
9457.000000;1.121288
9456.000000;1.119698
9455.000000;1.118570
9454.000000;1.118167
9453.000000;1.118045
9452.000000;1.117647
9451.000000;1.116902
9450.000000;1.116284
9449.000000;1.116298
9448.000000;1.116878
9447.000000;1.117406
9446.000000;1.117403
9445.000000;1.117022
9444.000000;1.116638
9443.000000;1.116206
9442.000000;1.115383
9441.000000;1.114128
9440.000000;1.112771
9439.000000;1.111526
9438.000000;1.110384
9437.000000;1.109550
9436.000000;1.109487
9435.000000;1.110264
9434.000000;1.111212
9433.000000;1.111517
9432.000000;1.110905
9431.000000;1.109551
9430.000000;1.107593
9429.000000;1.105130
9428.000000;1.102549
9427.000000;1.100491
9426.000000;1.099415
9425.000000;1.099335
9424.000000;1.099892
9423.000000;1.100595
9422.000000;1.101119
9421.000000;1.101499
9420.000000;1.101910
9419.000000;1.102196
9418.000000;1.101902
9417.000000;1.100945
9416.000000;1.099982
9415.000000;1.099744
9414.000000;1.100171
9413.000000;1.100522
9412.000000;1.100218
9411.000000;1.099214
9410.000000;1.097693
9409.000000;1.095897
9408.000000;1.094297
9407.000000;1.093476
9406.000000;1.093562
9405.000000;1.094029
9404.000000;1.094257
9403.000000;1.094130
9402.000000;1.093890
9401.000000;1.093593
9400.000000;1.093013
9399.000000;1.092011
9398.000000;1.090782
9397.000000;1.089718
9396.000000;1.089119
9395.000000;1.088961
9394.000000;1.088820
9393.000000;1.088123
9392.000000;1.086700
9391.000000;1.085089
9390.000000;1.084125
9389.000000;1.084175
9388.000000;1.084903
9387.000000;1.085773
9386.000000;1.086546
9385.000000;1.087161
9384.000000;1.087381
9383.000000;1.086956
9382.000000;1.086074
9381.000000;1.085275
9380.000000;1.084760
9379.000000;1.084093
9378.000000;1.082854
9377.000000;1.081389
9376.000000;1.080541
9375.000000;1.080689
9374.000000;1.081322
9373.000000;1.081621
9372.000000;1.081236
9371.000000;1.080377
9370.000000;1.079423
9369.000000;1.078633
9368.000000;1.078077
9367.000000;1.077606
9366.000000;1.076941
9365.000000;1.075961
9364.000000;1.074911
9363.000000;1.074180
9362.000000;1.073886
9361.000000;1.073777
9360.000000;1.073550
9359.000000;1.073170
9358.000000;1.072829
9357.000000;1.072627
9356.000000;1.072344
9355.000000;1.071585
9354.000000;1.070211
9353.000000;1.068613
9352.000000;1.067441
9351.000000;1.067036
9350.000000;1.067192
9349.000000;1.067467
9348.000000;1.067605
9347.000000;1.067594
9346.000000;1.067489
9345.000000;1.067315
9344.000000;1.067052
9343.000000;1.066576
9342.000000;1.065742
9341.000000;1.064703
9340.000000;1.064028
9339.000000;1.064203
9338.000000;1.065015
9337.000000;1.065663
9336.000000;1.065538
9335.000000;1.064686
9334.000000;1.063474
9333.000000;1.062152
9332.000000;1.060958
9331.000000;1.060338
9330.000000;1.060583
9329.000000;1.061272
9328.000000;1.061478
9327.000000;1.060747
9326.000000;1.059611
9325.000000;1.058904
9324.000000;1.058774
9323.000000;1.058677
9322.000000;1.058292
9321.000000;1.058038
9320.000000;1.058466
9319.000000;1.059370
9318.000000;1.059832
9317.000000;1.059144
9316.000000;1.057462
9315.000000;1.055462
9314.000000;1.053616
9313.000000;1.052017
9312.000000;1.050749
9311.000000;1.050124
9310.000000;1.050390
9309.000000;1.051327
9308.000000;1.052267
9307.000000;1.052554
9306.000000;1.051957
9305.000000;1.050714
9304.000000;1.049298
9303.000000;1.048151
9302.000000;1.047525
9301.000000;1.047406
9300.000000;1.047512
9299.000000;1.047420
9298.000000;1.046821
9297.000000;1.045749
9296.000000;1.044619
9295.000000;1.043961
9294.000000;1.044045
9293.000000;1.044704
9292.000000;1.045501
9291.000000;1.046069
9290.000000;1.046253
9289.000000;1.045969
9288.000000;1.045162
9287.000000;1.044061
9286.000000;1.043312
9285.000000;1.043508
9284.000000;1.044489
9283.000000;1.045353
9282.000000;1.045355
9281.000000;1.044637
9280.000000;1.043923
9279.000000;1.043647
9278.000000;1.043605
9277.000000;1.043369
9276.000000;1.042769
9275.000000;1.041918
9274.000000;1.041036
9273.000000;1.040344
9272.000000;1.039909
9271.000000;1.039458
9270.000000;1.038515
9269.000000;1.036970
9268.000000;1.035407
9267.000000;1.034625
9266.000000;1.034827
9265.000000;1.035425
9264.000000;1.035718
9263.000000;1.035602
9262.000000;1.035471
9261.000000;1.035521
9260.000000;1.035449
9259.000000;1.034896
9258.000000;1.033936
9257.000000;1.032912
9256.000000;1.031940
9255.000000;1.030867
9254.000000;1.029726
9253.000000;1.028935
9252.000000;1.028874
9251.000000;1.029422
9250.000000;1.030075
9249.000000;1.030434
9248.000000;1.030438
9247.000000;1.030183
9246.000000;1.029717
9245.000000;1.029081
9244.000000;1.028419
9243.000000;1.027964
9242.000000;1.027849
9241.000000;1.027916
9240.000000;1.027783
9239.000000;1.027231
9238.000000;1.026523
9237.000000;1.026177
9236.000000;1.026354
9235.000000;1.026611
9234.000000;1.026350
9233.000000;1.025375
9232.000000;1.023914
9231.000000;1.022309
9230.000000;1.020885
9229.000000;1.019947
9228.000000;1.019643
9227.000000;1.019878
9226.000000;1.020542
9225.000000;1.021656
9224.000000;1.023018
9223.000000;1.023942
9222.000000;1.023800
9221.000000;1.022837
9220.000000;1.021983
9219.000000;1.021774
9218.000000;1.021857
9217.000000;1.021680
9216.000000;1.021244
9215.000000;1.020895
9214.000000;1.020721
9213.000000;1.020502
9212.000000;1.020057
9211.000000;1.019330
9210.000000;1.018305
9209.000000;1.017166
9208.000000;1.016382
9207.000000;1.016290
9206.000000;1.016649
9205.000000;1.016887
9204.000000;1.016774
9203.000000;1.016525
9202.000000;1.016279
9201.000000;1.015848
9200.000000;1.015101
9199.000000;1.014273
9198.000000;1.013698
9197.000000;1.013430
9196.000000;1.013289
9195.000000;1.013089
9194.000000;1.012650
9193.000000;1.011781
9192.000000;1.010546
9191.000000;1.009443
9190.000000;1.009013
9189.000000;1.009237
9188.000000;1.009514
9187.000000;1.009297
9186.000000;1.008613
9185.000000;1.007912
9184.000000;1.007633
9183.000000;1.007984
9182.000000;1.008906
9181.000000;1.009981
9180.000000;1.010507
9179.000000;1.009981
9178.000000;1.008603
9177.000000;1.007112
9176.000000;1.006079
9175.000000;1.005502
9174.000000;1.005104
9173.000000;1.004783
9172.000000;1.004670
9171.000000;1.004882
9170.000000;1.005419
9169.000000;1.006200
9168.000000;1.007019
9167.000000;1.007528
9166.000000;1.007458
9165.000000;1.006869
9164.000000;1.006048
9163.000000;1.005152
9162.000000;1.004095
9161.000000;1.002793
9160.000000;1.001407
9159.000000;1.000298
9158.000000;0.999796
9157.000000;1.000010
9156.000000;1.000728
9155.000000;1.001509
9154.000000;1.001983
9153.000000;1.002090
9152.000000;1.001981
9151.000000;1.001712
9150.000000;1.001148
9149.000000;1.000169
9148.000000;0.998822
9147.000000;0.997302
9146.000000;0.995915
9145.000000;0.995086
9144.000000;0.995128
9143.000000;0.995819
9142.000000;0.996341
9141.000000;0.995946
9140.000000;0.994754
9139.000000;0.993728
9138.000000;0.993756
9137.000000;0.994789
9136.000000;0.995927
9135.000000;0.996320
9134.000000;0.995924
9133.000000;0.995381
9132.000000;0.995291
9131.000000;0.995696
9130.000000;0.996186
9129.000000;0.996315
9128.000000;0.995912
9127.000000;0.995130
9126.000000;0.994351
9125.000000;0.993923
9124.000000;0.993828
9123.000000;0.993626
9122.000000;0.992875
9121.000000;0.991616
9120.000000;0.990366
9119.000000;0.989670
9118.000000;0.989720
9117.000000;0.990352
9116.000000;0.991206
9115.000000;0.991883
9114.000000;0.992097
9113.000000;0.991801
9112.000000;0.991190
9111.000000;0.990543
9110.000000;0.990033
9109.000000;0.989642
9108.000000;0.989211
9107.000000;0.988624
9106.000000;0.987992
9105.000000;0.987577
9104.000000;0.987494
9103.000000;0.987592
9102.000000;0.987754
9101.000000;0.988144
9100.000000;0.988928
9099.000000;0.989806
9098.000000;0.990144
9097.000000;0.989649
9096.000000;0.988706
9095.000000;0.987925
9094.000000;0.987505
9093.000000;0.987162
9092.000000;0.986558
9091.000000;0.985678
9090.000000;0.984798
9089.000000;0.984173
9088.000000;0.983779
9087.000000;0.983390
9086.000000;0.982953
9085.000000;0.982787
9084.000000;0.983246
9083.000000;0.984194
9082.000000;0.984952
9081.000000;0.984858
9080.000000;0.983828
9079.000000;0.982363
9078.000000;0.981129
9077.000000;0.980522
9076.000000;0.980453
9075.000000;0.980484
9074.000000;0.980265
9073.000000;0.979916
9072.000000;0.979900
9071.000000;0.980507
9070.000000;0.981535
9069.000000;0.982462
9068.000000;0.982816
9067.000000;0.982412
9066.000000;0.981442
9065.000000;0.980386
9064.000000;0.979665
9063.000000;0.979280
9062.000000;0.978903
9061.000000;0.978373
9060.000000;0.977948
9059.000000;0.977956
9058.000000;0.978361
9057.000000;0.978815
9056.000000;0.978987
9055.000000;0.978732
9054.000000;0.978082
9053.000000;0.977233
