Criado como novo conjunto de dados;"1909daniel.spp","-4215581.1 Secs"
cm-1;Abs
10000.000000;1.283862
9999.000000;1.281651
9998.000000;1.279462
9997.000000;1.277258
9996.000000;1.275252
9995.000000;1.273875
9994.000000;1.273480
9993.000000;1.274070
9992.000000;1.274735
9991.000000;1.274188
9990.000000;1.272186
9989.000000;1.269924
9988.000000;1.268760
9987.000000;1.268929
9986.000000;1.269708
9985.000000;1.270420
9984.000000;1.270903
9983.000000;1.271212
9982.000000;1.271271
9981.000000;1.270786
9980.000000;1.269348
9979.000000;1.266742
9978.000000;1.263380
9977.000000;1.260291
9976.000000;1.258436
9975.000000;1.258043
9974.000000;1.258711
9973.000000;1.259983
9972.000000;1.261529
9971.000000;1.262874
9970.000000;1.263359
9969.000000;1.262678
9968.000000;1.261286
9967.000000;1.259906
9966.000000;1.258579
9965.000000;1.256566
9964.000000;1.253487
9963.000000;1.250294
9962.000000;1.248605
9961.000000;1.249026
9960.000000;1.250530
9959.000000;1.251584
9958.000000;1.251533
9957.000000;1.250669
9956.000000;1.249399
9955.000000;1.247963
9954.000000;1.246719
9953.000000;1.246040
9952.000000;1.245857
9951.000000;1.245696
9950.000000;1.245212
9949.000000;1.244372
9948.000000;1.243164
9947.000000;1.241578
9946.000000;1.239895
9945.000000;1.238524
9944.000000;1.237471
9943.000000;1.236402
9942.000000;1.235319
9941.000000;1.234688
9940.000000;1.234672
9939.000000;1.234719
9938.000000;1.234267
9937.000000;1.233497
9936.000000;1.232943
9935.000000;1.232580
9934.000000;1.231777
9933.000000;1.230134
9932.000000;1.228044
9931.000000;1.226393
9930.000000;1.225871
9929.000000;1.226468
9928.000000;1.227425
9927.000000;1.227754
9926.000000;1.227063
9925.000000;1.225912
9924.000000;1.225204
9923.000000;1.225202
9922.000000;1.225291
9921.000000;1.224746
9920.000000;1.223612
9919.000000;1.222733
9918.000000;1.222859
9917.000000;1.223706
9916.000000;1.223977
9915.000000;1.222489
9914.000000;1.219348
9913.000000;1.215853
9912.000000;1.213289
9911.000000;1.212015
9910.000000;1.211652
9909.000000;1.211747
9908.000000;1.212055
9907.000000;1.212399
9906.000000;1.212611
9905.000000;1.212664
9904.000000;1.212692
9903.000000;1.212826
9902.000000;1.213006
9901.000000;1.212916
9900.000000;1.212136
9899.000000;1.210569
9898.000000;1.208784
9897.000000;1.207684
9896.000000;1.207625
9895.000000;1.207965
9894.000000;1.207682
9893.000000;1.206358
9892.000000;1.204418
9891.000000;1.202564
9890.000000;1.201231
9889.000000;1.200455
9888.000000;1.199935
9887.000000;1.199165
9886.000000;1.197866
9885.000000;1.196438
9884.000000;1.195751
9883.000000;1.196235
9882.000000;1.197269
9881.000000;1.197635
9880.000000;1.196579
9879.000000;1.194332
9878.000000;1.191752
9877.000000;1.189703
9876.000000;1.188742
9875.000000;1.188968
9874.000000;1.189901
9873.000000;1.190675
9872.000000;1.190678
9871.000000;1.190006
9870.000000;1.189146
9869.000000;1.188287
9868.000000;1.187254
9867.000000;1.186052
9866.000000;1.185041
9865.000000;1.184408
9864.000000;1.183829
9863.000000;1.182964
9862.000000;1.182024
9861.000000;1.181440
9860.000000;1.181165
9859.000000;1.180733
9858.000000;1.179922
9857.000000;1.178938
9856.000000;1.177921
9855.000000;1.176764
9854.000000;1.175550
9853.000000;1.174710
9852.000000;1.174444
9851.000000;1.174291
9850.000000;1.173665
9849.000000;1.172660
9848.000000;1.171905
9847.000000;1.171644
9846.000000;1.171347
9845.000000;1.170305
9844.000000;1.168431
9843.000000;1.166410
9842.000000;1.165134
9841.000000;1.164961
9840.000000;1.165412
9839.000000;1.165595
9838.000000;1.165032
9837.000000;1.164043
9836.000000;1.163226
9835.000000;1.162685
9834.000000;1.162016
9833.000000;1.160950
9832.000000;1.159699
9831.000000;1.158631
9830.000000;1.157874
9829.000000;1.157372
9828.000000;1.157106
9827.000000;1.157032
9826.000000;1.156872
9825.000000;1.156293
9824.000000;1.155373
9823.000000;1.154656
9822.000000;1.154497
9821.000000;1.154499
9820.000000;1.153841
9819.000000;1.152172
9818.000000;1.150008
9817.000000;1.148190
9816.000000;1.147141
9815.000000;1.146739
9814.000000;1.146710
9813.000000;1.146885
9812.000000;1.147144
9811.000000;1.147304
9810.000000;1.147165
9809.000000;1.146593
9808.000000;1.145565
9807.000000;1.144214
9806.000000;1.142862
9805.000000;1.141882
9804.000000;1.141429
9803.000000;1.141260
9802.000000;1.140844
9801.000000;1.139691
9800.000000;1.137744
9799.000000;1.135529
9798.000000;1.133860
9797.000000;1.133242
9796.000000;1.133449
9795.000000;1.133674
9794.000000;1.133161
9793.000000;1.131746
9792.000000;1.129931
9791.000000;1.128478
9790.000000;1.127850
9789.000000;1.127872
9788.000000;1.127907
9787.000000;1.127471
9786.000000;1.126660
9785.000000;1.125912
9784.000000;1.125428
9783.000000;1.124985
9782.000000;1.124314
9781.000000;1.123460
9780.000000;1.122713
9779.000000;1.122276
9778.000000;1.122104
9777.000000;1.122007
9776.000000;1.121849
9775.000000;1.121585
9774.000000;1.121094
9773.000000;1.120071
9772.000000;1.118282
9771.000000;1.116054
9770.000000;1.114281
9769.000000;1.113660
9768.000000;1.113927
9767.000000;1.114082
9766.000000;1.113423
9765.000000;1.112186
9764.000000;1.111091
9763.000000;1.110548
9762.000000;1.110483
9761.000000;1.110687
9760.000000;1.110984
9759.000000;1.111125
9758.000000;1.110881
9757.000000;1.110365
9756.000000;1.110018
9755.000000;1.110083
9754.000000;1.110209
9753.000000;1.109792
9752.000000;1.108694
9751.000000;1.107425
9750.000000;1.106569
9749.000000;1.106194
9748.000000;1.105881
9747.000000;1.105142
9746.000000;1.103684
9745.000000;1.101503
9744.000000;1.099003
9743.000000;1.096925
9742.000000;1.095780
9741.000000;1.095282
9740.000000;1.094673
9739.000000;1.093682
9738.000000;1.092783
9737.000000;1.092379
9736.000000;1.092149
9735.000000;1.091547
9734.000000;1.090652
9733.000000;1.090059
9732.000000;1.090078
9731.000000;1.090509
9730.000000;1.091125
9729.000000;1.091777
9728.000000;1.091971
9727.000000;1.090959
9726.000000;1.088654
9725.000000;1.086077
9724.000000;1.084457
9723.000000;1.084009
9722.000000;1.083864
9721.000000;1.083089
9720.000000;1.081553
9719.000000;1.079844
9718.000000;1.078622
9717.000000;1.078141
9716.000000;1.078198
9715.000000;1.078354
9714.000000;1.078251
9713.000000;1.077823
9712.000000;1.077230
9711.000000;1.076575
9710.000000;1.075749
9709.000000;1.074534
9708.000000;1.072891
9707.000000;1.071152
9706.000000;1.069879
9705.000000;1.069384
9704.000000;1.069379
9703.000000;1.069257
9702.000000;1.068731
9701.000000;1.068067
9700.000000;1.067654
9699.000000;1.067529
9698.000000;1.067416
9697.000000;1.067033
9696.000000;1.066227
9695.000000;1.064989
9694.000000;1.063616
9693.000000;1.062753
9692.000000;1.062934
9691.000000;1.063962
9690.000000;1.064916
9689.000000;1.064926
9688.000000;1.063858
9687.000000;1.062209
9686.000000;1.060483
9685.000000;1.058833
9684.000000;1.057215
9683.000000;1.055687
9682.000000;1.054486
9681.000000;1.053855
9680.000000;1.053836
9679.000000;1.054171
9678.000000;1.054369
9677.000000;1.053957
9676.000000;1.052783
9675.000000;1.051168
9674.000000;1.049752
9673.000000;1.049070
9672.000000;1.049150
9671.000000;1.049479
9670.000000;1.049409
9669.000000;1.048652
9668.000000;1.047435
9667.000000;1.046192
9666.000000;1.045175
9665.000000;1.044353
9664.000000;1.043617
9663.000000;1.042963
9662.000000;1.042469
9661.000000;1.042163
9660.000000;1.041976
9659.000000;1.041760
9658.000000;1.041320
9657.000000;1.040498
9656.000000;1.039348
9655.000000;1.038189
9654.000000;1.037342
9653.000000;1.036794
9652.000000;1.036248
9651.000000;1.035524
9650.000000;1.034753
9649.000000;1.034119
9648.000000;1.033557
9647.000000;1.032874
9646.000000;1.032056
9645.000000;1.031248
9644.000000;1.030457
9643.000000;1.029485
9642.000000;1.028209
9641.000000;1.026792
9640.000000;1.025543
9639.000000;1.024670
9638.000000;1.024188
9637.000000;1.023935
9636.000000;1.023597
9635.000000;1.022865
9634.000000;1.021772
9633.000000;1.020772
9632.000000;1.020294
9631.000000;1.020211
9630.000000;1.019965
9629.000000;1.019248
9628.000000;1.018402
9627.000000;1.017990
9626.000000;1.018101
9625.000000;1.018240
9624.000000;1.017894
9623.000000;1.017029
9622.000000;1.016016
9621.000000;1.015245
9620.000000;1.014863
9619.000000;1.014714
9618.000000;1.014399
9617.000000;1.013488
9616.000000;1.011891
9615.000000;1.010044
9614.000000;1.008612
9613.000000;1.007933
9612.000000;1.007779
9611.000000;1.007659
9610.000000;1.007268
9609.000000;1.006657
9608.000000;1.006072
9607.000000;1.005695
9606.000000;1.005504
9605.000000;1.005308
9604.000000;1.004897
9603.000000;1.004194
9602.000000;1.003286
9601.000000;1.002319
9600.000000;1.001371
9599.000000;1.000417
9598.000000;0.999443
9597.000000;0.998604
9596.000000;0.998173
9595.000000;0.998203
9594.000000;0.998268
9593.000000;0.997798
9592.000000;0.996768
9591.000000;0.995819
9590.000000;0.995464
9589.000000;0.995380
9588.000000;0.994771
9587.000000;0.993398
9586.000000;0.991861
9585.000000;0.990841
9584.000000;0.990396
9583.000000;0.990122
9582.000000;0.989714
9581.000000;0.989197
9580.000000;0.988745
9579.000000;0.988444
9578.000000;0.988148
9577.000000;0.987505
9576.000000;0.986298
9575.000000;0.984840
9574.000000;0.983837
9573.000000;0.983678
9572.000000;0.983980
9571.000000;0.983953
9570.000000;0.983131
9569.000000;0.981694
9568.000000;0.980210
9567.000000;0.979206
9566.000000;0.978817
9565.000000;0.978648
9564.000000;0.978072
9563.000000;0.976873
9562.000000;0.975582
9561.000000;0.975003
9560.000000;0.975445
9559.000000;0.976446
9558.000000;0.977187
9557.000000;0.977075
9556.000000;0.976079
9555.000000;0.974690
9554.000000;0.973517
9553.000000;0.972754
9552.000000;0.972035
9551.000000;0.970932
9550.000000;0.969534
9549.000000;0.968380
9548.000000;0.967841
9547.000000;0.967778
9546.000000;0.967788
9545.000000;0.967605
9544.000000;0.967192
9543.000000;0.966586
9542.000000;0.965799
9541.000000;0.964818
9540.000000;0.963673
9539.000000;0.962522
9538.000000;0.961646
9537.000000;0.961298
9536.000000;0.961513
9535.000000;0.962035
9534.000000;0.962430
9533.000000;0.962290
9532.000000;0.961478
9531.000000;0.960251
9530.000000;0.959047
9529.000000;0.958067
9528.000000;0.957138
9527.000000;0.956040
9526.000000;0.954852
9525.000000;0.953798
9524.000000;0.952886
9523.000000;0.951966
9522.000000;0.951105
9521.000000;0.950611
9520.000000;0.950541
9519.000000;0.950403
9518.000000;0.949614
9517.000000;0.948221
9516.000000;0.946948
9515.000000;0.946449
9514.000000;0.946671
9513.000000;0.947048
9512.000000;0.947170
9511.000000;0.947019
9510.000000;0.946593
9509.000000;0.945650
9508.000000;0.944081
9507.000000;0.942309
9506.000000;0.940990
9505.000000;0.940368
9504.000000;0.940201
9503.000000;0.940266
9502.000000;0.940529
9501.000000;0.940790
9500.000000;0.940609
9499.000000;0.939823
9498.000000;0.938834
9497.000000;0.938063
9496.000000;0.937400
9495.000000;0.936493
9494.000000;0.935407
9493.000000;0.934589
9492.000000;0.934237
9491.000000;0.934063
9490.000000;0.933715
9489.000000;0.933179
9488.000000;0.932691
9487.000000;0.932411
9486.000000;0.932275
9485.000000;0.932095
9484.000000;0.931745
9483.000000;0.931262
9482.000000;0.930692
9481.000000;0.929874
9480.000000;0.928618
9479.000000;0.927203
9478.000000;0.926368
9477.000000;0.926508
9476.000000;0.927082
9475.000000;0.927163
9474.000000;0.926447
9473.000000;0.925335
9472.000000;0.924135
9471.000000;0.922688
9470.000000;0.920880
9469.000000;0.919041
9468.000000;0.917622
9467.000000;0.916777
9466.000000;0.916457
9465.000000;0.916625
9464.000000;0.917125
9463.000000;0.917546
9462.000000;0.917518
9461.000000;0.917078
9460.000000;0.916517
9459.000000;0.915933
9458.000000;0.915205
9457.000000;0.914380
9456.000000;0.913836
9455.000000;0.913888
9454.000000;0.914316
9453.000000;0.914440
9452.000000;0.913734
9451.000000;0.912366
9450.000000;0.911049
9449.000000;0.910332
9448.000000;0.910120
9447.000000;0.909921
9446.000000;0.909436
9445.000000;0.908749
9444.000000;0.908006
9443.000000;0.907195
9442.000000;0.906285
9441.000000;0.905372
9440.000000;0.904542
9439.000000;0.903798
9438.000000;0.903287
9437.000000;0.903393
9436.000000;0.904304
9435.000000;0.905486
9434.000000;0.905899
9433.000000;0.904925
9432.000000;0.902985
9431.000000;0.901086
9430.000000;0.899880
9429.000000;0.899311
9428.000000;0.899041
9427.000000;0.898924
9426.000000;0.898954
9425.000000;0.898967
9424.000000;0.898687
9423.000000;0.898049
9422.000000;0.897292
9421.000000;0.896668
9420.000000;0.896168
9419.000000;0.895608
9418.000000;0.894894
9417.000000;0.894138
9416.000000;0.893558
9415.000000;0.893260
9414.000000;0.893043
9413.000000;0.892502
9412.000000;0.891432
9411.000000;0.890114
9410.000000;0.889060
9409.000000;0.888500
9408.000000;0.888266
9407.000000;0.888110
9406.000000;0.887880
9405.000000;0.887397
9404.000000;0.886537
9403.000000;0.885546
9402.000000;0.884964
9401.000000;0.885006
9400.000000;0.885247
9399.000000;0.885137
9398.000000;0.884604
9397.000000;0.883938
9396.000000;0.883309
9395.000000;0.882705
9394.000000;0.882146
9393.000000;0.881600
9392.000000;0.880807
9391.000000;0.879568
9390.000000;0.878161
9389.000000;0.877142
9388.000000;0.876731
9387.000000;0.876672
9386.000000;0.876685
9385.000000;0.876729
9384.000000;0.876795
9383.000000;0.876738
9382.000000;0.876439
9381.000000;0.875939
9380.000000;0.875326
9379.000000;0.874663
9378.000000;0.874052
9377.000000;0.873552
9376.000000;0.872993
9375.000000;0.872101
9374.000000;0.870892
9373.000000;0.869772
9372.000000;0.869147
9371.000000;0.869052
9370.000000;0.869183
9369.000000;0.869153
9368.000000;0.868714
9367.000000;0.867922
9366.000000;0.867130
9365.000000;0.866674
9364.000000;0.866535
9363.000000;0.866405
9362.000000;0.866053
9361.000000;0.865401
9360.000000;0.864352
9359.000000;0.862864
9358.000000;0.861293
9357.000000;0.860300
9356.000000;0.860217
9355.000000;0.860673
9354.000000;0.860995
9353.000000;0.860812
9352.000000;0.860132
9351.000000;0.859094
9350.000000;0.857904
9349.000000;0.856899
9348.000000;0.856340
9347.000000;0.856121
9346.000000;0.855875
9345.000000;0.855437
9344.000000;0.855051
9343.000000;0.855021
9342.000000;0.855266
9341.000000;0.855359
9340.000000;0.855032
9339.000000;0.854528
9338.000000;0.854364
9337.000000;0.854766
9336.000000;0.855425
9335.000000;0.855780
9334.000000;0.855403
9333.000000;0.854134
9332.000000;0.852111
9331.000000;0.849860
9330.000000;0.848179
9329.000000;0.847622
9328.000000;0.848051
9327.000000;0.848813
9326.000000;0.849309
9325.000000;0.849263
9324.000000;0.848596
9323.000000;0.847360
9322.000000;0.845872
9321.000000;0.844632
9320.000000;0.843959
9319.000000;0.843778
9318.000000;0.843812
9317.000000;0.843855
9316.000000;0.843836
9315.000000;0.843728
9314.000000;0.843471
9313.000000;0.842974
9312.000000;0.842230
9311.000000;0.841486
9310.000000;0.841123
9309.000000;0.841203
9308.000000;0.841268
9307.000000;0.840816
9306.000000;0.839908
9305.000000;0.839015
9304.000000;0.838354
9303.000000;0.837719
9302.000000;0.836940
9301.000000;0.836146
9300.000000;0.835487
9299.000000;0.834952
9298.000000;0.834582
9297.000000;0.834565
9296.000000;0.834935
9295.000000;0.835367
9294.000000;0.835449
9293.000000;0.835003
9292.000000;0.834099
9291.000000;0.832956
9290.000000;0.831901
9289.000000;0.831173
9288.000000;0.830678
9287.000000;0.830168
9286.000000;0.829742
9285.000000;0.829790
9284.000000;0.830248
9283.000000;0.830283
9282.000000;0.829092
9281.000000;0.826849
9280.000000;0.824546
9279.000000;0.823055
9278.000000;0.822576
9277.000000;0.822790
9276.000000;0.823186
9275.000000;0.823305
9274.000000;0.823017
9273.000000;0.822635
9272.000000;0.822559
9271.000000;0.822807
9270.000000;0.823043
9269.000000;0.823015
9268.000000;0.822756
9267.000000;0.822382
9266.000000;0.821930
9265.000000;0.821428
9264.000000;0.820950
9263.000000;0.820547
9262.000000;0.820224
9261.000000;0.819985
9260.000000;0.819788
9259.000000;0.819462
9258.000000;0.818805
9257.000000;0.817808
9256.000000;0.816728
9255.000000;0.815908
9254.000000;0.815553
9253.000000;0.815610
9252.000000;0.815845
9251.000000;0.816071
9250.000000;0.816292
9249.000000;0.816509
9248.000000;0.816426
9247.000000;0.815642
9246.000000;0.814246
9245.000000;0.812973
9244.000000;0.812504
9243.000000;0.812751
9242.000000;0.813027
9241.000000;0.812791
9240.000000;0.812020
9239.000000;0.810998
9238.000000;0.810079
9237.000000;0.809584
9236.000000;0.809554
9235.000000;0.809595
9234.000000;0.809248
9233.000000;0.808559
9232.000000;0.807969
9231.000000;0.807647
9230.000000;0.807311
9229.000000;0.806812
9228.000000;0.806460
9227.000000;0.806465
9226.000000;0.806407
9225.000000;0.805692
9224.000000;0.804421
9223.000000;0.803380
9222.000000;0.803145
9221.000000;0.803533
9220.000000;0.803991
9219.000000;0.804191
9218.000000;0.804111
9217.000000;0.803785
9216.000000;0.803274
9215.000000;0.802741
9214.000000;0.802334
9213.000000;0.802000
9212.000000;0.801604
9211.000000;0.801237
9210.000000;0.801152
9209.000000;0.801333
9208.000000;0.801321
9207.000000;0.800664
9206.000000;0.799455
9205.000000;0.798257
9204.000000;0.797505
9203.000000;0.797146
9202.000000;0.796870
9201.000000;0.796521
9200.000000;0.796178
9199.000000;0.795967
9198.000000;0.795920
9197.000000;0.795983
9196.000000;0.796019
9195.000000;0.795809
9194.000000;0.795177
9193.000000;0.794180
9192.000000;0.793137
9191.000000;0.792404
9190.000000;0.792093
9189.000000;0.792020
9188.000000;0.791893
9187.000000;0.791560
9186.000000;0.791091
9185.000000;0.790664
9184.000000;0.790401
9183.000000;0.790300
9182.000000;0.790264
9181.000000;0.790152
9180.000000;0.789861
9179.000000;0.789431
9178.000000;0.789037
9177.000000;0.788791
9176.000000;0.788575
9175.000000;0.788139
9174.000000;0.787372
9173.000000;0.786421
9172.000000;0.785546
9171.000000;0.784971
9170.000000;0.784828
9169.000000;0.785078
9168.000000;0.785433
9167.000000;0.785506
9166.000000;0.785172
9165.000000;0.784679
9164.000000;0.784311
9163.000000;0.784029
9162.000000;0.783598
9161.000000;0.782973
9160.000000;0.782386
9159.000000;0.782022
9158.000000;0.781781
9157.000000;0.781398
9156.000000;0.780739
9155.000000;0.779922
9154.000000;0.779230
9153.000000;0.778940
9152.000000;0.779130
9151.000000;0.779599
9150.000000;0.779987
9149.000000;0.780033
9148.000000;0.779716
9147.000000;0.779159
9146.000000;0.778458
9145.000000;0.777667
9144.000000;0.776884
9143.000000;0.776252
9142.000000;0.775862
9141.000000;0.775718
9140.000000;0.775820
9139.000000;0.776179
9138.000000;0.776694
9137.000000;0.777067
9136.000000;0.776982
9135.000000;0.776395
9134.000000;0.775591
9133.000000;0.774914
9132.000000;0.774491
9131.000000;0.774254
9130.000000;0.774115
9129.000000;0.774020
9128.000000;0.773870
9127.000000;0.773527
9126.000000;0.772999
9125.000000;0.772541
9124.000000;0.772481
9123.000000;0.772861
9122.000000;0.773312
9121.000000;0.773343
9120.000000;0.772820
9119.000000;0.772095
9118.000000;0.771623
9117.000000;0.771478
9116.000000;0.771345
9115.000000;0.770952
9114.000000;0.770377
9113.000000;0.769869
9112.000000;0.769526
9111.000000;0.769245
9110.000000;0.768897
9109.000000;0.768461
9108.000000;0.768047
9107.000000;0.767875
9106.000000;0.768103
9105.000000;0.768554
9104.000000;0.768705
9103.000000;0.768131
9102.000000;0.766957
9101.000000;0.765760
9100.000000;0.765061
9099.000000;0.764993
9098.000000;0.765367
9097.000000;0.765840
9096.000000;0.766033
9095.000000;0.765733
9094.000000;0.765057
9093.000000;0.764318
9092.000000;0.763689
9091.000000;0.763110
9090.000000;0.762516
9089.000000;0.761965
9088.000000;0.761504
9087.000000;0.761069
9086.000000;0.760620
9085.000000;0.760223
9084.000000;0.759923
9083.000000;0.759658
9082.000000;0.759416
9081.000000;0.759316
9080.000000;0.759399
9079.000000;0.759440
9078.000000;0.759121
9077.000000;0.758369
9076.000000;0.757402
9075.000000;0.756507
9074.000000;0.755891
9073.000000;0.755695
9072.000000;0.755987
9071.000000;0.756646
9070.000000;0.757337
9069.000000;0.757715
9068.000000;0.757691
9067.000000;0.757473
9066.000000;0.757315
9065.000000;0.757216
9064.000000;0.756891
9063.000000;0.756119
9062.000000;0.755082
9061.000000;0.754245
9060.000000;0.753902
9059.000000;0.753920
9058.000000;0.753955
9057.000000;0.753803
9056.000000;0.753485
9055.000000;0.753106
9054.000000;0.752749
9053.000000;0.752456
