Criado como novo conjunto de dados;"1909daniel.spp","-4283984.7 Secs"
cm-1;Abs
10000.000000;1.088499
9999.000000;1.086916
9998.000000;1.085323
9997.000000;1.083765
9996.000000;1.082133
9995.000000;1.080777
9994.000000;1.079960
9993.000000;1.079502
9992.000000;1.079212
9991.000000;1.078826
9990.000000;1.078226
9989.000000;1.077461
9988.000000;1.076554
9987.000000;1.075404
9986.000000;1.074109
9985.000000;1.073077
9984.000000;1.072515
9983.000000;1.072074
9982.000000;1.071350
9981.000000;1.070502
9980.000000;1.069944
9979.000000;1.069592
9978.000000;1.068982
9977.000000;1.068026
9976.000000;1.067096
9975.000000;1.066352
9974.000000;1.065517
9973.000000;1.064459
9972.000000;1.063514
9971.000000;1.062991
9970.000000;1.062706
9969.000000;1.062236
9968.000000;1.061412
9967.000000;1.060339
9966.000000;1.059164
9965.000000;1.058060
9964.000000;1.057276
9963.000000;1.056916
9962.000000;1.056693
9961.000000;1.056136
9960.000000;1.055107
9959.000000;1.053990
9958.000000;1.053326
9957.000000;1.053321
9956.000000;1.053767
9955.000000;1.054344
9954.000000;1.054819
9953.000000;1.054920
9952.000000;1.054293
9951.000000;1.052866
9950.000000;1.051132
9949.000000;1.049677
9948.000000;1.048452
9947.000000;1.046913
9946.000000;1.044981
9945.000000;1.043421
9944.000000;1.042956
9943.000000;1.043331
9942.000000;1.043634
9941.000000;1.043351
9940.000000;1.042715
9939.000000;1.042195
9938.000000;1.042062
9937.000000;1.042392
9936.000000;1.043025
9935.000000;1.043413
9934.000000;1.042901
9933.000000;1.041354
9932.000000;1.039320
9931.000000;1.037523
9930.000000;1.036358
9929.000000;1.035805
9928.000000;1.035482
9927.000000;1.034731
9926.000000;1.033036
9925.000000;1.030599
9924.000000;1.028331
9923.000000;1.027076
9922.000000;1.026932
9921.000000;1.027399
9920.000000;1.027959
9919.000000;1.028351
9918.000000;1.028456
9917.000000;1.028174
9916.000000;1.027500
9915.000000;1.026603
9914.000000;1.025746
9913.000000;1.025095
9912.000000;1.024561
9911.000000;1.023867
9910.000000;1.022878
9909.000000;1.021818
9908.000000;1.021021
9907.000000;1.020459
9906.000000;1.019690
9905.000000;1.018373
9904.000000;1.016689
9903.000000;1.015153
9902.000000;1.014129
9901.000000;1.013689
9900.000000;1.013814
9899.000000;1.014472
9898.000000;1.015379
9897.000000;1.015896
9896.000000;1.015453
9895.000000;1.014153
9894.000000;1.012751
9893.000000;1.011918
9892.000000;1.011610
9891.000000;1.011265
9890.000000;1.010505
9889.000000;1.009402
9888.000000;1.008081
9887.000000;1.006421
9886.000000;1.004381
9885.000000;1.002412
9884.000000;1.001206
9883.000000;1.001016
9882.000000;1.001375
9881.000000;1.001564
9880.000000;1.001253
9879.000000;1.000635
9878.000000;1.000043
9877.000000;0.999554
9876.000000;0.998966
9875.000000;0.998109
9874.000000;0.997067
9873.000000;0.996094
9872.000000;0.995396
9871.000000;0.995060
9870.000000;0.995083
9869.000000;0.995288
9868.000000;0.995241
9867.000000;0.994509
9866.000000;0.993066
9865.000000;0.991333
9864.000000;0.989766
9863.000000;0.988541
9862.000000;0.987685
9861.000000;0.987283
9860.000000;0.987349
9859.000000;0.987600
9858.000000;0.987526
9857.000000;0.986723
9856.000000;0.985157
9855.000000;0.983238
9854.000000;0.981647
9853.000000;0.980905
9852.000000;0.980920
9851.000000;0.981011
9850.000000;0.980516
9849.000000;0.979384
9848.000000;0.978078
9847.000000;0.977039
9846.000000;0.976362
9845.000000;0.975872
9844.000000;0.975350
9843.000000;0.974677
9842.000000;0.973898
9841.000000;0.973179
9840.000000;0.972681
9839.000000;0.972503
9838.000000;0.972628
9837.000000;0.972792
9836.000000;0.972480
9835.000000;0.971354
9834.000000;0.969770
9833.000000;0.968568
9832.000000;0.968192
9831.000000;0.968224
9830.000000;0.967969
9829.000000;0.967238
9828.000000;0.966305
9827.000000;0.965326
9826.000000;0.964207
9825.000000;0.962995
9824.000000;0.962006
9823.000000;0.961475
9822.000000;0.961303
9821.000000;0.961211
9820.000000;0.960975
9819.000000;0.960460
9818.000000;0.959599
9817.000000;0.958458
9816.000000;0.957245
9815.000000;0.956198
9814.000000;0.955473
9813.000000;0.955100
9812.000000;0.954943
9811.000000;0.954763
9810.000000;0.954399
9809.000000;0.953873
9808.000000;0.953235
9807.000000;0.952364
9806.000000;0.951056
9805.000000;0.949303
9804.000000;0.947432
9803.000000;0.945956
9802.000000;0.945287
9801.000000;0.945444
9800.000000;0.945952
9799.000000;0.946122
9798.000000;0.945605
9797.000000;0.944639
9796.000000;0.943758
9795.000000;0.943312
9794.000000;0.943288
9793.000000;0.943377
9792.000000;0.943151
9791.000000;0.942346
9790.000000;0.941134
9789.000000;0.939992
9788.000000;0.939187
9787.000000;0.938519
9786.000000;0.937655
9785.000000;0.936558
9784.000000;0.935476
9783.000000;0.934685
9782.000000;0.934368
9781.000000;0.934524
9780.000000;0.934810
9779.000000;0.934677
9778.000000;0.933896
9777.000000;0.932786
9776.000000;0.931703
9775.000000;0.930557
9774.000000;0.929105
9773.000000;0.927477
9772.000000;0.926025
9771.000000;0.924807
9770.000000;0.923646
9769.000000;0.922583
9768.000000;0.921859
9767.000000;0.921461
9766.000000;0.921082
9765.000000;0.920593
9764.000000;0.920193
9763.000000;0.920024
9762.000000;0.919965
9761.000000;0.919892
9760.000000;0.919806
9759.000000;0.919621
9758.000000;0.919136
9757.000000;0.918383
9756.000000;0.917742
9755.000000;0.917491
9754.000000;0.917413
9753.000000;0.917017
9752.000000;0.916016
9751.000000;0.914504
9750.000000;0.912817
9749.000000;0.911339
9748.000000;0.910289
9747.000000;0.909527
9746.000000;0.908671
9745.000000;0.907524
9744.000000;0.906325
9743.000000;0.905488
9742.000000;0.905177
9741.000000;0.905200
9740.000000;0.905225
9739.000000;0.905046
9738.000000;0.904680
9737.000000;0.904268
9736.000000;0.903854
9735.000000;0.903288
9734.000000;0.902413
9733.000000;0.901276
9732.000000;0.900032
9731.000000;0.898740
9730.000000;0.897414
9729.000000;0.896212
9728.000000;0.895368
9727.000000;0.894956
9726.000000;0.894875
9725.000000;0.895011
9724.000000;0.895194
9723.000000;0.895106
9722.000000;0.894481
9721.000000;0.893442
9720.000000;0.892376
9719.000000;0.891497
9718.000000;0.890765
9717.000000;0.890217
9716.000000;0.890004
9715.000000;0.889999
9714.000000;0.889722
9713.000000;0.888869
9712.000000;0.887706
9711.000000;0.886717
9710.000000;0.886040
9709.000000;0.885407
9708.000000;0.884509
9707.000000;0.883260
9706.000000;0.881818
9705.000000;0.880530
9704.000000;0.879756
9703.000000;0.879565
9702.000000;0.879674
9701.000000;0.879793
9700.000000;0.879924
9699.000000;0.880173
9698.000000;0.880374
9697.000000;0.880111
9696.000000;0.879125
9695.000000;0.877578
9694.000000;0.875892
9693.000000;0.874387
9692.000000;0.873079
9691.000000;0.871826
9690.000000;0.870653
9689.000000;0.869851
9688.000000;0.869675
9687.000000;0.869965
9686.000000;0.870239
9685.000000;0.870151
9684.000000;0.869737
9683.000000;0.869176
9682.000000;0.868518
9681.000000;0.867764
9680.000000;0.867032
9679.000000;0.866473
9678.000000;0.866072
9677.000000;0.865632
9676.000000;0.864947
9675.000000;0.863960
9674.000000;0.862810
9673.000000;0.861712
9672.000000;0.860743
9671.000000;0.859755
9670.000000;0.858597
9669.000000;0.857394
9668.000000;0.856464
9667.000000;0.855939
9666.000000;0.855630
9665.000000;0.855288
9664.000000;0.854866
9663.000000;0.854450
9662.000000;0.854088
9661.000000;0.853788
9660.000000;0.853577
9659.000000;0.853447
9658.000000;0.853267
9657.000000;0.852832
9656.000000;0.851992
9655.000000;0.850772
9654.000000;0.849398
9653.000000;0.848184
9652.000000;0.847291
9651.000000;0.846595
9650.000000;0.845869
9649.000000;0.845056
9648.000000;0.844293
9647.000000;0.843722
9646.000000;0.843353
9645.000000;0.843080
9644.000000;0.842700
9643.000000;0.841987
9642.000000;0.840902
9641.000000;0.839672
9640.000000;0.838578
9639.000000;0.837748
9638.000000;0.837230
9637.000000;0.837032
9636.000000;0.836902
9635.000000;0.836337
9634.000000;0.835167
9633.000000;0.833961
9632.000000;0.833386
9631.000000;0.833309
9630.000000;0.833038
9629.000000;0.832394
9628.000000;0.831919
9627.000000;0.831912
9626.000000;0.831911
9625.000000;0.831440
9624.000000;0.830691
9623.000000;0.830054
9622.000000;0.829435
9621.000000;0.828566
9620.000000;0.827659
9619.000000;0.827156
9618.000000;0.826997
9617.000000;0.826656
9616.000000;0.825873
9615.000000;0.824905
9614.000000;0.824029
9613.000000;0.823163
9612.000000;0.822115
9611.000000;0.820916
9610.000000;0.819825
9609.000000;0.819121
9608.000000;0.818898
9607.000000;0.818904
9606.000000;0.818657
9605.000000;0.817891
9604.000000;0.816839
9603.000000;0.815933
9602.000000;0.815308
9601.000000;0.814811
9600.000000;0.814368
9599.000000;0.814056
9598.000000;0.813830
9597.000000;0.813430
9596.000000;0.812652
9595.000000;0.811582
9594.000000;0.810521
9593.000000;0.809771
9592.000000;0.809410
9591.000000;0.809162
9590.000000;0.808584
9589.000000;0.807551
9588.000000;0.806463
9587.000000;0.805761
9586.000000;0.805390
9585.000000;0.804969
9584.000000;0.804378
9583.000000;0.803814
9582.000000;0.803331
9581.000000;0.802712
9580.000000;0.801924
9579.000000;0.801311
9578.000000;0.801153
9577.000000;0.801266
9576.000000;0.801213
9575.000000;0.800754
9574.000000;0.799913
9573.000000;0.798804
9572.000000;0.797571
9571.000000;0.796418
9570.000000;0.795503
9569.000000;0.794820
9568.000000;0.794267
9567.000000;0.793764
9566.000000;0.793231
9565.000000;0.792572
9564.000000;0.791809
9563.000000;0.791152
9562.000000;0.790791
9561.000000;0.790643
9560.000000;0.790432
9559.000000;0.789983
9558.000000;0.789342
9557.000000;0.788639
9556.000000;0.787962
9555.000000;0.787371
9554.000000;0.786882
9553.000000;0.786389
9552.000000;0.785718
9551.000000;0.784855
9550.000000;0.784026
9549.000000;0.783477
9548.000000;0.783208
9547.000000;0.783022
9546.000000;0.782797
9545.000000;0.782577
9544.000000;0.782353
9543.000000;0.781925
9542.000000;0.781089
9541.000000;0.779891
9540.000000;0.778614
9539.000000;0.777545
9538.000000;0.776836
9537.000000;0.776508
9536.000000;0.776415
9535.000000;0.776231
9534.000000;0.775641
9533.000000;0.774637
9532.000000;0.773519
9531.000000;0.772566
9530.000000;0.771796
9529.000000;0.771050
9528.000000;0.770220
9527.000000;0.769334
9526.000000;0.768500
9525.000000;0.767792
9524.000000;0.767155
9523.000000;0.766455
9522.000000;0.765674
9521.000000;0.765009
9520.000000;0.764644
9519.000000;0.764478
9518.000000;0.764273
9517.000000;0.764015
9516.000000;0.763892
9515.000000;0.763896
9514.000000;0.763724
9513.000000;0.763181
9512.000000;0.762428
9511.000000;0.761703
9510.000000;0.761027
9509.000000;0.760340
9508.000000;0.759682
9507.000000;0.759048
9506.000000;0.758262
9505.000000;0.757226
9504.000000;0.756174
9503.000000;0.755460
9502.000000;0.755205
9501.000000;0.755289
9500.000000;0.755533
9499.000000;0.755698
9498.000000;0.755505
9497.000000;0.754926
9496.000000;0.754304
9495.000000;0.753942
9494.000000;0.753698
9493.000000;0.753257
9492.000000;0.752637
9491.000000;0.752068
9490.000000;0.751496
9489.000000;0.750644
9488.000000;0.749536
9487.000000;0.748535
9486.000000;0.747795
9485.000000;0.747054
9484.000000;0.746099
9483.000000;0.745108
9482.000000;0.744359
9481.000000;0.743886
9480.000000;0.743591
9479.000000;0.743423
9478.000000;0.743261
9477.000000;0.742834
9476.000000;0.741987
9475.000000;0.740906
9474.000000;0.739904
9473.000000;0.739139
9472.000000;0.738641
9471.000000;0.738431
9470.000000;0.738384
9469.000000;0.738139
9468.000000;0.737398
9467.000000;0.736319
9466.000000;0.735450
9465.000000;0.735239
9464.000000;0.735623
9463.000000;0.736055
9462.000000;0.735901
9461.000000;0.734959
9460.000000;0.733650
9459.000000;0.732596
9458.000000;0.731980
9457.000000;0.731447
9456.000000;0.730660
9455.000000;0.729708
9454.000000;0.728864
9453.000000;0.728205
9452.000000;0.727671
9451.000000;0.727322
9450.000000;0.727219
9449.000000;0.727172
9448.000000;0.726882
9447.000000;0.726321
9446.000000;0.725711
9445.000000;0.725157
9444.000000;0.724538
9443.000000;0.723817
9442.000000;0.723210
9441.000000;0.722918
9440.000000;0.722840
9439.000000;0.722686
9438.000000;0.722302
9437.000000;0.721778
9436.000000;0.721285
9435.000000;0.720873
9434.000000;0.720445
9433.000000;0.719903
9432.000000;0.719256
9431.000000;0.718558
9430.000000;0.717737
9429.000000;0.716613
9428.000000;0.715197
9427.000000;0.713861
9426.000000;0.713049
9425.000000;0.712813
9424.000000;0.712773
9423.000000;0.712548
9422.000000;0.712125
9421.000000;0.711767
9420.000000;0.711666
9419.000000;0.711715
9418.000000;0.711605
9417.000000;0.711122
9416.000000;0.710375
9415.000000;0.709688
9414.000000;0.709199
9413.000000;0.708663
9412.000000;0.707770
9411.000000;0.706620
9410.000000;0.705678
9409.000000;0.705283
9408.000000;0.705374
9407.000000;0.705683
9406.000000;0.705949
9405.000000;0.705845
9404.000000;0.705030
9403.000000;0.703563
9402.000000;0.702129
9401.000000;0.701488
9400.000000;0.701670
9399.000000;0.701919
9398.000000;0.701491
9397.000000;0.700353
9396.000000;0.699066
9395.000000;0.698179
9394.000000;0.697845
9393.000000;0.697838
9392.000000;0.697751
9391.000000;0.697276
9390.000000;0.696460
9389.000000;0.695694
9388.000000;0.695319
9387.000000;0.695295
9386.000000;0.695322
9385.000000;0.695216
9384.000000;0.695007
9383.000000;0.694693
9382.000000;0.694151
9381.000000;0.693369
9380.000000;0.692601
9379.000000;0.692105
9378.000000;0.691813
9377.000000;0.691405
9376.000000;0.690711
9375.000000;0.689883
9374.000000;0.689175
9373.000000;0.688663
9372.000000;0.688251
9371.000000;0.687862
9370.000000;0.687510
9369.000000;0.687205
9368.000000;0.686865
9367.000000;0.686364
9366.000000;0.685653
9365.000000;0.684813
9364.000000;0.683992
9363.000000;0.683287
9362.000000;0.682685
9361.000000;0.682126
9360.000000;0.681587
9359.000000;0.681105
9358.000000;0.680757
9357.000000;0.680620
9356.000000;0.680707
9355.000000;0.680885
9354.000000;0.680897
9353.000000;0.680524
9352.000000;0.679747
9351.000000;0.678732
9350.000000;0.677689
9349.000000;0.676784
9348.000000;0.676125
9347.000000;0.675714
9346.000000;0.675376
9345.000000;0.674881
9344.000000;0.674174
9343.000000;0.673470
9342.000000;0.673040
9341.000000;0.672940
9340.000000;0.672974
9339.000000;0.672884
9338.000000;0.672576
9337.000000;0.672156
9336.000000;0.671781
9335.000000;0.671440
9334.000000;0.670913
9333.000000;0.670006
9332.000000;0.668843
9331.000000;0.667834
9330.000000;0.667318
9329.000000;0.667263
9328.000000;0.667338
9327.000000;0.667189
9326.000000;0.666648
9325.000000;0.665797
9324.000000;0.664924
9323.000000;0.664339
9322.000000;0.664143
9321.000000;0.664196
9320.000000;0.664300
9319.000000;0.664312
9318.000000;0.664068
9317.000000;0.663410
9316.000000;0.662420
9315.000000;0.661445
9314.000000;0.660717
9313.000000;0.660092
9312.000000;0.659396
9311.000000;0.658849
9310.000000;0.658767
9309.000000;0.658919
9308.000000;0.658595
9307.000000;0.657482
9306.000000;0.656129
9305.000000;0.655335
9304.000000;0.655330
9303.000000;0.655751
9302.000000;0.656198
9301.000000;0.656481
9300.000000;0.656475
9299.000000;0.656104
9298.000000;0.655487
9297.000000;0.654824
9296.000000;0.654100
9295.000000;0.653124
9294.000000;0.651939
9293.000000;0.650981
9292.000000;0.650710
9291.000000;0.651152
9290.000000;0.651862
9289.000000;0.652253
9288.000000;0.651972
9287.000000;0.651110
9286.000000;0.650143
9285.000000;0.649546
9284.000000;0.649407
9283.000000;0.649441
9282.000000;0.649346
9281.000000;0.649034
9280.000000;0.648537
9279.000000;0.647870
9278.000000;0.647100
9277.000000;0.646387
9276.000000;0.645821
9275.000000;0.645315
9274.000000;0.644778
9273.000000;0.644307
9272.000000;0.644062
9271.000000;0.643990
9270.000000;0.643842
9269.000000;0.643451
9268.000000;0.642859
9267.000000;0.642146
9266.000000;0.641306
9265.000000;0.640376
9264.000000;0.639592
9263.000000;0.639265
9262.000000;0.639476
9261.000000;0.639949
9260.000000;0.640255
9259.000000;0.640121
9258.000000;0.639546
9257.000000;0.638680
9256.000000;0.637684
9255.000000;0.636730
9254.000000;0.636010
9253.000000;0.635602
9252.000000;0.635345
9251.000000;0.634991
9250.000000;0.634521
9249.000000;0.634192
9248.000000;0.634189
9247.000000;0.634349
9246.000000;0.634343
9245.000000;0.634056
9244.000000;0.633665
9243.000000;0.633355
9242.000000;0.633102
9241.000000;0.632750
9240.000000;0.632210
9239.000000;0.631557
9238.000000;0.630983
9237.000000;0.630649
9236.000000;0.630503
9235.000000;0.630295
9234.000000;0.629871
9233.000000;0.629420
9232.000000;0.629266
9231.000000;0.629387
9230.000000;0.629306
9229.000000;0.628586
9228.000000;0.627306
9227.000000;0.625946
9226.000000;0.624899
9225.000000;0.624254
9224.000000;0.623974
9223.000000;0.624028
9222.000000;0.624313
9221.000000;0.624590
9220.000000;0.624640
9219.000000;0.624428
9218.000000;0.624072
9217.000000;0.623683
9216.000000;0.623297
9215.000000;0.622916
9214.000000;0.622551
9213.000000;0.622195
9212.000000;0.621815
9211.000000;0.621390
9210.000000;0.620963
9209.000000;0.620628
9208.000000;0.620438
9207.000000;0.620329
9206.000000;0.620171
9205.000000;0.619918
9204.000000;0.619644
9203.000000;0.619396
9202.000000;0.619082
9201.000000;0.618615
9200.000000;0.618140
9199.000000;0.617964
9198.000000;0.618186
9197.000000;0.618507
9196.000000;0.618475
9195.000000;0.617862
9194.000000;0.616754
9193.000000;0.615397
9192.000000;0.614085
9191.000000;0.613111
9190.000000;0.612653
9189.000000;0.612660
9188.000000;0.612926
9187.000000;0.613275
9186.000000;0.613597
9185.000000;0.613737
9184.000000;0.613537
9183.000000;0.613023
9182.000000;0.612462
9181.000000;0.612118
9180.000000;0.612004
9179.000000;0.611907
9178.000000;0.611619
9177.000000;0.611112
9176.000000;0.610541
9175.000000;0.610086
9174.000000;0.609765
9173.000000;0.609388
9172.000000;0.608788
9171.000000;0.608078
9170.000000;0.607561
9169.000000;0.607369
9168.000000;0.607351
9167.000000;0.607346
9166.000000;0.607409
9165.000000;0.607606
9164.000000;0.607731
9163.000000;0.607444
9162.000000;0.606669
9161.000000;0.605687
9160.000000;0.604848
9159.000000;0.604291
9158.000000;0.603941
9157.000000;0.603650
9156.000000;0.603309
9155.000000;0.602908
9154.000000;0.602518
9153.000000;0.602175
9152.000000;0.601798
9151.000000;0.601316
9150.000000;0.600815
9149.000000;0.600451
9148.000000;0.600237
9147.000000;0.600052
9146.000000;0.599855
9145.000000;0.599755
9144.000000;0.599813
9143.000000;0.599913
9142.000000;0.599896
9141.000000;0.599757
9140.000000;0.599608
9139.000000;0.599497
9138.000000;0.599338
9137.000000;0.599007
9136.000000;0.598505
9135.000000;0.597981
9134.000000;0.597582
9133.000000;0.597259
9132.000000;0.596823
9131.000000;0.596241
9130.000000;0.595759
9129.000000;0.595601
9128.000000;0.595628
9127.000000;0.595498
9126.000000;0.595101
9125.000000;0.594659
9124.000000;0.594396
9123.000000;0.594336
9122.000000;0.594446
9121.000000;0.594741
9120.000000;0.595138
9119.000000;0.595394
9118.000000;0.595344
9117.000000;0.595070
9116.000000;0.594688
9115.000000;0.594154
9114.000000;0.593420
9113.000000;0.592664
9112.000000;0.592129
9111.000000;0.591802
9110.000000;0.591420
9109.000000;0.590836
9108.000000;0.590233
9107.000000;0.589948
9106.000000;0.590141
9105.000000;0.590637
9104.000000;0.591017
9103.000000;0.590910
9102.000000;0.590295
9101.000000;0.589504
9100.000000;0.588872
9099.000000;0.588425
9098.000000;0.587971
9097.000000;0.587419
9096.000000;0.586885
9095.000000;0.586507
9094.000000;0.586287
9093.000000;0.586133
9092.000000;0.585961
9091.000000;0.585742
9090.000000;0.585483
9089.000000;0.585218
9088.000000;0.584980
9087.000000;0.584764
9086.000000;0.584525
9085.000000;0.584177
9084.000000;0.583639
9083.000000;0.582961
9082.000000;0.582404
9081.000000;0.582254
9080.000000;0.582475
9079.000000;0.582665
9078.000000;0.582480
9077.000000;0.582026
9076.000000;0.581663
9075.000000;0.581498
9074.000000;0.581265
9073.000000;0.580775
9072.000000;0.580262
9071.000000;0.580155
9070.000000;0.580568
9069.000000;0.581147
9068.000000;0.581423
9067.000000;0.581244
9066.000000;0.580807
9065.000000;0.580342
9064.000000;0.579847
9063.000000;0.579192
9062.000000;0.578400
9061.000000;0.577715
9060.000000;0.577361
9059.000000;0.577300
9058.000000;0.577298
9057.000000;0.577167
9056.000000;0.576896
9055.000000;0.576586
9054.000000;0.576342
9053.000000;0.576204
