Criado como novo conjunto de dados;"1909daniel.spp","-4286325.1 Secs"
cm-1;Abs
10000.000000;2.096847
9999.000000;2.096167
9998.000000;2.095489
9997.000000;2.094812
9996.000000;2.094133
9995.000000;2.093458
9994.000000;2.092784
9993.000000;2.092114
9992.000000;2.091441
9991.000000;2.090777
9990.000000;2.090070
9989.000000;2.089961
9988.000000;2.092949
9987.000000;2.098801
9986.000000;2.103326
9985.000000;2.103247
9984.000000;2.098850
9983.000000;2.092995
9982.000000;2.087902
9981.000000;2.083738
9980.000000;2.079598
9979.000000;2.075027
9978.000000;2.070643
9977.000000;2.067869
9976.000000;2.068061
9975.000000;2.071691
9974.000000;2.077810
9973.000000;2.083864
9972.000000;2.086685
9971.000000;2.084479
9970.000000;2.078127
9969.000000;2.070642
9968.000000;2.065305
9967.000000;2.063862
9966.000000;2.065886
9965.000000;2.069214
9964.000000;2.070850
9963.000000;2.068653
9962.000000;2.063350
9961.000000;2.058610
9960.000000;2.058508
9959.000000;2.064045
9958.000000;2.071490
9957.000000;2.074868
9956.000000;2.071406
9955.000000;2.064187
9954.000000;2.058581
9953.000000;2.056872
9952.000000;2.057036
9951.000000;2.056166
9950.000000;2.054032
9949.000000;2.052994
9948.000000;2.054640
9947.000000;2.057245
9946.000000;2.057643
9945.000000;2.055243
9944.000000;2.052657
9943.000000;2.052402
9942.000000;2.054357
9941.000000;2.056642
9940.000000;2.057973
9939.000000;2.058341
9938.000000;2.058020
9937.000000;2.057249
9936.000000;2.056497
9935.000000;2.056135
9934.000000;2.056117
9933.000000;2.056035
9932.000000;2.055294
9931.000000;2.053309
9930.000000;2.049724
9929.000000;2.044804
9928.000000;2.039522
9927.000000;2.034905
9926.000000;2.031508
9925.000000;2.029907
9924.000000;2.031216
9923.000000;2.036176
9922.000000;2.043728
9921.000000;2.050985
9920.000000;2.054784
9919.000000;2.053703
9918.000000;2.049096
9917.000000;2.044097
9916.000000;2.041114
9915.000000;2.039802
9914.000000;2.037642
9913.000000;2.032932
9912.000000;2.026872
9911.000000;2.022313
9910.000000;2.021173
9909.000000;2.023468
9908.000000;2.027690
9907.000000;2.031237
9906.000000;2.031640
9905.000000;2.028874
9904.000000;2.025845
9903.000000;2.025356
9902.000000;2.027051
9901.000000;2.028521
9900.000000;2.028896
9899.000000;2.029401
9898.000000;2.030392
9897.000000;2.030143
9896.000000;2.027281
9895.000000;2.022663
9894.000000;2.017983
9893.000000;2.014147
9892.000000;2.011770
9891.000000;2.011672
9890.000000;2.013632
9889.000000;2.015704
9888.000000;2.015880
9887.000000;2.013694
9886.000000;2.009921
9885.000000;2.006098
9884.000000;2.004706
9883.000000;2.007645
9882.000000;2.013538
9881.000000;2.018186
9880.000000;2.018911
9879.000000;2.017542
9878.000000;2.017745
9877.000000;2.020219
9876.000000;2.022072
9875.000000;2.020439
9874.000000;2.015277
9873.000000;2.008716
9872.000000;2.003097
9871.000000;1.999924
9870.000000;1.999447
9869.000000;2.000583
9868.000000;2.001644
9867.000000;2.001419
9866.000000;1.999757
9865.000000;1.997663
9864.000000;1.996805
9863.000000;1.997933
9862.000000;1.999586
9861.000000;1.999638
9860.000000;1.998459
9859.000000;1.998773
9858.000000;2.001662
9857.000000;2.004618
9856.000000;2.005045
9855.000000;2.003941
9854.000000;2.003605
9853.000000;2.003371
9852.000000;2.000691
9851.000000;1.995559
9850.000000;1.990758
9849.000000;1.988170
9848.000000;1.987661
9847.000000;1.989094
9846.000000;1.992515
9845.000000;1.996198
9844.000000;1.997384
9843.000000;1.995831
9842.000000;1.993894
9841.000000;1.992271
9840.000000;1.988834
9839.000000;1.983092
9838.000000;1.978841
9837.000000;1.980138
9836.000000;1.986537
9835.000000;1.993907
9834.000000;1.998733
9833.000000;1.999794
9832.000000;1.996596
9831.000000;1.989072
9830.000000;1.979113
9829.000000;1.970185
9828.000000;1.964779
9827.000000;1.963060
9826.000000;1.963587
9825.000000;1.964397
9824.000000;1.963908
9823.000000;1.962229
9822.000000;1.961558
9821.000000;1.964099
9820.000000;1.969353
9819.000000;1.974276
9818.000000;1.976428
9817.000000;1.976248
9816.000000;1.975592
9815.000000;1.974921
9814.000000;1.973150
9813.000000;1.970067
9812.000000;1.967512
9811.000000;1.967418
9810.000000;1.969261
9809.000000;1.970254
9808.000000;1.968503
9807.000000;1.965266
9806.000000;1.962987
9805.000000;1.961989
9804.000000;1.960605
9803.000000;1.958175
9802.000000;1.956002
9801.000000;1.955087
9800.000000;1.954733
9799.000000;1.953945
9798.000000;1.953088
9797.000000;1.953069
9796.000000;1.953462
9795.000000;1.952825
9794.000000;1.950761
9793.000000;1.948536
9792.000000;1.947479
9791.000000;1.947595
9790.000000;1.947748
9789.000000;1.946720
9788.000000;1.944317
9787.000000;1.941723
9786.000000;1.940613
9785.000000;1.941737
9784.000000;1.944374
9783.000000;1.947062
9782.000000;1.948616
9781.000000;1.948566
9780.000000;1.947257
9779.000000;1.945935
9778.000000;1.946073
9777.000000;1.947659
9776.000000;1.948618
9775.000000;1.946873
9774.000000;1.942734
9773.000000;1.938507
9772.000000;1.936192
9771.000000;1.936366
9770.000000;1.938714
9769.000000;1.942629
9768.000000;1.946863
9767.000000;1.949179
9766.000000;1.947645
9765.000000;1.942613
9764.000000;1.936931
9763.000000;1.933717
9762.000000;1.933782
9761.000000;1.935393
9760.000000;1.936703
9759.000000;1.938046
9758.000000;1.940891
9757.000000;1.944828
9756.000000;1.947183
9755.000000;1.946171
9754.000000;1.943109
9753.000000;1.940507
9752.000000;1.938903
9751.000000;1.936876
9750.000000;1.933640
9749.000000;1.930063
9748.000000;1.927084
9747.000000;1.924464
9746.000000;1.921527
9745.000000;1.918108
9744.000000;1.914485
9743.000000;1.911535
9742.000000;1.910911
9741.000000;1.913702
9740.000000;1.918478
9739.000000;1.921751
9738.000000;1.921172
9737.000000;1.917592
9736.000000;1.913313
9735.000000;1.909615
9734.000000;1.907011
9733.000000;1.906623
9732.000000;1.909580
9731.000000;1.915199
9730.000000;1.920943
9729.000000;1.924472
9728.000000;1.925014
9727.000000;1.922750
9726.000000;1.918105
9725.000000;1.912042
9724.000000;1.906183
9723.000000;1.901827
9722.000000;1.899006
9721.000000;1.896934
9720.000000;1.895082
9719.000000;1.893625
9718.000000;1.893119
9717.000000;1.893884
9716.000000;1.895669
9715.000000;1.897759
9714.000000;1.899339
9713.000000;1.899905
9712.000000;1.899394
9711.000000;1.897894
9710.000000;1.895642
9709.000000;1.893485
9708.000000;1.892496
9707.000000;1.893021
9706.000000;1.894535
9705.000000;1.896470
9704.000000;1.898838
9703.000000;1.901462
9702.000000;1.902878
9701.000000;1.901173
9700.000000;1.896438
9699.000000;1.891516
9698.000000;1.889470
9697.000000;1.890584
9696.000000;1.892442
9695.000000;1.892759
9694.000000;1.890958
9693.000000;1.887092
9692.000000;1.881271
9691.000000;1.874776
9690.000000;1.870377
9689.000000;1.870347
9688.000000;1.874270
9687.000000;1.879445
9686.000000;1.883661
9685.000000;1.887031
9684.000000;1.890621
9683.000000;1.894045
9682.000000;1.895456
9681.000000;1.893734
9680.000000;1.889732
9679.000000;1.885228
9678.000000;1.881635
9677.000000;1.880118
9676.000000;1.881674
9675.000000;1.886017
9674.000000;1.890709
9673.000000;1.892400
9672.000000;1.889578
9671.000000;1.883819
9670.000000;1.878190
9669.000000;1.874808
9668.000000;1.873811
9667.000000;1.873869
9666.000000;1.873258
9665.000000;1.871265
9664.000000;1.868970
9663.000000;1.867930
9662.000000;1.868164
9661.000000;1.868326
9660.000000;1.867826
9659.000000;1.867646
9658.000000;1.868562
9657.000000;1.869448
9656.000000;1.868670
9655.000000;1.866886
9654.000000;1.866464
9653.000000;1.868277
9652.000000;1.870661
9651.000000;1.871476
9650.000000;1.870309
9649.000000;1.868157
9648.000000;1.865717
9647.000000;1.863042
9646.000000;1.860445
9645.000000;1.858672
9644.000000;1.858049
9643.000000;1.858082
9642.000000;1.858090
9641.000000;1.857678
9640.000000;1.856493
9639.000000;1.854236
9638.000000;1.851355
9637.000000;1.849303
9636.000000;1.849593
9635.000000;1.852340
9634.000000;1.855815
9633.000000;1.857633
9632.000000;1.856514
9631.000000;1.853000
9630.000000;1.848800
9629.000000;1.845748
9628.000000;1.845086
9627.000000;1.846947
9626.000000;1.850096
9625.000000;1.852514
9624.000000;1.852912
9623.000000;1.851796
9622.000000;1.850789
9621.000000;1.851070
9620.000000;1.852431
9619.000000;1.853445
9618.000000;1.852504
9617.000000;1.849085
9616.000000;1.844347
9615.000000;1.840477
9614.000000;1.839207
9613.000000;1.840741
9612.000000;1.843705
9611.000000;1.845750
9610.000000;1.844686
9609.000000;1.840224
9608.000000;1.834989
9607.000000;1.832761
9606.000000;1.834869
9605.000000;1.838564
9604.000000;1.839631
9603.000000;1.836775
9602.000000;1.832561
9601.000000;1.830031
9600.000000;1.829722
9599.000000;1.830288
9598.000000;1.830813
9597.000000;1.831508
9596.000000;1.832536
9595.000000;1.833071
9594.000000;1.831893
9593.000000;1.828932
9592.000000;1.825854
9591.000000;1.824646
9590.000000;1.825578
9589.000000;1.826742
9588.000000;1.825771
9587.000000;1.822050
9586.000000;1.817102
9585.000000;1.813114
9584.000000;1.811556
9583.000000;1.812742
9582.000000;1.815751
9581.000000;1.818645
9580.000000;1.819556
9579.000000;1.818132
9578.000000;1.815649
9577.000000;1.813626
9576.000000;1.812618
9575.000000;1.812330
9574.000000;1.812442
9573.000000;1.812929
9572.000000;1.813792
9571.000000;1.814719
9570.000000;1.814999
9569.000000;1.814056
9568.000000;1.812178
9567.000000;1.810379
9566.000000;1.809403
9565.000000;1.809058
9564.000000;1.808652
9563.000000;1.807756
9562.000000;1.806341
9561.000000;1.804547
9560.000000;1.802732
9559.000000;1.801483
9558.000000;1.801097
9557.000000;1.801322
9556.000000;1.801971
9555.000000;1.803256
9554.000000;1.805004
9553.000000;1.806058
9552.000000;1.805370
9551.000000;1.803382
9550.000000;1.801277
9549.000000;1.799378
9548.000000;1.797670
9547.000000;1.797330
9546.000000;1.799848
9545.000000;1.804442
9544.000000;1.808063
9543.000000;1.808733
9542.000000;1.807470
9541.000000;1.805982
9540.000000;1.804110
9539.000000;1.800881
9538.000000;1.796847
9537.000000;1.793847
9536.000000;1.792999
9535.000000;1.793915
9534.000000;1.795435
9533.000000;1.796339
9532.000000;1.795771
9531.000000;1.793925
9530.000000;1.792169
9529.000000;1.791671
9528.000000;1.791954
9527.000000;1.791253
9526.000000;1.788352
9525.000000;1.783798
9524.000000;1.779398
9523.000000;1.776830
9522.000000;1.776372
9521.000000;1.776524
9520.000000;1.775335
9519.000000;1.772696
9518.000000;1.770837
9517.000000;1.772040
9516.000000;1.776285
9515.000000;1.781477
9514.000000;1.785503
9513.000000;1.787452
9512.000000;1.787198
9511.000000;1.785069
9510.000000;1.782128
9509.000000;1.779789
9508.000000;1.778670
9507.000000;1.778373
9506.000000;1.778497
9505.000000;1.779083
9504.000000;1.779785
9503.000000;1.779361
9502.000000;1.776591
9501.000000;1.771597
9500.000000;1.766004
9499.000000;1.761897
9498.000000;1.760672
9497.000000;1.762390
9496.000000;1.765907
9495.000000;1.769767
9494.000000;1.772989
9493.000000;1.774995
9492.000000;1.775229
9491.000000;1.773407
9490.000000;1.770176
9489.000000;1.767009
9488.000000;1.765230
9487.000000;1.765281
9486.000000;1.766732
9485.000000;1.768765
9484.000000;1.770432
9483.000000;1.770591
9482.000000;1.768268
9481.000000;1.763583
9480.000000;1.758110
9479.000000;1.753909
9478.000000;1.752079
9477.000000;1.752283
9476.000000;1.753540
9475.000000;1.755079
9474.000000;1.756246
9473.000000;1.756271
9472.000000;1.755068
9471.000000;1.753953
9470.000000;1.754604
9469.000000;1.757261
9468.000000;1.760452
9467.000000;1.762369
9466.000000;1.762054
9465.000000;1.759522
9464.000000;1.755766
9463.000000;1.752608
9462.000000;1.751347
9461.000000;1.751276
9460.000000;1.750587
9459.000000;1.749088
9458.000000;1.748601
9457.000000;1.749936
9456.000000;1.751022
9455.000000;1.749519
9454.000000;1.746391
9453.000000;1.744961
9452.000000;1.746711
9451.000000;1.749575
9450.000000;1.750392
9449.000000;1.748168
9448.000000;1.744711
9447.000000;1.742785
9446.000000;1.743859
9445.000000;1.746880
9444.000000;1.749063
9443.000000;1.748657
9442.000000;1.746813
9441.000000;1.745842
9440.000000;1.746021
9439.000000;1.745405
9438.000000;1.742817
9437.000000;1.739583
9436.000000;1.737663
9435.000000;1.737360
9434.000000;1.737676
9433.000000;1.737941
9432.000000;1.737996
9431.000000;1.737343
9430.000000;1.735557
9429.000000;1.733552
9428.000000;1.733197
9427.000000;1.735222
9426.000000;1.737948
9425.000000;1.738772
9424.000000;1.736897
9423.000000;1.733886
9422.000000;1.731573
9421.000000;1.730402
9420.000000;1.730050
9419.000000;1.730692
9418.000000;1.732586
9417.000000;1.734717
9416.000000;1.735157
9415.000000;1.733251
9414.000000;1.730572
9413.000000;1.729180
9412.000000;1.729641
9411.000000;1.731023
9410.000000;1.731962
9409.000000;1.731196
9408.000000;1.727942
9407.000000;1.722819
9406.000000;1.718137
9405.000000;1.716315
9404.000000;1.717869
9403.000000;1.721124
9402.000000;1.723598
9401.000000;1.723485
9400.000000;1.720455
9399.000000;1.715807
9398.000000;1.711773
9397.000000;1.710056
9396.000000;1.710813
9395.000000;1.713069
9394.000000;1.715619
9393.000000;1.717222
9392.000000;1.716867
9391.000000;1.714910
9390.000000;1.713344
9389.000000;1.713717
9388.000000;1.715119
9387.000000;1.715366
9386.000000;1.714038
9385.000000;1.712878
9384.000000;1.713049
9383.000000;1.713550
9382.000000;1.712939
9381.000000;1.711547
9380.000000;1.711116
9379.000000;1.712835
9378.000000;1.716305
9377.000000;1.719779
9376.000000;1.721000
9375.000000;1.718733
9374.000000;1.714263
9373.000000;1.710671
9372.000000;1.709977
9371.000000;1.711357
9370.000000;1.712371
9369.000000;1.711595
9368.000000;1.709567
9367.000000;1.707420
9366.000000;1.705506
9365.000000;1.703672
9364.000000;1.702209
9363.000000;1.701740
9362.000000;1.702091
9361.000000;1.701905
9360.000000;1.699940
9359.000000;1.696706
9358.000000;1.694149
9357.000000;1.693521
9356.000000;1.694208
9355.000000;1.694947
9354.000000;1.695548
9353.000000;1.696636
9352.000000;1.698041
9351.000000;1.698474
9350.000000;1.697064
9349.000000;1.694606
9348.000000;1.692967
9347.000000;1.693452
9346.000000;1.695684
9345.000000;1.697860
9344.000000;1.698393
9343.000000;1.697711
9342.000000;1.697903
9341.000000;1.700003
9340.000000;1.702294
9339.000000;1.702350
9338.000000;1.700402
9337.000000;1.699087
9336.000000;1.699814
9335.000000;1.700955
9334.000000;1.700114
9333.000000;1.697063
9332.000000;1.693585
9331.000000;1.691239
9330.000000;1.690127
9329.000000;1.689310
9328.000000;1.687841
9327.000000;1.685764
9326.000000;1.684368
9325.000000;1.684893
9324.000000;1.686700
9323.000000;1.687521
9322.000000;1.686115
9321.000000;1.683834
9320.000000;1.682788
9319.000000;1.683453
9318.000000;1.684951
9317.000000;1.686856
9316.000000;1.689400
9315.000000;1.692031
9314.000000;1.693066
9313.000000;1.691428
9312.000000;1.687993
9311.000000;1.684692
9310.000000;1.682728
9309.000000;1.681810
9308.000000;1.680804
9307.000000;1.679138
9306.000000;1.677559
9305.000000;1.677399
9304.000000;1.679055
9303.000000;1.681268
9302.000000;1.682118
9301.000000;1.680788
9300.000000;1.678208
9299.000000;1.676078
9298.000000;1.675525
9297.000000;1.676479
9296.000000;1.677894
9295.000000;1.678692
9294.000000;1.678779
9293.000000;1.678965
9292.000000;1.679632
9291.000000;1.679786
9290.000000;1.677975
9289.000000;1.674111
9288.000000;1.669892
9287.000000;1.667374
9286.000000;1.667448
9285.000000;1.669561
9284.000000;1.672507
9283.000000;1.675340
9282.000000;1.677705
9281.000000;1.679495
9280.000000;1.680287
9279.000000;1.679289
9278.000000;1.676046
9277.000000;1.671115
9276.000000;1.665948
9275.000000;1.662125
9274.000000;1.660516
9273.000000;1.660875
9272.000000;1.662065
9271.000000;1.662818
9270.000000;1.662546
9269.000000;1.661472
9268.000000;1.660226
9267.000000;1.659504
9266.000000;1.659768
9265.000000;1.660995
9264.000000;1.662589
9263.000000;1.663738
9262.000000;1.664182
9261.000000;1.664427
9260.000000;1.665072
9259.000000;1.666120
9258.000000;1.666850
9257.000000;1.666249
9256.000000;1.663919
9255.000000;1.660836
9254.000000;1.658896
9253.000000;1.659122
9252.000000;1.660531
9251.000000;1.661480
9250.000000;1.661827
9249.000000;1.662695
9248.000000;1.664193
9247.000000;1.664622
9246.000000;1.662525
9245.000000;1.658530
9244.000000;1.654491
9243.000000;1.651679
9242.000000;1.650247
9241.000000;1.649724
9240.000000;1.649493
9239.000000;1.649236
9238.000000;1.649467
9237.000000;1.651220
9236.000000;1.654607
9235.000000;1.658129
9234.000000;1.660045
9233.000000;1.660105
9232.000000;1.659236
9231.000000;1.657933
9230.000000;1.655871
9229.000000;1.652889
9228.000000;1.649517
9227.000000;1.646483
9226.000000;1.644340
9225.000000;1.643456
9224.000000;1.643741
9223.000000;1.644453
9222.000000;1.644895
9221.000000;1.645214
9220.000000;1.646009
9219.000000;1.647290
9218.000000;1.648375
9217.000000;1.648748
9216.000000;1.648413
9215.000000;1.647478
9214.000000;1.646185
9213.000000;1.645373
9212.000000;1.645915
9211.000000;1.647346
9210.000000;1.647802
9209.000000;1.645913
9208.000000;1.642419
9207.000000;1.639356
9206.000000;1.637984
9205.000000;1.637960
9204.000000;1.638221
9203.000000;1.638133
9202.000000;1.637721
9201.000000;1.637250
9200.000000;1.636943
9199.000000;1.636949
9198.000000;1.637224
9197.000000;1.637379
9196.000000;1.636855
9195.000000;1.635490
9194.000000;1.633926
9193.000000;1.633202
9192.000000;1.633750
9191.000000;1.634940
9190.000000;1.635857
9189.000000;1.636411
9188.000000;1.637302
9187.000000;1.638886
9186.000000;1.640485
9185.000000;1.641114
9184.000000;1.640698
9183.000000;1.640150
9182.000000;1.640193
9181.000000;1.640452
9180.000000;1.639926
9179.000000;1.638227
9178.000000;1.635991
9177.000000;1.634096
9176.000000;1.632906
9175.000000;1.632433
9174.000000;1.632765
9173.000000;1.633939
9172.000000;1.635618
9171.000000;1.637257
9170.000000;1.638401
9169.000000;1.638474
9168.000000;1.636705
9167.000000;1.633103
9166.000000;1.629345
9165.000000;1.627652
9164.000000;1.628470
9163.000000;1.630031
9162.000000;1.630625
9161.000000;1.630282
9160.000000;1.629656
9159.000000;1.628478
9158.000000;1.626193
9157.000000;1.623440
9156.000000;1.621589
9155.000000;1.620844
9154.000000;1.620016
9153.000000;1.618418
9152.000000;1.616946
9151.000000;1.616831
9150.000000;1.618079
9149.000000;1.619704
9148.000000;1.620923
9147.000000;1.621440
9146.000000;1.620977
9145.000000;1.619567
9144.000000;1.618329
9143.000000;1.618969
9142.000000;1.621867
9141.000000;1.624976
9140.000000;1.625359
9139.000000;1.622172
9138.000000;1.617709
9137.000000;1.615335
9136.000000;1.616723
9135.000000;1.620885
9134.000000;1.625087
9133.000000;1.626612
9132.000000;1.624439
9131.000000;1.620008
9130.000000;1.616297
9129.000000;1.615485
9128.000000;1.617154
9127.000000;1.618973
9126.000000;1.619169
9125.000000;1.617909
9124.000000;1.616372
9123.000000;1.615233
9122.000000;1.614555
9121.000000;1.614446
9120.000000;1.614901
9119.000000;1.615226
9118.000000;1.614391
9117.000000;1.612169
9116.000000;1.609633
9115.000000;1.608251
9114.000000;1.608488
9113.000000;1.609378
9112.000000;1.609634
9111.000000;1.609305
9110.000000;1.610032
9109.000000;1.613247
9108.000000;1.618201
9107.000000;1.622260
9106.000000;1.623372
9105.000000;1.621854
9104.000000;1.619566
9103.000000;1.618019
9102.000000;1.617642
9101.000000;1.618097
9100.000000;1.618595
9099.000000;1.618280
9098.000000;1.616977
9097.000000;1.615444
9096.000000;1.614568
9095.000000;1.614526
9094.000000;1.614834
9093.000000;1.614726
9092.000000;1.613366
9091.000000;1.610450
9090.000000;1.607096
9089.000000;1.605459
9088.000000;1.606759
9087.000000;1.610008
9086.000000;1.613120
9085.000000;1.614805
9084.000000;1.614782
9083.000000;1.612977
9082.000000;1.609894
9081.000000;1.607323
9080.000000;1.607078
9079.000000;1.608776
9078.000000;1.609908
9077.000000;1.608612
9076.000000;1.605601
9075.000000;1.602917
9074.000000;1.601801
9073.000000;1.602236
9072.000000;1.603616
9071.000000;1.605158
9070.000000;1.606092
9069.000000;1.606125
9068.000000;1.605580
9067.000000;1.604750
9066.000000;1.603489
9065.000000;1.601840
9064.000000;1.600573
9063.000000;1.600586
9062.000000;1.602010
9061.000000;1.604191
9060.000000;1.606266
9059.000000;1.607496
9058.000000;1.607459
9057.000000;1.606367
9056.000000;1.605007
9055.000000;1.603953
9054.000000;1.602995
9053.000000;1.601650
