Criado como novo conjunto de dados;"1909daniel.spp","-4248703.1 Secs"
cm-1;Abs
10000.000000;1.708307
9999.000000;1.706869
9998.000000;1.706130
9997.000000;1.706657
9996.000000;1.707158
9995.000000;1.706167
9994.000000;1.703820
9993.000000;1.701455
9992.000000;1.700065
9991.000000;1.699717
9990.000000;1.699914
9989.000000;1.699844
9988.000000;1.698632
9987.000000;1.696227
9986.000000;1.693969
9985.000000;1.693426
9984.000000;1.694516
9983.000000;1.695432
9982.000000;1.694684
9981.000000;1.692572
9980.000000;1.690320
9979.000000;1.688588
9978.000000;1.687496
9977.000000;1.687338
9976.000000;1.688206
9975.000000;1.689113
9974.000000;1.688637
9973.000000;1.686656
9972.000000;1.684520
9971.000000;1.683394
9970.000000;1.683262
9969.000000;1.683509
9968.000000;1.683712
9967.000000;1.683444
9966.000000;1.681976
9965.000000;1.679155
9964.000000;1.676306
9963.000000;1.675211
9962.000000;1.676038
9961.000000;1.677059
9960.000000;1.676668
9959.000000;1.675195
9958.000000;1.674308
9957.000000;1.675021
9956.000000;1.676791
9955.000000;1.678235
9954.000000;1.678276
9953.000000;1.676852
9952.000000;1.674903
9951.000000;1.673534
9950.000000;1.672993
9949.000000;1.672710
9948.000000;1.672492
9947.000000;1.672958
9946.000000;1.674169
9945.000000;1.674466
9944.000000;1.671952
9943.000000;1.667142
9942.000000;1.662867
9941.000000;1.661305
9940.000000;1.662100
9939.000000;1.663461
9938.000000;1.664116
9937.000000;1.663764
9936.000000;1.662544
9935.000000;1.661025
9934.000000;1.660302
9933.000000;1.661023
9932.000000;1.662379
9931.000000;1.662693
9930.000000;1.660972
9929.000000;1.657645
9928.000000;1.654189
9927.000000;1.652371
9926.000000;1.653113
9925.000000;1.655265
9924.000000;1.655973
9923.000000;1.653452
9922.000000;1.649220
9921.000000;1.646430
9920.000000;1.646334
9919.000000;1.647435
9918.000000;1.647835
9917.000000;1.647245
9916.000000;1.646358
9915.000000;1.645439
9914.000000;1.644286
9913.000000;1.642967
9912.000000;1.641915
9911.000000;1.641584
9910.000000;1.642267
9909.000000;1.643801
9908.000000;1.645173
9907.000000;1.644991
9906.000000;1.642787
9905.000000;1.639458
9904.000000;1.636266
9903.000000;1.633997
9902.000000;1.633169
9901.000000;1.634080
9900.000000;1.636174
9899.000000;1.638012
9898.000000;1.638560
9897.000000;1.638088
9896.000000;1.637171
9895.000000;1.635493
9894.000000;1.632604
9893.000000;1.629398
9892.000000;1.627732
9891.000000;1.628549
9890.000000;1.630937
9889.000000;1.632956
9888.000000;1.633177
9887.000000;1.631724
9886.000000;1.630264
9885.000000;1.630686
9884.000000;1.633107
9883.000000;1.635201
9882.000000;1.634200
9881.000000;1.629689
9880.000000;1.623839
9879.000000;1.619099
9878.000000;1.616464
9877.000000;1.615714
9876.000000;1.616228
9875.000000;1.617215
9874.000000;1.617905
9873.000000;1.618022
9872.000000;1.617781
9871.000000;1.617366
9870.000000;1.616707
9869.000000;1.615796
9868.000000;1.614846
9867.000000;1.614056
9866.000000;1.613455
9865.000000;1.612987
9864.000000;1.612476
9863.000000;1.611657
9862.000000;1.610681
9861.000000;1.610422
9860.000000;1.611647
9859.000000;1.613804
9858.000000;1.615172
9857.000000;1.614400
9856.000000;1.611548
9855.000000;1.607561
9854.000000;1.603410
9853.000000;1.599957
9852.000000;1.597862
9851.000000;1.597080
9850.000000;1.596742
9849.000000;1.596006
9848.000000;1.594893
9847.000000;1.594027
9846.000000;1.593827
9845.000000;1.594178
9844.000000;1.594596
9843.000000;1.594458
9842.000000;1.593472
9841.000000;1.592246
9840.000000;1.591940
9839.000000;1.592917
9838.000000;1.594046
9837.000000;1.593882
9836.000000;1.592436
9835.000000;1.591136
9834.000000;1.591075
9833.000000;1.591860
9832.000000;1.592258
9831.000000;1.591454
9830.000000;1.589472
9829.000000;1.586823
9828.000000;1.584154
9827.000000;1.582040
9826.000000;1.580665
9825.000000;1.579674
9824.000000;1.578582
9823.000000;1.577448
9822.000000;1.576907
9821.000000;1.577350
9820.000000;1.578237
9819.000000;1.578565
9818.000000;1.578025
9817.000000;1.577405
9816.000000;1.577522
9815.000000;1.578024
9814.000000;1.577765
9813.000000;1.576281
9812.000000;1.574340
9811.000000;1.572889
9810.000000;1.572024
9809.000000;1.571381
9808.000000;1.571107
9807.000000;1.571740
9806.000000;1.573067
9805.000000;1.573803
9804.000000;1.572930
9803.000000;1.571130
9802.000000;1.570235
9801.000000;1.571092
9800.000000;1.572436
9799.000000;1.572232
9798.000000;1.569904
9797.000000;1.566743
9796.000000;1.564329
9795.000000;1.563187
9794.000000;1.563026
9793.000000;1.563560
9792.000000;1.564576
9791.000000;1.565670
9790.000000;1.566421
9789.000000;1.566636
9788.000000;1.566236
9787.000000;1.565146
9786.000000;1.563599
9785.000000;1.562248
9784.000000;1.561422
9783.000000;1.560521
9782.000000;1.558743
9781.000000;1.556175
9780.000000;1.553618
9779.000000;1.551640
9778.000000;1.550402
9777.000000;1.550142
9776.000000;1.550969
9775.000000;1.552173
9774.000000;1.552530
9773.000000;1.551467
9772.000000;1.549334
9771.000000;1.546664
9770.000000;1.543992
9769.000000;1.542311
9768.000000;1.542516
9767.000000;1.544051
9766.000000;1.545073
9765.000000;1.544538
9764.000000;1.543246
9763.000000;1.542279
9762.000000;1.541427
9761.000000;1.540024
9760.000000;1.538342
9759.000000;1.536979
9758.000000;1.535709
9757.000000;1.534201
9756.000000;1.533295
9755.000000;1.534137
9754.000000;1.536154
9753.000000;1.537138
9752.000000;1.535704
9751.000000;1.532781
9750.000000;1.530386
9749.000000;1.529739
9748.000000;1.530728
9747.000000;1.532273
9746.000000;1.532867
9745.000000;1.531518
9744.000000;1.528582
9743.000000;1.525332
9742.000000;1.522681
9741.000000;1.520874
9740.000000;1.520229
9739.000000;1.521166
9738.000000;1.523135
9737.000000;1.524380
9736.000000;1.523531
9735.000000;1.521130
9734.000000;1.519023
9733.000000;1.518458
9732.000000;1.519171
9731.000000;1.520027
9730.000000;1.520180
9729.000000;1.519659
9728.000000;1.519129
9727.000000;1.519196
9726.000000;1.519793
9725.000000;1.520062
9724.000000;1.518936
9723.000000;1.515941
9722.000000;1.511701
9721.000000;1.507869
9720.000000;1.506255
9719.000000;1.507497
9718.000000;1.510510
9717.000000;1.513528
9716.000000;1.515582
9715.000000;1.516599
9714.000000;1.516439
9713.000000;1.514734
9712.000000;1.511699
9711.000000;1.508243
9710.000000;1.505090
9709.000000;1.502482
9708.000000;1.500833
9707.000000;1.500768
9706.000000;1.502036
9705.000000;1.503104
9704.000000;1.502476
9703.000000;1.500137
9702.000000;1.497292
9701.000000;1.495169
9700.000000;1.494497
9699.000000;1.495485
9698.000000;1.497520
9697.000000;1.499193
9696.000000;1.499277
9695.000000;1.497685
9694.000000;1.495165
9693.000000;1.492497
9692.000000;1.490419
9691.000000;1.489745
9690.000000;1.490706
9689.000000;1.492326
9688.000000;1.493106
9687.000000;1.492333
9686.000000;1.490397
9685.000000;1.488197
9684.000000;1.486737
9683.000000;1.486846
9682.000000;1.488396
9681.000000;1.489731
9680.000000;1.488803
9679.000000;1.485393
9678.000000;1.481520
9677.000000;1.479329
9676.000000;1.479174
9675.000000;1.479866
9674.000000;1.480163
9673.000000;1.479688
9672.000000;1.478841
9671.000000;1.478327
9670.000000;1.478670
9669.000000;1.479869
9668.000000;1.481482
9667.000000;1.483003
9666.000000;1.483934
9665.000000;1.483653
9664.000000;1.481839
9663.000000;1.479227
9662.000000;1.477362
9661.000000;1.477147
9660.000000;1.477928
9659.000000;1.478345
9658.000000;1.477789
9657.000000;1.476631
9656.000000;1.475412
9655.000000;1.474362
9654.000000;1.473538
9653.000000;1.472822
9652.000000;1.471783
9651.000000;1.470067
9650.000000;1.468013
9649.000000;1.466466
9648.000000;1.465835
9647.000000;1.465700
9646.000000;1.465458
9645.000000;1.464954
9644.000000;1.464244
9643.000000;1.463117
9642.000000;1.461299
9641.000000;1.459003
9640.000000;1.456889
9639.000000;1.455461
9638.000000;1.454743
9637.000000;1.454533
9636.000000;1.454688
9635.000000;1.455033
9634.000000;1.455219
9633.000000;1.454924
9632.000000;1.454253
9631.000000;1.453810
9630.000000;1.454211
9629.000000;1.455403
9628.000000;1.456454
9627.000000;1.456253
9626.000000;1.454639
9625.000000;1.452678
9624.000000;1.451664
9623.000000;1.451883
9622.000000;1.452345
9621.000000;1.451617
9620.000000;1.448996
9619.000000;1.445139
9618.000000;1.441727
9617.000000;1.440376
9616.000000;1.441460
9615.000000;1.443754
9614.000000;1.445389
9613.000000;1.445292
9612.000000;1.443542
9611.000000;1.440680
9610.000000;1.437354
9609.000000;1.434601
9608.000000;1.433703
9607.000000;1.435093
9606.000000;1.437576
9605.000000;1.439223
9604.000000;1.439170
9603.000000;1.438192
9602.000000;1.437556
9601.000000;1.437698
9600.000000;1.438060
9599.000000;1.437814
9598.000000;1.436586
9597.000000;1.434780
9596.000000;1.433321
9595.000000;1.432830
9594.000000;1.432936
9593.000000;1.432662
9592.000000;1.431519
9591.000000;1.429915
9590.000000;1.428399
9589.000000;1.426970
9588.000000;1.425383
9587.000000;1.423790
9586.000000;1.422659
9585.000000;1.422222
9584.000000;1.422351
9583.000000;1.422898
9582.000000;1.423859
9581.000000;1.425170
9580.000000;1.426489
9579.000000;1.427129
9578.000000;1.426261
9577.000000;1.423571
9576.000000;1.420029
9575.000000;1.417621
9574.000000;1.417756
9573.000000;1.419839
9572.000000;1.421748
9571.000000;1.421873
9570.000000;1.420456
9569.000000;1.418851
9568.000000;1.417939
9567.000000;1.417557
9566.000000;1.417105
9565.000000;1.416219
9564.000000;1.414844
9563.000000;1.413055
9562.000000;1.411014
9561.000000;1.409031
9560.000000;1.407528
9559.000000;1.406872
9558.000000;1.407165
9557.000000;1.408068
9556.000000;1.408821
9555.000000;1.408615
9554.000000;1.407184
9553.000000;1.405099
9552.000000;1.403406
9551.000000;1.402850
9550.000000;1.403324
9549.000000;1.404038
9548.000000;1.404229
9547.000000;1.403725
9546.000000;1.402910
9545.000000;1.402209
9544.000000;1.401631
9543.000000;1.400774
9542.000000;1.399276
9541.000000;1.397295
9540.000000;1.395482
9539.000000;1.394387
9538.000000;1.394000
9537.000000;1.394024
9536.000000;1.394434
9535.000000;1.395384
9534.000000;1.396491
9533.000000;1.396699
9532.000000;1.395278
9531.000000;1.392661
9530.000000;1.389863
9529.000000;1.387371
9528.000000;1.385081
9527.000000;1.383192
9526.000000;1.382501
9525.000000;1.383470
9524.000000;1.385416
9523.000000;1.386982
9522.000000;1.387293
9521.000000;1.386421
9520.000000;1.384902
9519.000000;1.383146
9518.000000;1.381317
9517.000000;1.379605
9516.000000;1.378487
9515.000000;1.378577
9514.000000;1.379955
9513.000000;1.381593
9512.000000;1.381937
9511.000000;1.380491
9510.000000;1.378532
9509.000000;1.377757
9508.000000;1.378477
9507.000000;1.379612
9506.000000;1.380169
9505.000000;1.380014
9504.000000;1.379190
9503.000000;1.377432
9502.000000;1.374925
9501.000000;1.372861
9500.000000;1.372477
9499.000000;1.373666
9498.000000;1.375092
9497.000000;1.375688
9496.000000;1.375517
9495.000000;1.375068
9494.000000;1.374303
9493.000000;1.372827
9492.000000;1.370656
9491.000000;1.368370
9490.000000;1.366571
9489.000000;1.365408
9488.000000;1.364620
9487.000000;1.363922
9486.000000;1.363312
9485.000000;1.363062
9484.000000;1.363372
9483.000000;1.363972
9482.000000;1.364165
9481.000000;1.363384
9480.000000;1.361712
9479.000000;1.359827
9478.000000;1.358456
9477.000000;1.357871
9476.000000;1.357798
9475.000000;1.357716
9474.000000;1.357313
9473.000000;1.356752
9472.000000;1.356492
9471.000000;1.356813
9470.000000;1.357514
9469.000000;1.357968
9468.000000;1.357481
9467.000000;1.355851
9466.000000;1.353789
9465.000000;1.352579
9464.000000;1.352912
9463.000000;1.354081
9462.000000;1.354650
9461.000000;1.354012
9460.000000;1.352823
9459.000000;1.351783
9458.000000;1.350650
9457.000000;1.349000
9456.000000;1.347438
9455.000000;1.347237
9454.000000;1.348721
9453.000000;1.350571
9452.000000;1.351064
9451.000000;1.349735
9450.000000;1.347549
9449.000000;1.345818
9448.000000;1.345234
9447.000000;1.345614
9446.000000;1.346168
9445.000000;1.346048
9444.000000;1.344955
9443.000000;1.343311
9442.000000;1.341805
9441.000000;1.340818
9440.000000;1.340313
9439.000000;1.340148
9438.000000;1.340319
9437.000000;1.340870
9436.000000;1.341674
9435.000000;1.342399
9434.000000;1.342690
9433.000000;1.342373
9432.000000;1.341450
9431.000000;1.339889
9430.000000;1.337613
9429.000000;1.334857
9428.000000;1.332344
9427.000000;1.330803
9426.000000;1.330358
9425.000000;1.330612
9424.000000;1.331261
9423.000000;1.332287
9422.000000;1.333498
9421.000000;1.334254
9420.000000;1.333929
9419.000000;1.332541
9418.000000;1.330740
9417.000000;1.329241
9416.000000;1.328356
9415.000000;1.327876
9414.000000;1.327318
9413.000000;1.326455
9412.000000;1.325676
9411.000000;1.325577
9410.000000;1.326139
9409.000000;1.326623
9408.000000;1.326459
9407.000000;1.325854
9406.000000;1.325192
9405.000000;1.324210
9404.000000;1.322392
9403.000000;1.320068
9402.000000;1.318417
9401.000000;1.318155
9400.000000;1.318617
9399.000000;1.318463
9398.000000;1.317140
9397.000000;1.315296
9396.000000;1.313959
9395.000000;1.313653
9394.000000;1.314255
9393.000000;1.315383
9392.000000;1.316619
9391.000000;1.317390
9390.000000;1.316997
9389.000000;1.315132
9388.000000;1.312424
9387.000000;1.310160
9386.000000;1.309263
9385.000000;1.309725
9384.000000;1.310959
9383.000000;1.312327
9382.000000;1.313299
9381.000000;1.313540
9380.000000;1.313220
9379.000000;1.312968
9378.000000;1.313098
9377.000000;1.313033
9376.000000;1.311934
9375.000000;1.309774
9374.000000;1.307300
9373.000000;1.305062
9372.000000;1.303074
9371.000000;1.301425
9370.000000;1.300530
9369.000000;1.300542
9368.000000;1.301026
9367.000000;1.301537
9366.000000;1.302095
9365.000000;1.302720
9364.000000;1.302947
9363.000000;1.302313
9362.000000;1.301083
9361.000000;1.299979
9360.000000;1.299368
9359.000000;1.299123
9358.000000;1.299101
9357.000000;1.299292
9356.000000;1.299555
9355.000000;1.299674
9354.000000;1.299695
9353.000000;1.299839
9352.000000;1.300025
9351.000000;1.299829
9350.000000;1.298969
9349.000000;1.297558
9348.000000;1.295840
9347.000000;1.294033
9346.000000;1.292461
9345.000000;1.291498
9344.000000;1.291225
9343.000000;1.291349
9342.000000;1.291507
9341.000000;1.291426
9340.000000;1.290807
9339.000000;1.289492
9338.000000;1.287900
9337.000000;1.286899
9336.000000;1.286901
9335.000000;1.287264
9334.000000;1.286910
9333.000000;1.285421
9332.000000;1.283292
9331.000000;1.281282
9330.000000;1.279835
9329.000000;1.279031
9328.000000;1.278778
9327.000000;1.278933
9326.000000;1.279381
9325.000000;1.280117
9324.000000;1.281143
9323.000000;1.282289
9322.000000;1.283255
9321.000000;1.283785
9320.000000;1.283638
9319.000000;1.282506
9318.000000;1.280341
9317.000000;1.277870
9316.000000;1.276350
9315.000000;1.276470
9314.000000;1.277634
9313.000000;1.278580
9312.000000;1.278639
9311.000000;1.278079
9310.000000;1.277316
9309.000000;1.276334
9308.000000;1.275077
9307.000000;1.273958
9306.000000;1.273539
9305.000000;1.273868
9304.000000;1.274494
9303.000000;1.274994
9302.000000;1.275145
9301.000000;1.274691
9300.000000;1.273491
9299.000000;1.271976
9298.000000;1.270955
9297.000000;1.270754
9296.000000;1.270976
9295.000000;1.271275
9294.000000;1.271826
9293.000000;1.272729
9292.000000;1.273430
9291.000000;1.273327
9290.000000;1.272626
9289.000000;1.271938
9288.000000;1.271261
9287.000000;1.270102
9286.000000;1.268539
9285.000000;1.267383
9284.000000;1.267071
9283.000000;1.267028
9282.000000;1.266433
9281.000000;1.265176
9280.000000;1.263771
9279.000000;1.262761
9278.000000;1.262486
9277.000000;1.263012
9276.000000;1.263902
9275.000000;1.264334
9274.000000;1.263895
9273.000000;1.263075
9272.000000;1.262616
9271.000000;1.262546
9270.000000;1.262271
9269.000000;1.261480
9268.000000;1.260487
9267.000000;1.259696
9266.000000;1.259131
9265.000000;1.258600
9264.000000;1.258028
9263.000000;1.257504
9262.000000;1.257156
9261.000000;1.257051
9260.000000;1.257087
9259.000000;1.256983
9258.000000;1.256498
9257.000000;1.255693
9256.000000;1.254870
9255.000000;1.254323
9254.000000;1.254216
9253.000000;1.254522
9252.000000;1.254938
9251.000000;1.255014
9250.000000;1.254609
9249.000000;1.254048
9248.000000;1.253605
9247.000000;1.253007
9246.000000;1.251854
9245.000000;1.250408
9244.000000;1.249500
9243.000000;1.249560
9242.000000;1.250082
9241.000000;1.250169
9240.000000;1.249398
9239.000000;1.248049
9238.000000;1.246800
9237.000000;1.246294
9236.000000;1.246699
9235.000000;1.247469
9234.000000;1.247790
9233.000000;1.247426
9232.000000;1.246860
9231.000000;1.246522
9230.000000;1.246217
9229.000000;1.245552
9228.000000;1.244616
9227.000000;1.243916
9226.000000;1.243735
9225.000000;1.243882
9224.000000;1.243960
9223.000000;1.243593
9222.000000;1.242536
9221.000000;1.240969
9220.000000;1.239646
9219.000000;1.239364
9218.000000;1.240102
9217.000000;1.240923
9216.000000;1.240923
9215.000000;1.240123
9214.000000;1.239286
9213.000000;1.239015
9212.000000;1.239236
9211.000000;1.239464
9210.000000;1.239342
9209.000000;1.238882
9208.000000;1.238303
9207.000000;1.237750
9206.000000;1.237145
9205.000000;1.236369
9204.000000;1.235537
9203.000000;1.235005
9202.000000;1.235012
9201.000000;1.235409
9200.000000;1.235786
9199.000000;1.235794
9198.000000;1.235281
9197.000000;1.234264
9196.000000;1.232965
9195.000000;1.231764
9194.000000;1.230878
9193.000000;1.230112
9192.000000;1.229174
9191.000000;1.228259
9190.000000;1.228004
9189.000000;1.228694
9188.000000;1.229771
9187.000000;1.230342
9186.000000;1.230047
9185.000000;1.229223
9184.000000;1.228340
9183.000000;1.227601
9182.000000;1.227115
9181.000000;1.227030
9180.000000;1.227291
9179.000000;1.227452
9178.000000;1.226981
9177.000000;1.225823
9176.000000;1.224606
9175.000000;1.224223
9174.000000;1.225093
9173.000000;1.226706
9172.000000;1.227948
9171.000000;1.228014
9170.000000;1.226978
9169.000000;1.225376
9168.000000;1.223534
9167.000000;1.221663
9166.000000;1.220359
9165.000000;1.220284
9164.000000;1.221219
9163.000000;1.222004
9162.000000;1.221819
9161.000000;1.221112
9160.000000;1.220814
9159.000000;1.221011
9158.000000;1.220991
9157.000000;1.220392
9156.000000;1.219684
9155.000000;1.219519
9154.000000;1.220058
9153.000000;1.220956
9152.000000;1.221606
9151.000000;1.221385
9150.000000;1.220086
9149.000000;1.218309
9148.000000;1.217067
9147.000000;1.216823
9146.000000;1.217046
9145.000000;1.216814
9144.000000;1.215691
9143.000000;1.214022
9142.000000;1.212634
9141.000000;1.212285
9140.000000;1.213132
9139.000000;1.214539
9138.000000;1.215561
9137.000000;1.215783
9136.000000;1.215545
9135.000000;1.215270
9134.000000;1.214883
9133.000000;1.214090
9132.000000;1.212984
9131.000000;1.212080
9130.000000;1.211746
9129.000000;1.211784
9128.000000;1.211603
9127.000000;1.210750
9126.000000;1.209306
9125.000000;1.207847
9124.000000;1.206967
9123.000000;1.206760
9122.000000;1.206800
9121.000000;1.206685
9120.000000;1.206502
9119.000000;1.206638
9118.000000;1.207223
9117.000000;1.207841
9116.000000;1.207816
9115.000000;1.206808
9114.000000;1.205240
9113.000000;1.204134
9112.000000;1.204334
9111.000000;1.205669
9110.000000;1.206932
9109.000000;1.206947
9108.000000;1.205771
9107.000000;1.204659
9106.000000;1.204721
9105.000000;1.205697
9104.000000;1.206236
9103.000000;1.205445
9102.000000;1.203897
9101.000000;1.202837
9100.000000;1.202664
9099.000000;1.202630
9098.000000;1.201993
9097.000000;1.200937
9096.000000;1.200165
9095.000000;1.200028
9094.000000;1.200362
9093.000000;1.200803
9092.000000;1.200889
9091.000000;1.200136
9090.000000;1.198549
9089.000000;1.196930
9088.000000;1.196203
9087.000000;1.196436
9086.000000;1.196903
9085.000000;1.197051
9084.000000;1.196967
9083.000000;1.196907
9082.000000;1.196892
9081.000000;1.196949
9080.000000;1.197294
9079.000000;1.197999
9078.000000;1.198755
9077.000000;1.199166
9076.000000;1.199045
9075.000000;1.198359
9074.000000;1.197213
9073.000000;1.196037
9072.000000;1.195421
9071.000000;1.195519
9070.000000;1.195833
9069.000000;1.195752
9068.000000;1.195089
9067.000000;1.193991
9066.000000;1.192681
9065.000000;1.191520
9064.000000;1.190941
9063.000000;1.191012
9062.000000;1.191331
9061.000000;1.191591
9060.000000;1.191999
9059.000000;1.192809
9058.000000;1.193711
9057.000000;1.194078
9056.000000;1.193736
9055.000000;1.193118
9054.000000;1.192679
9053.000000;1.192486
