Criado como novo conjunto de dados;"1909daniel.spp","-4269224.2 Secs"
cm-1;Abs
10000.000000;1.538193
9999.000000;1.538724
9998.000000;1.537138
9997.000000;1.534534
9996.000000;1.532818
9995.000000;1.532216
9994.000000;1.531971
9993.000000;1.531577
9992.000000;1.531726
9991.000000;1.533117
9990.000000;1.535221
9989.000000;1.536211
9988.000000;1.534495
9987.000000;1.530296
9986.000000;1.525494
9985.000000;1.521849
9984.000000;1.519697
9983.000000;1.518463
9982.000000;1.517879
9981.000000;1.518102
9980.000000;1.518920
9979.000000;1.519676
9978.000000;1.520081
9977.000000;1.520439
9976.000000;1.520928
9975.000000;1.521307
9974.000000;1.521498
9973.000000;1.521725
9972.000000;1.521709
9971.000000;1.520362
9970.000000;1.516993
9969.000000;1.512605
9968.000000;1.509308
9967.000000;1.508407
9966.000000;1.509358
9965.000000;1.510525
9964.000000;1.510780
9963.000000;1.510321
9962.000000;1.509953
9961.000000;1.509747
9960.000000;1.508790
9959.000000;1.506483
9958.000000;1.503688
9957.000000;1.501983
9956.000000;1.501931
9955.000000;1.502706
9954.000000;1.503365
9953.000000;1.503779
9952.000000;1.504059
9951.000000;1.503832
9950.000000;1.502656
9949.000000;1.500766
9948.000000;1.498953
9947.000000;1.497880
9946.000000;1.497738
9945.000000;1.498239
9944.000000;1.498697
9943.000000;1.498475
9942.000000;1.497637
9941.000000;1.496779
9940.000000;1.496034
9939.000000;1.494764
9938.000000;1.492672
9937.000000;1.490667
9936.000000;1.489977
9935.000000;1.490675
9934.000000;1.491691
9933.000000;1.492107
9932.000000;1.491885
9931.000000;1.491405
9930.000000;1.490898
9929.000000;1.490392
9928.000000;1.489800
9927.000000;1.488994
9926.000000;1.488013
9925.000000;1.487073
9924.000000;1.486073
9923.000000;1.484451
9922.000000;1.482077
9921.000000;1.480016
9920.000000;1.479645
9919.000000;1.480991
9918.000000;1.482544
9917.000000;1.482873
9916.000000;1.481895
9915.000000;1.480376
9914.000000;1.478931
9913.000000;1.478045
9912.000000;1.478324
9911.000000;1.479789
9910.000000;1.481119
9909.000000;1.480607
9908.000000;1.478126
9907.000000;1.475414
9906.000000;1.474103
9905.000000;1.474039
9904.000000;1.473859
9903.000000;1.472808
9902.000000;1.471420
9901.000000;1.470520
9900.000000;1.470134
9899.000000;1.469542
9898.000000;1.468156
9897.000000;1.466187
9896.000000;1.464524
9895.000000;1.464049
9894.000000;1.464875
9893.000000;1.466084
9892.000000;1.466353
9891.000000;1.465110
9890.000000;1.463036
9889.000000;1.461325
9888.000000;1.460503
9887.000000;1.460089
9886.000000;1.459365
9885.000000;1.458293
9884.000000;1.457524
9883.000000;1.457490
9882.000000;1.457676
9881.000000;1.457007
9880.000000;1.455082
9879.000000;1.452816
9878.000000;1.451536
9877.000000;1.451513
9876.000000;1.451764
9875.000000;1.451379
9874.000000;1.450632
9873.000000;1.450476
9872.000000;1.451240
9871.000000;1.452290
9870.000000;1.452744
9869.000000;1.452017
9868.000000;1.449907
9867.000000;1.446743
9866.000000;1.443542
9865.000000;1.441509
9864.000000;1.441029
9863.000000;1.441324
9862.000000;1.441291
9861.000000;1.440595
9860.000000;1.439790
9859.000000;1.439475
9858.000000;1.439505
9857.000000;1.439080
9856.000000;1.437665
9855.000000;1.435824
9854.000000;1.434847
9853.000000;1.435330
9852.000000;1.436404
9851.000000;1.436665
9850.000000;1.435661
9849.000000;1.433996
9848.000000;1.432207
9847.000000;1.430318
9846.000000;1.428535
9845.000000;1.427570
9844.000000;1.427755
9843.000000;1.428364
9842.000000;1.428372
9841.000000;1.427604
9840.000000;1.426652
9839.000000;1.425908
9838.000000;1.425151
9837.000000;1.424029
9836.000000;1.422590
9835.000000;1.421349
9834.000000;1.420903
9833.000000;1.421296
9832.000000;1.421705
9831.000000;1.421117
9830.000000;1.419493
9829.000000;1.417950
9828.000000;1.417563
9827.000000;1.418324
9826.000000;1.419482
9825.000000;1.420441
9824.000000;1.420912
9823.000000;1.420558
9822.000000;1.419209
9821.000000;1.417376
9820.000000;1.415985
9819.000000;1.415435
9818.000000;1.415218
9817.000000;1.414485
9816.000000;1.412816
9815.000000;1.410499
9814.000000;1.408361
9813.000000;1.407321
9812.000000;1.407789
9811.000000;1.409282
9810.000000;1.410696
9809.000000;1.411059
9808.000000;1.410072
9807.000000;1.408101
9806.000000;1.405827
9805.000000;1.403789
9804.000000;1.402100
9803.000000;1.400544
9802.000000;1.399018
9801.000000;1.397728
9800.000000;1.396957
9799.000000;1.396795
9798.000000;1.397124
9797.000000;1.397602
9796.000000;1.397576
9795.000000;1.396453
9794.000000;1.394557
9793.000000;1.393167
9792.000000;1.393234
9791.000000;1.394319
9790.000000;1.395158
9789.000000;1.395004
9788.000000;1.394062
9787.000000;1.392876
9786.000000;1.391836
9785.000000;1.391145
9784.000000;1.390777
9783.000000;1.390439
9782.000000;1.389923
9781.000000;1.389309
9780.000000;1.388536
9779.000000;1.387112
9778.000000;1.384830
9777.000000;1.382488
9776.000000;1.381228
9775.000000;1.381284
9774.000000;1.381939
9773.000000;1.382598
9772.000000;1.383161
9771.000000;1.383363
9770.000000;1.382659
9769.000000;1.381062
9768.000000;1.379316
9767.000000;1.377866
9766.000000;1.376363
9765.000000;1.374644
9764.000000;1.373449
9763.000000;1.373416
9762.000000;1.373880
9761.000000;1.373524
9760.000000;1.372117
9759.000000;1.370778
9758.000000;1.370363
9757.000000;1.370334
9756.000000;1.369591
9755.000000;1.368058
9754.000000;1.366906
9753.000000;1.367218
9752.000000;1.368740
9751.000000;1.370076
9750.000000;1.369966
9749.000000;1.368277
9748.000000;1.365889
9747.000000;1.363875
9746.000000;1.362831
9745.000000;1.362716
9744.000000;1.363055
9743.000000;1.363265
9742.000000;1.362964
9741.000000;1.362066
9740.000000;1.360649
9739.000000;1.358890
9738.000000;1.357126
9737.000000;1.355711
9736.000000;1.354645
9735.000000;1.353586
9734.000000;1.352431
9733.000000;1.351587
9732.000000;1.351380
9731.000000;1.351426
9730.000000;1.350991
9729.000000;1.349904
9728.000000;1.348732
9727.000000;1.348126
9726.000000;1.348349
9725.000000;1.349271
9724.000000;1.350307
9723.000000;1.350483
9722.000000;1.349205
9721.000000;1.347091
9720.000000;1.345497
9719.000000;1.345025
9718.000000;1.344952
9717.000000;1.344376
9716.000000;1.343407
9715.000000;1.342838
9714.000000;1.342991
9713.000000;1.343328
9712.000000;1.342994
9711.000000;1.341496
9710.000000;1.339052
9709.000000;1.336563
9708.000000;1.335040
9707.000000;1.334748
9706.000000;1.335022
9705.000000;1.335058
9704.000000;1.334684
9703.000000;1.334196
9702.000000;1.333757
9701.000000;1.333286
9700.000000;1.332753
9699.000000;1.332219
9698.000000;1.331618
9697.000000;1.330744
9696.000000;1.329425
9695.000000;1.327671
9694.000000;1.325808
9693.000000;1.324546
9692.000000;1.324605
9691.000000;1.326000
9690.000000;1.327851
9689.000000;1.329107
9688.000000;1.329330
9687.000000;1.328656
9686.000000;1.327350
9685.000000;1.325689
9684.000000;1.323999
9683.000000;1.322431
9682.000000;1.320874
9681.000000;1.319395
9680.000000;1.318522
9679.000000;1.318665
9678.000000;1.319386
9677.000000;1.319689
9676.000000;1.319051
9675.000000;1.317812
9674.000000;1.316532
9673.000000;1.315358
9672.000000;1.314137
9671.000000;1.312877
9670.000000;1.311911
9669.000000;1.311651
9668.000000;1.312139
9667.000000;1.312753
9666.000000;1.312552
9665.000000;1.311190
9664.000000;1.309362
9663.000000;1.308081
9662.000000;1.307679
9661.000000;1.307780
9660.000000;1.308063
9659.000000;1.308562
9658.000000;1.309138
9657.000000;1.309173
9656.000000;1.308120
9655.000000;1.306184
9654.000000;1.304242
9653.000000;1.303194
9652.000000;1.303443
9651.000000;1.304655
9650.000000;1.305828
9649.000000;1.305837
9648.000000;1.304224
9647.000000;1.301566
9646.000000;1.299006
9645.000000;1.297428
9644.000000;1.296977
9643.000000;1.297120
9642.000000;1.297065
9641.000000;1.296273
9640.000000;1.294788
9639.000000;1.293184
9638.000000;1.292118
9637.000000;1.291811
9636.000000;1.291856
9635.000000;1.291582
9634.000000;1.290751
9633.000000;1.289895
9632.000000;1.289734
9631.000000;1.290244
9630.000000;1.290612
9629.000000;1.290223
9628.000000;1.289341
9627.000000;1.288552
9626.000000;1.287914
9625.000000;1.287129
9624.000000;1.286267
9623.000000;1.285747
9622.000000;1.285667
9621.000000;1.285640
9620.000000;1.285344
9619.000000;1.284737
9618.000000;1.283688
9617.000000;1.281979
9616.000000;1.279882
9615.000000;1.278203
9614.000000;1.277367
9613.000000;1.276810
9612.000000;1.275700
9611.000000;1.274003
9610.000000;1.272435
9609.000000;1.271511
9608.000000;1.271064
9607.000000;1.270659
9606.000000;1.270188
9605.000000;1.269965
9604.000000;1.270337
9603.000000;1.271246
9602.000000;1.272109
9601.000000;1.272226
9600.000000;1.271436
9599.000000;1.270285
9598.000000;1.269420
9597.000000;1.268948
9596.000000;1.268512
9595.000000;1.267825
9594.000000;1.266909
9593.000000;1.265894
9592.000000;1.264902
9591.000000;1.264174
9590.000000;1.264071
9589.000000;1.264730
9588.000000;1.265712
9587.000000;1.266130
9586.000000;1.265313
9585.000000;1.263426
9584.000000;1.261367
9583.000000;1.259953
9582.000000;1.259214
9581.000000;1.258570
9580.000000;1.257638
9579.000000;1.256621
9578.000000;1.255783
9577.000000;1.254873
9576.000000;1.253428
9575.000000;1.251556
9574.000000;1.250041
9573.000000;1.249548
9572.000000;1.249943
9571.000000;1.250501
9570.000000;1.250604
9569.000000;1.250085
9568.000000;1.249068
9567.000000;1.247786
9566.000000;1.246644
9565.000000;1.246208
9564.000000;1.246802
9563.000000;1.248007
9562.000000;1.248829
9561.000000;1.248583
9560.000000;1.247446
9559.000000;1.246034
9558.000000;1.244683
9557.000000;1.243396
9556.000000;1.242353
9555.000000;1.241929
9554.000000;1.242010
9553.000000;1.241764
9552.000000;1.240466
9551.000000;1.238360
9550.000000;1.236442
9549.000000;1.235571
9548.000000;1.235978
9547.000000;1.237382
9546.000000;1.239095
9545.000000;1.240092
9544.000000;1.239583
9543.000000;1.237815
9542.000000;1.236025
9541.000000;1.235347
9540.000000;1.235850
9539.000000;1.236647
9538.000000;1.236755
9537.000000;1.235748
9536.000000;1.233827
9535.000000;1.231526
9534.000000;1.229322
9533.000000;1.227393
9532.000000;1.225726
9531.000000;1.224418
9530.000000;1.223701
9529.000000;1.223559
9528.000000;1.223510
9527.000000;1.222983
9526.000000;1.221922
9525.000000;1.220854
9524.000000;1.220382
9523.000000;1.220706
9522.000000;1.221522
9521.000000;1.222214
9520.000000;1.222265
9519.000000;1.221681
9518.000000;1.221049
9517.000000;1.221020
9516.000000;1.221686
9515.000000;1.222457
9514.000000;1.222538
9513.000000;1.221487
9512.000000;1.219464
9511.000000;1.217197
9510.000000;1.215656
9509.000000;1.215382
9508.000000;1.215941
9507.000000;1.216251
9506.000000;1.215736
9505.000000;1.214956
9504.000000;1.214770
9503.000000;1.215091
9502.000000;1.214950
9501.000000;1.213838
9500.000000;1.212449
9499.000000;1.211760
9498.000000;1.211801
9497.000000;1.211769
9496.000000;1.211126
9495.000000;1.210088
9494.000000;1.209021
9493.000000;1.207896
9492.000000;1.206582
9491.000000;1.205310
9490.000000;1.204527
9489.000000;1.204415
9488.000000;1.204782
9487.000000;1.205304
9486.000000;1.205722
9485.000000;1.205895
9484.000000;1.205834
9483.000000;1.205628
9482.000000;1.205214
9481.000000;1.204349
9480.000000;1.202943
9479.000000;1.201282
9478.000000;1.199708
9477.000000;1.198232
9476.000000;1.196719
9475.000000;1.195362
9474.000000;1.194576
9473.000000;1.194368
9472.000000;1.194148
9471.000000;1.193376
9470.000000;1.192223
9469.000000;1.191392
9468.000000;1.191388
9467.000000;1.192081
9466.000000;1.192882
9465.000000;1.193185
9464.000000;1.192709
9463.000000;1.191574
9462.000000;1.190143
9461.000000;1.188753
9460.000000;1.187553
9459.000000;1.186476
9458.000000;1.185308
9457.000000;1.183910
9456.000000;1.182559
9455.000000;1.182002
9454.000000;1.182817
9453.000000;1.184607
9452.000000;1.186046
9451.000000;1.186028
9450.000000;1.184661
9449.000000;1.182956
9448.000000;1.181685
9447.000000;1.180883
9446.000000;1.180328
9445.000000;1.180010
9444.000000;1.179940
9443.000000;1.179872
9442.000000;1.179549
9441.000000;1.179104
9440.000000;1.178926
9439.000000;1.179178
9438.000000;1.179696
9437.000000;1.180295
9436.000000;1.180842
9435.000000;1.180983
9434.000000;1.180193
9433.000000;1.178374
9432.000000;1.176169
9431.000000;1.174382
9430.000000;1.173256
9429.000000;1.172589
9428.000000;1.172381
9427.000000;1.172863
9426.000000;1.173820
9425.000000;1.174354
9424.000000;1.173693
9423.000000;1.172012
9422.000000;1.170206
9421.000000;1.169044
9420.000000;1.168696
9419.000000;1.168790
9418.000000;1.168632
9417.000000;1.167604
9416.000000;1.165775
9415.000000;1.164048
9414.000000;1.163314
9413.000000;1.163470
9412.000000;1.163589
9411.000000;1.163074
9410.000000;1.162255
9409.000000;1.161762
9408.000000;1.161700
9407.000000;1.161656
9406.000000;1.161198
9405.000000;1.160143
9404.000000;1.158598
9403.000000;1.157037
9402.000000;1.156143
9401.000000;1.156220
9400.000000;1.156847
9399.000000;1.157328
9398.000000;1.157429
9397.000000;1.157417
9396.000000;1.157470
9395.000000;1.157363
9394.000000;1.156822
9393.000000;1.155926
9392.000000;1.154986
9391.000000;1.154151
9390.000000;1.153324
9389.000000;1.152452
9388.000000;1.151767
9387.000000;1.151649
9386.000000;1.152249
9385.000000;1.153266
9384.000000;1.154100
9383.000000;1.154211
9382.000000;1.153411
9381.000000;1.151945
9380.000000;1.150340
9379.000000;1.149083
9378.000000;1.148298
9377.000000;1.147735
9376.000000;1.147155
9375.000000;1.146605
9374.000000;1.146169
9373.000000;1.145606
9372.000000;1.144566
9371.000000;1.143203
9370.000000;1.142250
9369.000000;1.142275
9368.000000;1.143039
9367.000000;1.143711
9366.000000;1.143559
9365.000000;1.142378
9364.000000;1.140485
9363.000000;1.138499
9362.000000;1.137016
9361.000000;1.136292
9360.000000;1.136253
9359.000000;1.136823
9358.000000;1.137997
9357.000000;1.139452
9356.000000;1.140334
9355.000000;1.139841
9354.000000;1.137987
9353.000000;1.135595
9352.000000;1.133602
9351.000000;1.132496
9350.000000;1.132222
9349.000000;1.132347
9348.000000;1.132374
9347.000000;1.132135
9346.000000;1.131853
9345.000000;1.131706
9344.000000;1.131489
9343.000000;1.130961
9342.000000;1.130364
9341.000000;1.130231
9340.000000;1.130680
9339.000000;1.131242
9338.000000;1.131453
9337.000000;1.131332
9336.000000;1.131093
9335.000000;1.130633
9334.000000;1.129578
9333.000000;1.127796
9332.000000;1.125731
9331.000000;1.124163
9330.000000;1.123608
9329.000000;1.123882
9328.000000;1.124303
9327.000000;1.124372
9326.000000;1.124190
9325.000000;1.124137
9324.000000;1.124328
9323.000000;1.124519
9322.000000;1.124434
9321.000000;1.123927
9320.000000;1.122920
9319.000000;1.121477
9318.000000;1.120003
9317.000000;1.119108
9316.000000;1.119087
9315.000000;1.119581
9314.000000;1.119807
9313.000000;1.119175
9312.000000;1.117757
9311.000000;1.116241
9310.000000;1.115316
9309.000000;1.114989
9308.000000;1.114648
9307.000000;1.113902
9306.000000;1.113112
9305.000000;1.112848
9304.000000;1.113065
9303.000000;1.113218
9302.000000;1.113059
9301.000000;1.112828
9300.000000;1.112663
9299.000000;1.112356
9298.000000;1.111861
9297.000000;1.111556
9296.000000;1.111653
9295.000000;1.111709
9294.000000;1.111123
9293.000000;1.109978
9292.000000;1.109011
9291.000000;1.108765
9290.000000;1.109010
9289.000000;1.109000
9288.000000;1.108206
9287.000000;1.106836
9286.000000;1.105711
9285.000000;1.105547
9284.000000;1.106267
9283.000000;1.107064
9282.000000;1.107169
9281.000000;1.106488
9280.000000;1.105537
9279.000000;1.104947
9278.000000;1.105057
9277.000000;1.105722
9276.000000;1.106337
9275.000000;1.106214
9274.000000;1.105144
9273.000000;1.103574
9272.000000;1.102111
9271.000000;1.101000
9270.000000;1.100165
9269.000000;1.099542
9268.000000;1.099155
9267.000000;1.098959
9266.000000;1.098827
9265.000000;1.098678
9264.000000;1.098488
9263.000000;1.098172
9262.000000;1.097572
9261.000000;1.096611
9260.000000;1.095448
9259.000000;1.094463
9258.000000;1.094038
9257.000000;1.094265
9256.000000;1.094884
9255.000000;1.095584
9254.000000;1.096279
9253.000000;1.096925
9252.000000;1.097188
9251.000000;1.096648
9250.000000;1.095431
9249.000000;1.094305
9248.000000;1.093933
9247.000000;1.094206
9246.000000;1.094461
9245.000000;1.094160
9244.000000;1.093216
9243.000000;1.091869
9242.000000;1.090497
9241.000000;1.089457
9240.000000;1.088902
9239.000000;1.088726
9238.000000;1.088793
9237.000000;1.089084
9236.000000;1.089481
9235.000000;1.089569
9234.000000;1.088955
9233.000000;1.087748
9232.000000;1.086518
9231.000000;1.085736
9230.000000;1.085422
9229.000000;1.085309
9228.000000;1.085128
9227.000000;1.084717
9226.000000;1.084049
9225.000000;1.083294
9224.000000;1.082760
9223.000000;1.082658
9222.000000;1.082955
9221.000000;1.083422
9220.000000;1.083764
9219.000000;1.083683
9218.000000;1.082974
9217.000000;1.081706
9216.000000;1.080325
9215.000000;1.079461
9214.000000;1.079485
9213.000000;1.080180
9212.000000;1.080866
9211.000000;1.080947
9210.000000;1.080367
9209.000000;1.079490
9208.000000;1.078646
9207.000000;1.077929
9206.000000;1.077388
9205.000000;1.077177
9204.000000;1.077322
9203.000000;1.077436
9202.000000;1.076932
9201.000000;1.075619
9200.000000;1.074007
9199.000000;1.072889
9198.000000;1.072599
9197.000000;1.072699
9196.000000;1.072461
9195.000000;1.071600
9194.000000;1.070481
9193.000000;1.069679
9192.000000;1.069561
9191.000000;1.070268
9190.000000;1.071701
9189.000000;1.073287
9188.000000;1.074095
9187.000000;1.073685
9186.000000;1.072722
9185.000000;1.072238
9184.000000;1.072358
9183.000000;1.072240
9182.000000;1.071342
9181.000000;1.070191
9180.000000;1.069640
9179.000000;1.069812
9178.000000;1.070120
9177.000000;1.070024
9176.000000;1.069412
9175.000000;1.068449
9174.000000;1.067432
9173.000000;1.066665
9172.000000;1.066182
9171.000000;1.065702
9170.000000;1.065092
9169.000000;1.064704
9168.000000;1.064963
9167.000000;1.065757
9166.000000;1.066512
9165.000000;1.066746
9164.000000;1.066277
9163.000000;1.065062
9162.000000;1.063274
9161.000000;1.061536
9160.000000;1.060599
9159.000000;1.060611
9158.000000;1.060960
9157.000000;1.061014
9156.000000;1.060819
9155.000000;1.060880
9154.000000;1.061467
9153.000000;1.062295
9152.000000;1.062792
9151.000000;1.062554
9150.000000;1.061584
9149.000000;1.060216
9148.000000;1.058848
9147.000000;1.057749
9146.000000;1.057046
9145.000000;1.056784
9144.000000;1.056869
9143.000000;1.057054
9142.000000;1.057107
9141.000000;1.056965
9140.000000;1.056638
9139.000000;1.056095
9138.000000;1.055439
9137.000000;1.055107
9136.000000;1.055581
9135.000000;1.056758
9134.000000;1.057788
9133.000000;1.057743
9132.000000;1.056480
9131.000000;1.054777
9130.000000;1.053628
9129.000000;1.053397
9128.000000;1.053597
9127.000000;1.053472
9126.000000;1.052765
9125.000000;1.051917
9124.000000;1.051537
9123.000000;1.051779
9122.000000;1.052299
9121.000000;1.052690
9120.000000;1.052793
9119.000000;1.052640
9118.000000;1.052285
9117.000000;1.051788
9116.000000;1.051264
9115.000000;1.050863
9114.000000;1.050698
9113.000000;1.050761
9112.000000;1.050893
9111.000000;1.050872
9110.000000;1.050553
9109.000000;1.049937
9108.000000;1.049129
9107.000000;1.048336
9106.000000;1.047868
9105.000000;1.047945
9104.000000;1.048431
9103.000000;1.048884
9102.000000;1.049012
9101.000000;1.048940
9100.000000;1.048901
9099.000000;1.048816
9098.000000;1.048398
9097.000000;1.047622
9096.000000;1.046865
9095.000000;1.046506
9094.000000;1.046494
9093.000000;1.046380
9092.000000;1.045787
9091.000000;1.044839
9090.000000;1.044052
9089.000000;1.043694
9088.000000;1.043341
9087.000000;1.042338
9086.000000;1.040739
9085.000000;1.039447
9084.000000;1.039235
9083.000000;1.039929
9082.000000;1.040823
9081.000000;1.041602
9080.000000;1.042421
9079.000000;1.043214
9078.000000;1.043487
9077.000000;1.042937
9076.000000;1.041880
9075.000000;1.040854
9074.000000;1.040087
9073.000000;1.039535
9072.000000;1.039179
9071.000000;1.039033
9070.000000;1.039000
9069.000000;1.038965
9068.000000;1.038968
9067.000000;1.039129
9066.000000;1.039431
9065.000000;1.039701
9064.000000;1.039760
9063.000000;1.039493
9062.000000;1.038839
9061.000000;1.037815
9060.000000;1.036580
9059.000000;1.035408
9058.000000;1.034591
9057.000000;1.034313
9056.000000;1.034527
9055.000000;1.034901
9054.000000;1.034996
9053.000000;1.034609
