Criado como novo conjunto de dados;"1909daniel.spp","-4233762.1 Secs"
cm-1;Abs
10000.000000;1.454381
9999.000000;1.453809
9998.000000;1.453258
9997.000000;1.452671
9996.000000;1.452151
9995.000000;1.451498
9994.000000;1.451237
9993.000000;1.452255
9992.000000;1.453267
9991.000000;1.453350
9990.000000;1.452290
9989.000000;1.450499
9988.000000;1.448297
9987.000000;1.446072
9986.000000;1.444512
9985.000000;1.444270
9984.000000;1.445315
9983.000000;1.446834
9982.000000;1.447903
9981.000000;1.448093
9980.000000;1.447459
9979.000000;1.446226
9978.000000;1.444665
9977.000000;1.443080
9976.000000;1.441674
9975.000000;1.440423
9974.000000;1.439202
9973.000000;1.438049
9972.000000;1.437219
9971.000000;1.436890
9970.000000;1.436878
9969.000000;1.436760
9968.000000;1.436304
9967.000000;1.435641
9966.000000;1.434931
9965.000000;1.434007
9964.000000;1.432551
9963.000000;1.430629
9962.000000;1.428858
9961.000000;1.427897
9960.000000;1.427838
9959.000000;1.428189
9958.000000;1.428458
9957.000000;1.428588
9956.000000;1.428759
9955.000000;1.428915
9954.000000;1.428698
9953.000000;1.427766
9952.000000;1.425997
9951.000000;1.423469
9950.000000;1.420563
9949.000000;1.418083
9948.000000;1.416750
9947.000000;1.416365
9946.000000;1.415922
9945.000000;1.414995
9944.000000;1.414535
9943.000000;1.415592
9942.000000;1.417571
9941.000000;1.418672
9940.000000;1.418112
9939.000000;1.416918
9938.000000;1.416193
9937.000000;1.415594
9936.000000;1.414190
9935.000000;1.412002
9934.000000;1.409822
9933.000000;1.408066
9932.000000;1.406791
9931.000000;1.406460
9930.000000;1.407546
9929.000000;1.409293
9928.000000;1.409867
9927.000000;1.408278
9926.000000;1.405540
9925.000000;1.403505
9924.000000;1.403055
9923.000000;1.403769
9922.000000;1.404857
9921.000000;1.405851
9920.000000;1.406504
9919.000000;1.406523
9918.000000;1.405591
9917.000000;1.403601
9916.000000;1.400919
9915.000000;1.398460
9914.000000;1.397248
9913.000000;1.397644
9912.000000;1.398964
9911.000000;1.399951
9910.000000;1.399737
9909.000000;1.398434
9908.000000;1.396860
9907.000000;1.395721
9906.000000;1.395012
9905.000000;1.394195
9904.000000;1.393015
9903.000000;1.392001
9902.000000;1.391943
9901.000000;1.392832
9900.000000;1.393546
9899.000000;1.392847
9898.000000;1.390708
9897.000000;1.388451
9896.000000;1.387439
9895.000000;1.387712
9894.000000;1.387997
9893.000000;1.387059
9892.000000;1.384900
9891.000000;1.382462
9890.000000;1.380423
9889.000000;1.378684
9888.000000;1.376946
9887.000000;1.375338
9886.000000;1.374268
9885.000000;1.373959
9884.000000;1.374372
9883.000000;1.375382
9882.000000;1.376774
9881.000000;1.378179
9880.000000;1.379164
9879.000000;1.379240
9878.000000;1.377906
9877.000000;1.375169
9876.000000;1.372088
9875.000000;1.370180
9874.000000;1.369926
9873.000000;1.370284
9872.000000;1.370047
9871.000000;1.369291
9870.000000;1.368936
9869.000000;1.369225
9868.000000;1.369355
9867.000000;1.368525
9866.000000;1.366784
9865.000000;1.364869
9864.000000;1.363651
9863.000000;1.363686
9862.000000;1.364739
9861.000000;1.365706
9860.000000;1.365536
9859.000000;1.364329
9858.000000;1.363135
9857.000000;1.362707
9856.000000;1.362881
9855.000000;1.363075
9854.000000;1.362795
9853.000000;1.361644
9852.000000;1.359500
9851.000000;1.356918
9850.000000;1.354823
9849.000000;1.353585
9848.000000;1.352851
9847.000000;1.352394
9846.000000;1.352531
9845.000000;1.353437
9844.000000;1.354565
9843.000000;1.355134
9842.000000;1.354888
9841.000000;1.354064
9840.000000;1.352919
9839.000000;1.351644
9838.000000;1.350377
9837.000000;1.349008
9836.000000;1.347265
9835.000000;1.345322
9834.000000;1.343956
9833.000000;1.343730
9832.000000;1.344272
9831.000000;1.344722
9830.000000;1.344653
9829.000000;1.344195
9828.000000;1.343477
9827.000000;1.342499
9826.000000;1.341492
9825.000000;1.340877
9824.000000;1.340709
9823.000000;1.340473
9822.000000;1.339591
9821.000000;1.337997
9820.000000;1.336196
9819.000000;1.334908
9818.000000;1.334618
9817.000000;1.335290
9816.000000;1.336387
9815.000000;1.337191
9814.000000;1.337183
9813.000000;1.336261
9812.000000;1.334775
9811.000000;1.333290
9810.000000;1.332097
9809.000000;1.330913
9808.000000;1.329267
9807.000000;1.327262
9806.000000;1.325657
9805.000000;1.325027
9804.000000;1.325110
9803.000000;1.325174
9802.000000;1.324838
9801.000000;1.324324
9800.000000;1.324055
9799.000000;1.324222
9798.000000;1.324594
9797.000000;1.324596
9796.000000;1.323806
9795.000000;1.322497
9794.000000;1.321409
9793.000000;1.320794
9792.000000;1.319999
9791.000000;1.318354
9790.000000;1.316187
9789.000000;1.314502
9788.000000;1.313768
9787.000000;1.313536
9786.000000;1.313243
9785.000000;1.312924
9784.000000;1.312906
9783.000000;1.313135
9782.000000;1.313135
9781.000000;1.312533
9780.000000;1.311386
9779.000000;1.310036
9778.000000;1.308887
9777.000000;1.308303
9776.000000;1.308504
9775.000000;1.309293
9774.000000;1.309903
9773.000000;1.309427
9772.000000;1.307703
9771.000000;1.305652
9770.000000;1.304420
9769.000000;1.304133
9768.000000;1.303804
9767.000000;1.302646
9766.000000;1.301134
9765.000000;1.300400
9764.000000;1.300802
9763.000000;1.301576
9762.000000;1.301864
9761.000000;1.301595
9760.000000;1.301124
9759.000000;1.300422
9758.000000;1.299115
9757.000000;1.297210
9756.000000;1.295355
9755.000000;1.294213
9754.000000;1.293801
9753.000000;1.293621
9752.000000;1.293263
9751.000000;1.292644
9750.000000;1.291804
9749.000000;1.290825
9748.000000;1.289963
9747.000000;1.289479
9746.000000;1.289168
9745.000000;1.288361
9744.000000;1.286732
9743.000000;1.284838
9742.000000;1.283515
9741.000000;1.282912
9740.000000;1.282538
9739.000000;1.282050
9738.000000;1.281437
9737.000000;1.280479
9736.000000;1.278799
9735.000000;1.276766
9734.000000;1.275671
9733.000000;1.276398
9732.000000;1.278263
9731.000000;1.279708
9730.000000;1.279957
9729.000000;1.279441
9728.000000;1.278668
9727.000000;1.277404
9726.000000;1.275271
9725.000000;1.272623
9724.000000;1.270411
9723.000000;1.269353
9722.000000;1.269450
9721.000000;1.270106
9720.000000;1.270535
9719.000000;1.270251
9718.000000;1.269430
9717.000000;1.268766
9716.000000;1.268770
9715.000000;1.269212
9714.000000;1.269377
9713.000000;1.268858
9712.000000;1.267965
9711.000000;1.267286
9710.000000;1.267003
9709.000000;1.266791
9708.000000;1.266329
9707.000000;1.265685
9706.000000;1.265103
9705.000000;1.264571
9704.000000;1.263811
9703.000000;1.262651
9702.000000;1.261242
9701.000000;1.259872
9700.000000;1.258768
9699.000000;1.258116
9698.000000;1.258036
9697.000000;1.258363
9696.000000;1.258564
9695.000000;1.258089
9694.000000;1.256837
9693.000000;1.255233
9692.000000;1.253938
9691.000000;1.253438
9690.000000;1.253687
9689.000000;1.253959
9688.000000;1.253329
9687.000000;1.251635
9686.000000;1.249869
9685.000000;1.249200
9684.000000;1.249583
9683.000000;1.249775
9682.000000;1.248889
9681.000000;1.247509
9680.000000;1.246837
9679.000000;1.247089
9678.000000;1.247236
9677.000000;1.246277
9676.000000;1.244334
9675.000000;1.242368
9674.000000;1.241208
9673.000000;1.241100
9672.000000;1.241803
9671.000000;1.242725
9670.000000;1.243111
9669.000000;1.242506
9668.000000;1.241179
9667.000000;1.239865
9666.000000;1.239020
9665.000000;1.238488
9664.000000;1.237869
9663.000000;1.236935
9662.000000;1.235684
9661.000000;1.234252
9660.000000;1.232915
9659.000000;1.231989
9658.000000;1.231522
9657.000000;1.231209
9656.000000;1.230741
9655.000000;1.230138
9654.000000;1.229580
9653.000000;1.229052
9652.000000;1.228403
9651.000000;1.227731
9650.000000;1.227372
9649.000000;1.227407
9648.000000;1.227416
9647.000000;1.226895
9646.000000;1.225831
9645.000000;1.224723
9644.000000;1.224039
9643.000000;1.223766
9642.000000;1.223501
9641.000000;1.222959
9640.000000;1.222304
9639.000000;1.221933
9638.000000;1.221969
9637.000000;1.222092
9636.000000;1.221920
9635.000000;1.221401
9634.000000;1.220672
9633.000000;1.219715
9632.000000;1.218434
9631.000000;1.217028
9630.000000;1.215955
9629.000000;1.215399
9628.000000;1.215040
9627.000000;1.214543
9626.000000;1.214036
9625.000000;1.213815
9624.000000;1.213699
9623.000000;1.213086
9622.000000;1.211743
9621.000000;1.210208
9620.000000;1.209192
9619.000000;1.208814
9618.000000;1.208708
9617.000000;1.208714
9616.000000;1.209019
9615.000000;1.209572
9614.000000;1.209795
9613.000000;1.209193
9612.000000;1.208013
9611.000000;1.206936
9610.000000;1.206246
9609.000000;1.205673
9608.000000;1.204977
9607.000000;1.204261
9606.000000;1.203636
9605.000000;1.202941
9604.000000;1.202027
9603.000000;1.201060
9602.000000;1.200348
9601.000000;1.200040
9600.000000;1.200129
9599.000000;1.200482
9598.000000;1.200749
9597.000000;1.200495
9596.000000;1.199675
9595.000000;1.198780
9594.000000;1.198258
9593.000000;1.197946
9592.000000;1.197328
9591.000000;1.196166
9590.000000;1.194619
9589.000000;1.192944
9588.000000;1.191418
9587.000000;1.190374
9586.000000;1.189921
9585.000000;1.189715
9584.000000;1.189402
9583.000000;1.189144
9582.000000;1.189276
9581.000000;1.189509
9580.000000;1.189018
9579.000000;1.187472
9578.000000;1.185538
9577.000000;1.184130
9576.000000;1.183543
9575.000000;1.183471
9574.000000;1.183471
9573.000000;1.183148
9572.000000;1.182250
9571.000000;1.180972
9570.000000;1.180003
9569.000000;1.179955
9568.000000;1.180764
9567.000000;1.181740
9566.000000;1.182107
9565.000000;1.181457
9564.000000;1.179946
9563.000000;1.178254
9562.000000;1.177128
9561.000000;1.176715
9560.000000;1.176445
9559.000000;1.175769
9558.000000;1.174851
9557.000000;1.174297
9556.000000;1.174378
9555.000000;1.174788
9554.000000;1.175077
9553.000000;1.175028
9552.000000;1.174623
9551.000000;1.173916
9550.000000;1.173005
9549.000000;1.171949
9548.000000;1.170745
9547.000000;1.169540
9546.000000;1.168745
9545.000000;1.168621
9544.000000;1.168760
9543.000000;1.168372
9542.000000;1.167201
9541.000000;1.165849
9540.000000;1.165020
9539.000000;1.164716
9538.000000;1.164456
9537.000000;1.164038
9536.000000;1.163709
9535.000000;1.163599
9534.000000;1.163425
9533.000000;1.162878
9532.000000;1.162042
9531.000000;1.161224
9530.000000;1.160490
9529.000000;1.159564
9528.000000;1.158147
9527.000000;1.156299
9526.000000;1.154541
9525.000000;1.153561
9524.000000;1.153674
9523.000000;1.154494
9522.000000;1.155198
9521.000000;1.155238
9520.000000;1.154712
9519.000000;1.154017
9518.000000;1.153322
9517.000000;1.152582
9516.000000;1.151867
9515.000000;1.151398
9514.000000;1.151227
9513.000000;1.151157
9512.000000;1.150975
9511.000000;1.150552
9510.000000;1.149708
9509.000000;1.148322
9508.000000;1.146644
9507.000000;1.145222
9506.000000;1.144382
9505.000000;1.143938
9504.000000;1.143553
9503.000000;1.143127
9502.000000;1.142722
9501.000000;1.142321
9500.000000;1.141831
9499.000000;1.141153
9498.000000;1.140140
9497.000000;1.138744
9496.000000;1.137352
9495.000000;1.136651
9494.000000;1.136830
9493.000000;1.137176
9492.000000;1.136822
9491.000000;1.135751
9490.000000;1.134704
9489.000000;1.134282
9488.000000;1.134485
9487.000000;1.134932
9486.000000;1.135094
9485.000000;1.134469
9484.000000;1.133008
9483.000000;1.131371
9482.000000;1.130328
9481.000000;1.129894
9480.000000;1.129485
9479.000000;1.128911
9478.000000;1.128607
9477.000000;1.128748
9476.000000;1.128741
9475.000000;1.127963
9474.000000;1.126619
9473.000000;1.125523
9472.000000;1.125270
9471.000000;1.125835
9470.000000;1.126677
9469.000000;1.126984
9468.000000;1.126135
9467.000000;1.124305
9466.000000;1.122461
9465.000000;1.121486
9464.000000;1.121420
9463.000000;1.121686
9462.000000;1.121805
9461.000000;1.121630
9460.000000;1.121120
9459.000000;1.120278
9458.000000;1.119328
9457.000000;1.118668
9456.000000;1.118528
9455.000000;1.118748
9454.000000;1.118859
9453.000000;1.118369
9452.000000;1.117158
9451.000000;1.115732
9450.000000;1.114925
9449.000000;1.115141
9448.000000;1.115929
9447.000000;1.116445
9446.000000;1.116241
9445.000000;1.115524
9444.000000;1.114788
9443.000000;1.114341
9442.000000;1.114080
9441.000000;1.113548
9440.000000;1.112355
9439.000000;1.110694
9438.000000;1.109295
9437.000000;1.108727
9436.000000;1.108898
9435.000000;1.109350
9434.000000;1.109793
9433.000000;1.110084
9432.000000;1.109955
9431.000000;1.109167
9430.000000;1.107858
9429.000000;1.106377
9428.000000;1.104838
9427.000000;1.103176
9426.000000;1.101633
9425.000000;1.100784
9424.000000;1.100955
9423.000000;1.101850
9422.000000;1.102854
9421.000000;1.103497
9420.000000;1.103586
9419.000000;1.103127
9418.000000;1.102324
9417.000000;1.101501
9416.000000;1.100835
9415.000000;1.100170
9414.000000;1.099192
9413.000000;1.097823
9412.000000;1.096402
9411.000000;1.095470
9410.000000;1.095300
9409.000000;1.095604
9408.000000;1.095755
9407.000000;1.095365
9406.000000;1.094600
9405.000000;1.093848
9404.000000;1.093212
9403.000000;1.092483
9402.000000;1.091533
9401.000000;1.090455
9400.000000;1.089305
9399.000000;1.087986
9398.000000;1.086591
9397.000000;1.085697
9396.000000;1.086002
9395.000000;1.087537
9394.000000;1.089335
9393.000000;1.090060
9392.000000;1.089182
9391.000000;1.087482
9390.000000;1.086237
9389.000000;1.085943
9388.000000;1.086049
9387.000000;1.085886
9386.000000;1.085527
9385.000000;1.085458
9384.000000;1.085695
9383.000000;1.085662
9382.000000;1.084918
9381.000000;1.083605
9380.000000;1.082128
9379.000000;1.080747
9378.000000;1.079646
9377.000000;1.079086
9376.000000;1.079197
9375.000000;1.079709
9374.000000;1.080134
9373.000000;1.080185
9372.000000;1.079879
9371.000000;1.079276
9370.000000;1.078365
9369.000000;1.077224
9368.000000;1.076105
9367.000000;1.075211
9366.000000;1.074472
9365.000000;1.073689
9364.000000;1.072885
9363.000000;1.072389
9362.000000;1.072458
9361.000000;1.072873
9360.000000;1.073031
9359.000000;1.072518
9358.000000;1.071537
9357.000000;1.070703
9356.000000;1.070448
9355.000000;1.070677
9354.000000;1.070964
9353.000000;1.070942
9352.000000;1.070458
9351.000000;1.069490
9350.000000;1.068124
9349.000000;1.066672
9348.000000;1.065634
9347.000000;1.065292
9346.000000;1.065338
9345.000000;1.065102
9344.000000;1.064288
9343.000000;1.063309
9342.000000;1.062746
9341.000000;1.062692
9340.000000;1.062867
9339.000000;1.063196
9338.000000;1.063823
9337.000000;1.064567
9336.000000;1.064823
9335.000000;1.064265
9334.000000;1.063303
9333.000000;1.062565
9332.000000;1.062144
9331.000000;1.061642
9330.000000;1.060815
9329.000000;1.059880
9328.000000;1.059224
9327.000000;1.059059
9326.000000;1.059299
9325.000000;1.059560
9324.000000;1.059356
9323.000000;1.058539
9322.000000;1.057538
9321.000000;1.056902
9320.000000;1.056618
9319.000000;1.056109
9318.000000;1.054946
9317.000000;1.053365
9316.000000;1.052052
9315.000000;1.051541
9314.000000;1.051834
9313.000000;1.052406
9312.000000;1.052559
9311.000000;1.051952
9310.000000;1.050855
9309.000000;1.049817
9308.000000;1.049121
9307.000000;1.048674
9306.000000;1.048330
9305.000000;1.048055
9304.000000;1.047785
9303.000000;1.047398
9302.000000;1.046940
9301.000000;1.046641
9300.000000;1.046567
9299.000000;1.046398
9298.000000;1.045769
9297.000000;1.044757
9296.000000;1.043872
9295.000000;1.043539
9294.000000;1.043650
9293.000000;1.043646
9292.000000;1.043054
9291.000000;1.041977
9290.000000;1.040998
9289.000000;1.040551
9288.000000;1.040481
9287.000000;1.040364
9286.000000;1.040131
9285.000000;1.040124
9284.000000;1.040500
9283.000000;1.040878
9282.000000;1.040752
9281.000000;1.040076
9280.000000;1.039265
9279.000000;1.038737
9278.000000;1.038590
9277.000000;1.038661
9276.000000;1.038677
9275.000000;1.038390
9274.000000;1.037743
9273.000000;1.036968
9272.000000;1.036407
9271.000000;1.036167
9270.000000;1.036049
9269.000000;1.035830
9268.000000;1.035501
9267.000000;1.035165
9266.000000;1.034799
9265.000000;1.034319
9264.000000;1.033853
9263.000000;1.033709
9262.000000;1.033968
9261.000000;1.034264
9260.000000;1.034189
9259.000000;1.033765
9258.000000;1.033260
9257.000000;1.032632
9256.000000;1.031589
9255.000000;1.030290
9254.000000;1.029502
9253.000000;1.029729
9252.000000;1.030490
9251.000000;1.030875
9250.000000;1.030652
9249.000000;1.030331
9248.000000;1.030226
9247.000000;1.029992
9246.000000;1.029268
9245.000000;1.028307
9244.000000;1.027673
9243.000000;1.027537
9242.000000;1.027502
9241.000000;1.027048
9240.000000;1.026014
9239.000000;1.024777
9238.000000;1.024026
9237.000000;1.024191
9236.000000;1.024956
9235.000000;1.025494
9234.000000;1.025316
9233.000000;1.024709
9232.000000;1.024182
9231.000000;1.023720
9230.000000;1.022872
9229.000000;1.021504
9228.000000;1.020132
9227.000000;1.019426
9226.000000;1.019524
9225.000000;1.019934
9224.000000;1.020037
9223.000000;1.019617
9222.000000;1.018897
9221.000000;1.018163
9220.000000;1.017531
9219.000000;1.017095
9218.000000;1.017040
9217.000000;1.017336
9216.000000;1.017452
9215.000000;1.016761
9214.000000;1.015335
9213.000000;1.013993
9212.000000;1.013477
9211.000000;1.013836
9210.000000;1.014693
9209.000000;1.015712
9208.000000;1.016539
9207.000000;1.016693
9206.000000;1.015988
9205.000000;1.014932
9204.000000;1.014282
9203.000000;1.014195
9202.000000;1.014155
9201.000000;1.013742
9200.000000;1.013125
9199.000000;1.012705
9198.000000;1.012551
9197.000000;1.012342
9196.000000;1.011735
9195.000000;1.010706
9194.000000;1.009609
9193.000000;1.008910
9192.000000;1.008757
9191.000000;1.008832
9190.000000;1.008762
9189.000000;1.008582
9188.000000;1.008598
9187.000000;1.008848
9186.000000;1.008983
9185.000000;1.008698
9184.000000;1.008067
9183.000000;1.007409
9182.000000;1.007014
9181.000000;1.007040
9180.000000;1.007417
9179.000000;1.007737
9178.000000;1.007452
9177.000000;1.006390
9176.000000;1.004974
9175.000000;1.003835
9174.000000;1.003304
9173.000000;1.003347
9172.000000;1.003772
9171.000000;1.004295
9170.000000;1.004552
9169.000000;1.004296
9168.000000;1.003635
9167.000000;1.002976
9166.000000;1.002701
9165.000000;1.002877
9164.000000;1.003186
9163.000000;1.003103
9162.000000;1.002288
9161.000000;1.000942
9160.000000;0.999698
9159.000000;0.999017
9158.000000;0.998762
9157.000000;0.998492
9156.000000;0.998056
9155.000000;0.997718
9154.000000;0.997731
9153.000000;0.997993
9152.000000;0.998172
9151.000000;0.998008
9150.000000;0.997423
9149.000000;0.996515
9148.000000;0.995580
9147.000000;0.995026
9146.000000;0.995044
9145.000000;0.995320
9144.000000;0.995217
9143.000000;0.994412
9142.000000;0.993312
9141.000000;0.992713
9140.000000;0.993042
9139.000000;0.993973
9138.000000;0.994782
9137.000000;0.995017
9136.000000;0.994791
9135.000000;0.994477
9134.000000;0.994267
9133.000000;0.994050
9132.000000;0.993649
9131.000000;0.993100
9130.000000;0.992662
9129.000000;0.992523
9128.000000;0.992536
9127.000000;0.992323
9126.000000;0.991697
9125.000000;0.990939
9124.000000;0.990554
9123.000000;0.990762
9122.000000;0.991299
9121.000000;0.991667
9120.000000;0.991530
9119.000000;0.990880
9118.000000;0.989973
9117.000000;0.989159
9116.000000;0.988718
9115.000000;0.988745
9114.000000;0.989125
9113.000000;0.989600
9112.000000;0.989829
9111.000000;0.989502
9110.000000;0.988553
9109.000000;0.987283
9108.000000;0.986159
9107.000000;0.985465
9106.000000;0.985196
9105.000000;0.985214
9104.000000;0.985321
9103.000000;0.985199
9102.000000;0.984556
9101.000000;0.983512
9100.000000;0.982687
9099.000000;0.982663
9098.000000;0.983386
9097.000000;0.984214
9096.000000;0.984504
9095.000000;0.984081
9094.000000;0.983235
9093.000000;0.982429
9092.000000;0.981984
9091.000000;0.981863
9090.000000;0.981749
9089.000000;0.981440
9088.000000;0.981113
9087.000000;0.981066
9086.000000;0.981237
9085.000000;0.981181
9084.000000;0.980578
9083.000000;0.979624
9082.000000;0.978872
9081.000000;0.978785
9080.000000;0.979434
9079.000000;0.980422
9078.000000;0.981040
9077.000000;0.980708
9076.000000;0.979450
9075.000000;0.977911
9074.000000;0.976821
9073.000000;0.976496
9072.000000;0.976838
9071.000000;0.977579
9070.000000;0.978369
9069.000000;0.978820
9068.000000;0.978745
9067.000000;0.978364
9066.000000;0.978065
9065.000000;0.977942
9064.000000;0.977706
9063.000000;0.977122
9062.000000;0.976363
9061.000000;0.975834
9060.000000;0.975732
9059.000000;0.975898
9058.000000;0.976020
9057.000000;0.975865
9056.000000;0.975334
9055.000000;0.974466
9054.000000;0.973480
9053.000000;0.972758
