Criado como novo conjunto de dados;"1909daniel.spp","-4210001.1 Secs"
cm-1;Abs
10000.000000;1.190392
9999.000000;1.189562
9998.000000;1.189072
9997.000000;1.188455
9996.000000;1.187192
9995.000000;1.185435
9994.000000;1.183908
9993.000000;1.183434
9992.000000;1.184109
9991.000000;1.185249
9990.000000;1.185914
9989.000000;1.185571
9988.000000;1.184284
9987.000000;1.182535
9986.000000;1.180847
9985.000000;1.179397
9984.000000;1.177973
9983.000000;1.176435
9982.000000;1.175051
9981.000000;1.174106
9980.000000;1.173375
9979.000000;1.172450
9978.000000;1.171493
9977.000000;1.171050
9976.000000;1.171037
9975.000000;1.170572
9974.000000;1.169194
9973.000000;1.167637
9972.000000;1.166878
9971.000000;1.166853
9970.000000;1.166704
9969.000000;1.166030
9968.000000;1.165236
9967.000000;1.164694
9966.000000;1.164204
9965.000000;1.163430
9964.000000;1.162453
9963.000000;1.161607
9962.000000;1.161001
9961.000000;1.160417
9960.000000;1.159605
9959.000000;1.158620
9958.000000;1.157874
9957.000000;1.157741
9956.000000;1.158008
9955.000000;1.157948
9954.000000;1.157148
9953.000000;1.156046
9952.000000;1.155276
9951.000000;1.154675
9950.000000;1.153466
9949.000000;1.151450
9948.000000;1.149455
9947.000000;1.148371
9946.000000;1.148160
9945.000000;1.148164
9944.000000;1.148066
9943.000000;1.148064
9942.000000;1.148176
9941.000000;1.147928
9940.000000;1.146948
9939.000000;1.145553
9938.000000;1.144460
9937.000000;1.143997
9936.000000;1.143822
9935.000000;1.143426
9934.000000;1.142713
9933.000000;1.141971
9932.000000;1.141431
9931.000000;1.140999
9930.000000;1.140408
9929.000000;1.139506
9928.000000;1.138290
9927.000000;1.136733
9926.000000;1.134741
9925.000000;1.132405
9924.000000;1.130266
9923.000000;1.129145
9922.000000;1.129472
9921.000000;1.130731
9920.000000;1.131754
9919.000000;1.131698
9918.000000;1.130690
9917.000000;1.129463
9916.000000;1.128545
9915.000000;1.127985
9914.000000;1.127592
9913.000000;1.127119
9912.000000;1.126302
9911.000000;1.125055
9910.000000;1.123703
9909.000000;1.122740
9908.000000;1.122267
9907.000000;1.121926
9906.000000;1.121440
9905.000000;1.120934
9904.000000;1.120613
9903.000000;1.120308
9902.000000;1.119580
9901.000000;1.118191
9900.000000;1.116367
9899.000000;1.114647
9898.000000;1.113560
9897.000000;1.113319
9896.000000;1.113687
9895.000000;1.114156
9894.000000;1.114311
9893.000000;1.114020
9892.000000;1.113296
9891.000000;1.112149
9890.000000;1.110612
9889.000000;1.108798
9888.000000;1.106886
9887.000000;1.105136
9886.000000;1.103887
9885.000000;1.103346
9884.000000;1.103326
9883.000000;1.103366
9882.000000;1.103196
9881.000000;1.102899
9880.000000;1.102587
9879.000000;1.102142
9878.000000;1.101438
9877.000000;1.100638
9876.000000;1.100062
9875.000000;1.099818
9874.000000;1.099686
9873.000000;1.099344
9872.000000;1.098636
9871.000000;1.097720
9870.000000;1.096971
9869.000000;1.096593
9868.000000;1.096277
9867.000000;1.095434
9866.000000;1.093889
9865.000000;1.092168
9864.000000;1.090985
9863.000000;1.090592
9862.000000;1.090718
9861.000000;1.090931
9860.000000;1.090864
9859.000000;1.090286
9858.000000;1.089267
9857.000000;1.088183
9856.000000;1.087310
9855.000000;1.086448
9854.000000;1.085142
9853.000000;1.083334
9852.000000;1.081621
9851.000000;1.080745
9850.000000;1.080864
9849.000000;1.081362
9848.000000;1.081394
9847.000000;1.080625
9846.000000;1.079444
9845.000000;1.078488
9844.000000;1.078025
9843.000000;1.077846
9842.000000;1.077632
9841.000000;1.077253
9840.000000;1.076698
9839.000000;1.075941
9838.000000;1.075005
9837.000000;1.074076
9836.000000;1.073396
9835.000000;1.073037
9834.000000;1.072792
9833.000000;1.072323
9832.000000;1.071418
9831.000000;1.070156
9830.000000;1.068764
9829.000000;1.067322
9828.000000;1.065721
9827.000000;1.063991
9826.000000;1.062504
9825.000000;1.061636
9824.000000;1.061353
9823.000000;1.061345
9822.000000;1.061447
9821.000000;1.061627
9820.000000;1.061632
9819.000000;1.061100
9818.000000;1.060077
9817.000000;1.059061
9816.000000;1.058364
9815.000000;1.057739
9814.000000;1.056848
9813.000000;1.055799
9812.000000;1.054996
9811.000000;1.054657
9810.000000;1.054651
9809.000000;1.054604
9808.000000;1.053999
9807.000000;1.052457
9806.000000;1.050176
9805.000000;1.047967
9804.000000;1.046650
9803.000000;1.046477
9802.000000;1.047145
9801.000000;1.048079
9800.000000;1.048647
9799.000000;1.048435
9798.000000;1.047566
9797.000000;1.046504
9796.000000;1.045392
9795.000000;1.043972
9794.000000;1.042340
9793.000000;1.041277
9792.000000;1.041340
9791.000000;1.041955
9790.000000;1.041961
9789.000000;1.040910
9788.000000;1.039303
9787.000000;1.037676
9786.000000;1.036124
9785.000000;1.034785
9784.000000;1.034125
9783.000000;1.034421
9782.000000;1.035294
9781.000000;1.036023
9780.000000;1.036094
9779.000000;1.035335
9778.000000;1.033822
9777.000000;1.031935
9776.000000;1.030276
9775.000000;1.029257
9774.000000;1.028794
9773.000000;1.028503
9772.000000;1.028052
9771.000000;1.027225
9770.000000;1.025900
9769.000000;1.024220
9768.000000;1.022670
9767.000000;1.021719
9766.000000;1.021370
9765.000000;1.021251
9764.000000;1.021116
9763.000000;1.021052
9762.000000;1.021131
9761.000000;1.021058
9760.000000;1.020331
9759.000000;1.018798
9758.000000;1.016981
9757.000000;1.015728
9756.000000;1.015486
9755.000000;1.015880
9754.000000;1.016042
9753.000000;1.015393
9752.000000;1.014077
9751.000000;1.012658
9750.000000;1.011489
9749.000000;1.010508
9748.000000;1.009572
9747.000000;1.008788
9746.000000;1.008330
9745.000000;1.008041
9744.000000;1.007461
9743.000000;1.006365
9742.000000;1.005129
9741.000000;1.004367
9740.000000;1.004248
9739.000000;1.004368
9738.000000;1.004253
9737.000000;1.003758
9736.000000;1.002961
9735.000000;1.001934
9734.000000;1.000783
9733.000000;0.999715
9732.000000;0.998831
9731.000000;0.997995
9730.000000;0.997091
9729.000000;0.996301
9728.000000;0.995884
9727.000000;0.995751
9726.000000;0.995488
9725.000000;0.994847
9724.000000;0.993989
9723.000000;0.993191
9722.000000;0.992528
9721.000000;0.991976
9720.000000;0.991615
9719.000000;0.991537
9718.000000;0.991606
9717.000000;0.991514
9716.000000;0.991099
9715.000000;0.990514
9714.000000;0.989976
9713.000000;0.989394
9712.000000;0.988410
9711.000000;0.986862
9710.000000;0.985106
9709.000000;0.983693
9708.000000;0.982760
9707.000000;0.981934
9706.000000;0.980920
9705.000000;0.979940
9704.000000;0.979403
9703.000000;0.979309
9702.000000;0.979233
9701.000000;0.978845
9700.000000;0.978229
9699.000000;0.977622
9698.000000;0.977076
9697.000000;0.976495
9696.000000;0.975835
9695.000000;0.975075
9694.000000;0.974064
9693.000000;0.972651
9692.000000;0.971029
9691.000000;0.969803
9690.000000;0.969519
9689.000000;0.970077
9688.000000;0.970698
9687.000000;0.970578
9686.000000;0.969588
9685.000000;0.968279
9684.000000;0.967214
9683.000000;0.966422
9682.000000;0.965557
9681.000000;0.964467
9680.000000;0.963413
9679.000000;0.962712
9678.000000;0.962303
9677.000000;0.961793
9676.000000;0.960902
9675.000000;0.959730
9674.000000;0.958576
9673.000000;0.957568
9672.000000;0.956592
9671.000000;0.955542
9670.000000;0.954512
9669.000000;0.953710
9668.000000;0.953313
9667.000000;0.953384
9666.000000;0.953781
9665.000000;0.954076
9664.000000;0.953765
9663.000000;0.952749
9662.000000;0.951503
9661.000000;0.950583
9660.000000;0.950052
9659.000000;0.949581
9658.000000;0.949021
9657.000000;0.948577
9656.000000;0.948425
9655.000000;0.948413
9654.000000;0.948209
9653.000000;0.947524
9652.000000;0.946161
9651.000000;0.944160
9650.000000;0.942031
9649.000000;0.940588
9648.000000;0.940291
9647.000000;0.940817
9646.000000;0.941403
9645.000000;0.941485
9644.000000;0.940926
9643.000000;0.939805
9642.000000;0.938287
9641.000000;0.936727
9640.000000;0.935656
9639.000000;0.935493
9638.000000;0.936204
9637.000000;0.937164
9636.000000;0.937408
9635.000000;0.936273
9634.000000;0.934025
9633.000000;0.931735
9632.000000;0.930364
9631.000000;0.930006
9630.000000;0.930078
9629.000000;0.930032
9628.000000;0.929703
9627.000000;0.929136
9626.000000;0.928424
9625.000000;0.927735
9624.000000;0.927220
9623.000000;0.926801
9622.000000;0.926213
9621.000000;0.925367
9620.000000;0.924493
9619.000000;0.923823
9618.000000;0.923275
9617.000000;0.922596
9616.000000;0.921763
9615.000000;0.921055
9614.000000;0.920693
9613.000000;0.920481
9612.000000;0.919941
9611.000000;0.918838
9610.000000;0.917500
9609.000000;0.916547
9608.000000;0.916284
9607.000000;0.916418
9606.000000;0.916410
9605.000000;0.916037
9604.000000;0.915518
9603.000000;0.915128
9602.000000;0.914810
9601.000000;0.914250
9600.000000;0.913272
9599.000000;0.912049
9598.000000;0.910885
9597.000000;0.909864
9596.000000;0.908800
9595.000000;0.907546
9594.000000;0.906273
9593.000000;0.905358
9592.000000;0.904999
9591.000000;0.904993
9590.000000;0.904882
9589.000000;0.904320
9588.000000;0.903361
9587.000000;0.902415
9586.000000;0.901850
9585.000000;0.901556
9584.000000;0.901018
9583.000000;0.899970
9582.000000;0.898858
9581.000000;0.898386
9580.000000;0.898605
9579.000000;0.898730
9578.000000;0.897996
9577.000000;0.896511
9576.000000;0.895087
9575.000000;0.894352
9574.000000;0.894206
9573.000000;0.894079
9572.000000;0.893549
9571.000000;0.892699
9570.000000;0.891945
9569.000000;0.891550
9568.000000;0.891324
9567.000000;0.890877
9566.000000;0.890143
9565.000000;0.889485
9564.000000;0.889230
9563.000000;0.889266
9562.000000;0.889196
9561.000000;0.888762
9560.000000;0.888011
9559.000000;0.887105
9558.000000;0.886180
9557.000000;0.885357
9556.000000;0.884728
9555.000000;0.884263
9554.000000;0.883737
9553.000000;0.882799
9552.000000;0.881211
9551.000000;0.879110
9550.000000;0.877082
9549.000000;0.875820
9548.000000;0.875629
9547.000000;0.876253
9546.000000;0.877157
9545.000000;0.877864
9544.000000;0.878020
9543.000000;0.877388
9542.000000;0.875981
9541.000000;0.874149
9540.000000;0.872409
9539.000000;0.871168
9538.000000;0.870582
9537.000000;0.870525
9536.000000;0.870580
9535.000000;0.870221
9534.000000;0.869221
9533.000000;0.867884
9532.000000;0.866765
9531.000000;0.866196
9530.000000;0.866090
9529.000000;0.866097
9528.000000;0.865837
9527.000000;0.865132
9526.000000;0.864193
9525.000000;0.863515
9524.000000;0.863372
9523.000000;0.863422
9522.000000;0.862975
9521.000000;0.861686
9520.000000;0.859901
9519.000000;0.858355
9518.000000;0.857663
9517.000000;0.858014
9516.000000;0.859054
9515.000000;0.859929
9514.000000;0.859726
9513.000000;0.858181
9512.000000;0.855983
9511.000000;0.854217
9510.000000;0.853499
9509.000000;0.853646
9508.000000;0.854064
9507.000000;0.854261
9506.000000;0.853966
9505.000000;0.853040
9504.000000;0.851551
9503.000000;0.849918
9502.000000;0.848701
9501.000000;0.848133
9500.000000;0.847953
9499.000000;0.847790
9498.000000;0.847548
9497.000000;0.847318
9496.000000;0.847065
9495.000000;0.846661
9494.000000;0.846148
9493.000000;0.845694
9492.000000;0.845238
9491.000000;0.844463
9490.000000;0.843236
9489.000000;0.841899
9488.000000;0.840956
9487.000000;0.840598
9486.000000;0.840670
9485.000000;0.840946
9484.000000;0.841251
9483.000000;0.841336
9482.000000;0.840876
9481.000000;0.839705
9480.000000;0.838035
9479.000000;0.836337
9478.000000;0.835011
9477.000000;0.834098
9476.000000;0.833327
9475.000000;0.832449
9474.000000;0.831528
9473.000000;0.830850
9472.000000;0.830609
9471.000000;0.830756
9470.000000;0.831131
9469.000000;0.831573
9468.000000;0.831838
9467.000000;0.831619
9466.000000;0.830829
9465.000000;0.829803
9464.000000;0.829041
9463.000000;0.828736
9462.000000;0.828661
9461.000000;0.828504
9460.000000;0.828153
9459.000000;0.827598
9458.000000;0.826743
9457.000000;0.825535
9456.000000;0.824261
9455.000000;0.823442
9454.000000;0.823276
9453.000000;0.823281
9452.000000;0.822745
9451.000000;0.821514
9450.000000;0.820155
9449.000000;0.819296
9448.000000;0.819055
9447.000000;0.819202
9446.000000;0.819556
9445.000000;0.819926
9444.000000;0.819893
9443.000000;0.819096
9442.000000;0.817731
9441.000000;0.816432
9440.000000;0.815582
9439.000000;0.815003
9438.000000;0.814390
9437.000000;0.813760
9436.000000;0.813307
9435.000000;0.813043
9434.000000;0.812771
9433.000000;0.812292
9432.000000;0.811504
9431.000000;0.810389
9430.000000;0.809074
9429.000000;0.807829
9428.000000;0.806888
9427.000000;0.806281
9426.000000;0.805890
9425.000000;0.805614
9424.000000;0.805459
9423.000000;0.805473
9422.000000;0.805604
9421.000000;0.805583
9420.000000;0.805061
9419.000000;0.803995
9418.000000;0.802833
9417.000000;0.802091
9416.000000;0.801803
9415.000000;0.801565
9414.000000;0.801089
9413.000000;0.800437
9412.000000;0.799716
9411.000000;0.798905
9410.000000;0.798120
9409.000000;0.797723
9408.000000;0.797912
9407.000000;0.798409
9406.000000;0.798735
9405.000000;0.798650
9404.000000;0.798171
9403.000000;0.797390
9402.000000;0.796485
9401.000000;0.795735
9400.000000;0.795261
9399.000000;0.794847
9398.000000;0.794233
9397.000000;0.793454
9396.000000;0.792685
9395.000000;0.791894
9394.000000;0.790916
9393.000000;0.789793
9392.000000;0.788771
9391.000000;0.787985
9390.000000;0.787401
9389.000000;0.787002
9388.000000;0.786796
9387.000000;0.786626
9386.000000;0.786277
9385.000000;0.785819
9384.000000;0.785637
9383.000000;0.785955
9382.000000;0.786461
9381.000000;0.786542
9380.000000;0.785843
9379.000000;0.784542
9378.000000;0.783139
9377.000000;0.782059
9376.000000;0.781441
9375.000000;0.781184
9374.000000;0.781126
9373.000000;0.781116
9372.000000;0.781032
9371.000000;0.780830
9370.000000;0.780601
9369.000000;0.780405
9368.000000;0.780028
9367.000000;0.779074
9366.000000;0.777462
9365.000000;0.775704
9364.000000;0.774507
9363.000000;0.774102
9362.000000;0.774082
9361.000000;0.773841
9360.000000;0.773104
9359.000000;0.772101
9358.000000;0.771397
9357.000000;0.771484
9356.000000;0.772311
9355.000000;0.773165
9354.000000;0.773193
9353.000000;0.772170
9352.000000;0.770680
9351.000000;0.769491
9350.000000;0.768858
9349.000000;0.768479
9348.000000;0.768030
9347.000000;0.767534
9346.000000;0.767186
9345.000000;0.766974
9344.000000;0.766654
9343.000000;0.766079
9342.000000;0.765413
9341.000000;0.764940
9340.000000;0.764756
9339.000000;0.764737
9338.000000;0.764749
9337.000000;0.764724
9336.000000;0.764576
9335.000000;0.764167
9334.000000;0.763420
9333.000000;0.762373
9332.000000;0.761149
9331.000000;0.759960
9330.000000;0.759104
9329.000000;0.758782
9328.000000;0.758860
9327.000000;0.758922
9326.000000;0.758611
9325.000000;0.757880
9324.000000;0.756924
9323.000000;0.756004
9322.000000;0.755331
9321.000000;0.754965
9320.000000;0.754726
9319.000000;0.754355
9318.000000;0.753843
9317.000000;0.753472
9316.000000;0.753449
9315.000000;0.753602
9314.000000;0.753516
9313.000000;0.752927
9312.000000;0.751945
9311.000000;0.750972
9310.000000;0.750383
9309.000000;0.750213
9308.000000;0.750094
9307.000000;0.749618
9306.000000;0.748774
9305.000000;0.747929
9304.000000;0.747381
9303.000000;0.747084
9302.000000;0.746817
9301.000000;0.746467
9300.000000;0.746067
9299.000000;0.745689
9298.000000;0.745356
9297.000000;0.744944
9296.000000;0.744197
9295.000000;0.743042
9294.000000;0.741879
9293.000000;0.741302
9292.000000;0.741437
9291.000000;0.741756
9290.000000;0.741664
9289.000000;0.741053
9288.000000;0.740197
9287.000000;0.739364
9286.000000;0.738726
9285.000000;0.738432
9284.000000;0.738493
9283.000000;0.738680
9282.000000;0.738723
9281.000000;0.738542
9280.000000;0.738191
9279.000000;0.737704
9278.000000;0.737116
9277.000000;0.736501
9276.000000;0.735850
9275.000000;0.735060
9274.000000;0.734181
9273.000000;0.733521
9272.000000;0.733309
9271.000000;0.733405
9270.000000;0.733500
9269.000000;0.733459
9268.000000;0.733266
9267.000000;0.732810
9266.000000;0.732001
9265.000000;0.731023
9264.000000;0.730221
9263.000000;0.729757
9262.000000;0.729556
9261.000000;0.729489
9260.000000;0.729423
9259.000000;0.729131
9258.000000;0.728443
9257.000000;0.727485
9256.000000;0.726584
9255.000000;0.725927
9254.000000;0.725457
9253.000000;0.725093
9252.000000;0.724892
9251.000000;0.724959
9250.000000;0.725311
9249.000000;0.725804
9248.000000;0.726119
9247.000000;0.725906
9246.000000;0.725073
9245.000000;0.723921
9244.000000;0.722861
9243.000000;0.722073
9242.000000;0.721502
9241.000000;0.721068
9240.000000;0.720697
9239.000000;0.720259
9238.000000;0.719690
9237.000000;0.719140
9236.000000;0.718812
9235.000000;0.718695
9234.000000;0.718638
9233.000000;0.718607
9232.000000;0.718627
9231.000000;0.718531
9230.000000;0.718067
9229.000000;0.717303
9228.000000;0.716663
9227.000000;0.716459
9226.000000;0.716582
9225.000000;0.716723
9224.000000;0.716692
9223.000000;0.716411
9222.000000;0.715815
9221.000000;0.714966
9220.000000;0.714150
9219.000000;0.713658
9218.000000;0.713444
9217.000000;0.713175
9216.000000;0.712647
9215.000000;0.712070
9214.000000;0.711855
9213.000000;0.712123
9212.000000;0.712509
9211.000000;0.712518
9210.000000;0.712031
9209.000000;0.711348
9208.000000;0.710761
9207.000000;0.710251
9206.000000;0.709668
9205.000000;0.709030
9204.000000;0.708482
9203.000000;0.708058
9202.000000;0.707683
9201.000000;0.707374
9200.000000;0.707273
9199.000000;0.707428
9198.000000;0.707663
9197.000000;0.707705
9196.000000;0.707349
9195.000000;0.706507
9194.000000;0.705209
9193.000000;0.703658
9192.000000;0.702233
9191.000000;0.701335
9190.000000;0.701124
9189.000000;0.701389
9188.000000;0.701698
9187.000000;0.701754
9186.000000;0.701602
9185.000000;0.701459
9184.000000;0.701400
9183.000000;0.701320
9182.000000;0.701177
9181.000000;0.701082
9180.000000;0.701094
9179.000000;0.701084
9178.000000;0.700876
9177.000000;0.700389
9176.000000;0.699582
9175.000000;0.698452
9174.000000;0.697211
9173.000000;0.696317
9172.000000;0.696126
9171.000000;0.696560
9170.000000;0.697178
9169.000000;0.697476
9168.000000;0.697092
9167.000000;0.695967
9166.000000;0.694508
9165.000000;0.693414
9164.000000;0.693071
9163.000000;0.693166
9162.000000;0.693107
9161.000000;0.692723
9160.000000;0.692345
9159.000000;0.692277
9158.000000;0.692440
9157.000000;0.692541
9156.000000;0.692343
9155.000000;0.691749
9154.000000;0.690859
9153.000000;0.690011
9152.000000;0.689568
9151.000000;0.689593
9150.000000;0.689792
9149.000000;0.689821
9148.000000;0.689547
9147.000000;0.689005
9146.000000;0.688296
9145.000000;0.687571
9144.000000;0.686994
9143.000000;0.686617
9142.000000;0.686360
9141.000000;0.686150
9140.000000;0.686006
9139.000000;0.685978
9138.000000;0.686056
9137.000000;0.686174
9136.000000;0.686245
9135.000000;0.686179
9134.000000;0.685912
9133.000000;0.685438
9132.000000;0.684812
9131.000000;0.684167
9130.000000;0.683754
9129.000000;0.683826
9128.000000;0.684351
9127.000000;0.684863
9126.000000;0.684793
9125.000000;0.684001
9124.000000;0.682904
9123.000000;0.682024
9122.000000;0.681525
9121.000000;0.681238
9120.000000;0.681008
9119.000000;0.680874
9118.000000;0.680893
9117.000000;0.680924
9116.000000;0.680690
9115.000000;0.680088
9114.000000;0.679352
9113.000000;0.678815
9112.000000;0.678551
9111.000000;0.678351
9110.000000;0.678046
9109.000000;0.677726
9108.000000;0.677583
9107.000000;0.677653
9106.000000;0.677802
9105.000000;0.677862
9104.000000;0.677699
9103.000000;0.677231
9102.000000;0.676480
9101.000000;0.675599
9100.000000;0.674787
9099.000000;0.674207
9098.000000;0.673968
9097.000000;0.674072
9096.000000;0.674337
9095.000000;0.674508
9094.000000;0.674466
9093.000000;0.674244
9092.000000;0.673829
9091.000000;0.673150
9090.000000;0.672323
9089.000000;0.671664
9088.000000;0.671312
9087.000000;0.671000
9086.000000;0.670419
9085.000000;0.669653
9084.000000;0.669051
9083.000000;0.668791
9082.000000;0.668789
9081.000000;0.668968
9080.000000;0.669334
9079.000000;0.669774
9078.000000;0.669976
9077.000000;0.669629
9076.000000;0.668656
9075.000000;0.667302
9074.000000;0.666073
9073.000000;0.665501
9072.000000;0.665799
9071.000000;0.666717
9070.000000;0.667744
9069.000000;0.668428
9068.000000;0.668479
9067.000000;0.667828
9066.000000;0.666745
9065.000000;0.665742
9064.000000;0.665127
9063.000000;0.664727
9062.000000;0.664250
9061.000000;0.663784
9060.000000;0.663656
9059.000000;0.663882
9058.000000;0.664075
9057.000000;0.663936
9056.000000;0.663535
9055.000000;0.663088
9054.000000;0.662703
9053.000000;0.662470
