Criado como novo conjunto de dados;"1909daniel.spp","-4230881.6 Secs"
cm-1;Abs
10000.000000;1.420347
9999.000000;1.420916
9998.000000;1.421479
9997.000000;1.422054
9996.000000;1.422609
9995.000000;1.423210
9994.000000;1.423665
9993.000000;1.423434
9992.000000;1.422838
9991.000000;1.422584
9990.000000;1.422879
9989.000000;1.423204
9988.000000;1.423039
9987.000000;1.422475
9986.000000;1.422010
9985.000000;1.421902
9984.000000;1.421933
9983.000000;1.421726
9982.000000;1.421089
9981.000000;1.419927
9980.000000;1.418000
9979.000000;1.415120
9978.000000;1.411793
9977.000000;1.409352
9976.000000;1.408971
9975.000000;1.410410
9974.000000;1.412011
9973.000000;1.412205
9972.000000;1.410841
9971.000000;1.408899
9970.000000;1.407269
9969.000000;1.406268
9968.000000;1.405963
9967.000000;1.406254
9966.000000;1.406548
9965.000000;1.406052
9964.000000;1.404804
9963.000000;1.404020
9962.000000;1.404888
9961.000000;1.407080
9960.000000;1.408789
9959.000000;1.408330
9958.000000;1.405506
9957.000000;1.401436
9956.000000;1.397563
9955.000000;1.395033
9954.000000;1.394481
9953.000000;1.395768
9952.000000;1.397861
9951.000000;1.399363
9950.000000;1.399422
9949.000000;1.398147
9948.000000;1.396195
9947.000000;1.394265
9946.000000;1.392982
9945.000000;1.392726
9944.000000;1.393194
9943.000000;1.393409
9942.000000;1.392617
9941.000000;1.391202
9940.000000;1.390281
9939.000000;1.390368
9938.000000;1.390740
9937.000000;1.390297
9936.000000;1.388812
9935.000000;1.387113
9934.000000;1.386105
9933.000000;1.385825
9932.000000;1.385467
9931.000000;1.384349
9930.000000;1.382832
9929.000000;1.382092
9928.000000;1.382790
9927.000000;1.384170
9926.000000;1.384800
9925.000000;1.384177
9924.000000;1.383070
9923.000000;1.382183
9922.000000;1.381150
9921.000000;1.379299
9920.000000;1.376884
9919.000000;1.374856
9918.000000;1.373625
9917.000000;1.372706
9916.000000;1.371577
9915.000000;1.370306
9914.000000;1.369199
9913.000000;1.368376
9912.000000;1.367963
9911.000000;1.368208
9910.000000;1.368971
9909.000000;1.369412
9908.000000;1.368725
9907.000000;1.367202
9906.000000;1.366126
9905.000000;1.366437
9904.000000;1.367678
9903.000000;1.368436
9902.000000;1.367821
9901.000000;1.366393
9900.000000;1.365530
9899.000000;1.366031
9898.000000;1.367457
9897.000000;1.368695
9896.000000;1.368894
9895.000000;1.367751
9894.000000;1.365272
9893.000000;1.361833
9892.000000;1.358425
9891.000000;1.356265
9890.000000;1.355827
9889.000000;1.356426
9888.000000;1.356885
9887.000000;1.356503
9886.000000;1.355292
9885.000000;1.353670
9884.000000;1.352274
9883.000000;1.351813
9882.000000;1.352560
9881.000000;1.353921
9880.000000;1.354815
9879.000000;1.354617
9878.000000;1.353528
9877.000000;1.352028
9876.000000;1.350351
9875.000000;1.348576
9874.000000;1.346869
9873.000000;1.345400
9872.000000;1.344265
9871.000000;1.343637
9870.000000;1.343738
9869.000000;1.344386
9868.000000;1.344807
9867.000000;1.344261
9866.000000;1.342804
9865.000000;1.341190
9864.000000;1.340016
9863.000000;1.339299
9862.000000;1.338903
9861.000000;1.338902
9860.000000;1.339218
9859.000000;1.339237
9858.000000;1.338225
9857.000000;1.336111
9856.000000;1.333617
9855.000000;1.331563
9854.000000;1.330287
9853.000000;1.329780
9852.000000;1.330038
9851.000000;1.330898
9850.000000;1.331667
9849.000000;1.331376
9848.000000;1.329699
9847.000000;1.327498
9846.000000;1.326140
9845.000000;1.326287
9844.000000;1.327502
9843.000000;1.328869
9842.000000;1.329734
9841.000000;1.329895
9840.000000;1.329443
9839.000000;1.328716
9838.000000;1.328157
9837.000000;1.327795
9836.000000;1.327003
9835.000000;1.325198
9834.000000;1.322744
9833.000000;1.320767
9832.000000;1.320039
9831.000000;1.320346
9830.000000;1.320930
9829.000000;1.321150
9828.000000;1.320666
9827.000000;1.319487
9826.000000;1.318170
9825.000000;1.317558
9824.000000;1.317919
9823.000000;1.318471
9822.000000;1.318103
9821.000000;1.316499
9820.000000;1.314289
9819.000000;1.312281
9818.000000;1.310853
9817.000000;1.309930
9816.000000;1.309196
9815.000000;1.308362
9814.000000;1.307454
9813.000000;1.306835
9812.000000;1.306724
9811.000000;1.306849
9810.000000;1.306846
9809.000000;1.306811
9808.000000;1.306956
9807.000000;1.306919
9806.000000;1.306003
9805.000000;1.304125
9804.000000;1.302074
9803.000000;1.300702
9802.000000;1.300169
9801.000000;1.300141
9800.000000;1.300235
9799.000000;1.300066
9798.000000;1.299328
9797.000000;1.298177
9796.000000;1.297257
9795.000000;1.297044
9794.000000;1.297307
9793.000000;1.297409
9792.000000;1.297011
9791.000000;1.296260
9790.000000;1.295392
9789.000000;1.294419
9788.000000;1.293182
9787.000000;1.291625
9786.000000;1.290050
9785.000000;1.289066
9784.000000;1.289021
9783.000000;1.289465
9782.000000;1.289490
9781.000000;1.288750
9780.000000;1.287805
9779.000000;1.287284
9778.000000;1.287070
9777.000000;1.286588
9776.000000;1.285568
9775.000000;1.284145
9774.000000;1.282476
9773.000000;1.280688
9772.000000;1.279071
9771.000000;1.277961
9770.000000;1.277441
9769.000000;1.277394
9768.000000;1.277682
9767.000000;1.277992
9766.000000;1.277744
9765.000000;1.276640
9764.000000;1.275214
9763.000000;1.274343
9762.000000;1.274205
9761.000000;1.274154
9760.000000;1.273661
9759.000000;1.272893
9758.000000;1.272236
9757.000000;1.271707
9756.000000;1.271112
9755.000000;1.270434
9754.000000;1.269784
9753.000000;1.269191
9752.000000;1.268710
9751.000000;1.268472
9750.000000;1.268381
9749.000000;1.267962
9748.000000;1.266855
9747.000000;1.265352
9746.000000;1.264150
9745.000000;1.263585
9744.000000;1.263362
9743.000000;1.263002
9742.000000;1.262326
9741.000000;1.261472
9740.000000;1.260655
9739.000000;1.260006
9738.000000;1.259524
9737.000000;1.259092
9736.000000;1.258610
9735.000000;1.258114
9734.000000;1.257705
9733.000000;1.257356
9732.000000;1.256884
9731.000000;1.256108
9730.000000;1.255041
9729.000000;1.253915
9728.000000;1.253049
9727.000000;1.252668
9726.000000;1.252755
9725.000000;1.253028
9724.000000;1.253077
9723.000000;1.252616
9722.000000;1.251725
9721.000000;1.250850
9720.000000;1.250405
9719.000000;1.250272
9718.000000;1.249792
9717.000000;1.248436
9716.000000;1.246483
9715.000000;1.244773
9714.000000;1.243715
9713.000000;1.242801
9712.000000;1.241360
9711.000000;1.239640
9710.000000;1.238695
9709.000000;1.239126
9708.000000;1.240327
9707.000000;1.241176
9706.000000;1.241224
9705.000000;1.240852
9704.000000;1.240404
9703.000000;1.239731
9702.000000;1.238755
9701.000000;1.237941
9700.000000;1.237770
9699.000000;1.237997
9698.000000;1.237935
9697.000000;1.237390
9696.000000;1.236748
9695.000000;1.236075
9694.000000;1.234764
9693.000000;1.232483
9692.000000;1.230081
9691.000000;1.228933
9690.000000;1.229435
9689.000000;1.230552
9688.000000;1.230914
9687.000000;1.230087
9686.000000;1.228685
9685.000000;1.227563
9684.000000;1.227069
9683.000000;1.226886
9682.000000;1.226407
9681.000000;1.225389
9680.000000;1.224329
9679.000000;1.224017
9678.000000;1.224603
9677.000000;1.225273
9676.000000;1.225014
9675.000000;1.223597
9674.000000;1.221620
9673.000000;1.219745
9672.000000;1.218273
9671.000000;1.217322
9670.000000;1.216951
9669.000000;1.216946
9668.000000;1.216791
9667.000000;1.216152
9666.000000;1.215282
9665.000000;1.214680
9664.000000;1.214448
9663.000000;1.214194
9662.000000;1.213555
9661.000000;1.212575
9660.000000;1.211514
9659.000000;1.210527
9658.000000;1.209653
9657.000000;1.208968
9656.000000;1.208602
9655.000000;1.208637
9654.000000;1.209004
9653.000000;1.209399
9652.000000;1.209327
9651.000000;1.208448
9650.000000;1.206941
9649.000000;1.205359
9648.000000;1.204044
9647.000000;1.202919
9646.000000;1.201962
9645.000000;1.201538
9644.000000;1.201870
9643.000000;1.202320
9642.000000;1.201759
9641.000000;1.199787
9640.000000;1.197254
9639.000000;1.195415
9638.000000;1.194835
9637.000000;1.195234
9636.000000;1.196026
9635.000000;1.196715
9634.000000;1.196990
9633.000000;1.196757
9632.000000;1.196124
9631.000000;1.195249
9630.000000;1.194277
9629.000000;1.193459
9628.000000;1.193138
9627.000000;1.193401
9626.000000;1.193846
9625.000000;1.193890
9624.000000;1.193268
9623.000000;1.192144
9622.000000;1.190830
9621.000000;1.189609
9620.000000;1.188735
9619.000000;1.188302
9618.000000;1.188051
9617.000000;1.187520
9616.000000;1.186498
9615.000000;1.185332
9614.000000;1.184713
9613.000000;1.185054
9612.000000;1.185943
9611.000000;1.186278
9610.000000;1.185175
9609.000000;1.182847
9608.000000;1.180418
9607.000000;1.178829
9606.000000;1.178140
9605.000000;1.177919
9604.000000;1.177873
9603.000000;1.177814
9602.000000;1.177345
9601.000000;1.176127
9600.000000;1.174404
9599.000000;1.172903
9598.000000;1.172149
9597.000000;1.172111
9596.000000;1.172396
9595.000000;1.172513
9594.000000;1.172064
9593.000000;1.171041
9592.000000;1.169997
9591.000000;1.169601
9590.000000;1.169950
9589.000000;1.170492
9588.000000;1.170639
9587.000000;1.170216
9586.000000;1.169346
9585.000000;1.168179
9584.000000;1.166858
9583.000000;1.165471
9582.000000;1.163956
9581.000000;1.162274
9580.000000;1.160724
9579.000000;1.159831
9578.000000;1.159835
9577.000000;1.160450
9576.000000;1.161161
9575.000000;1.161554
9574.000000;1.161352
9573.000000;1.160432
9572.000000;1.158938
9571.000000;1.157254
9570.000000;1.155853
9569.000000;1.155237
9568.000000;1.155784
9567.000000;1.157276
9566.000000;1.158670
9565.000000;1.158888
9564.000000;1.157935
9563.000000;1.156801
9562.000000;1.156185
9561.000000;1.155807
9560.000000;1.155093
9559.000000;1.153932
9558.000000;1.152460
9557.000000;1.150664
9556.000000;1.148725
9555.000000;1.147334
9554.000000;1.147082
9553.000000;1.147742
9552.000000;1.148596
9551.000000;1.149268
9550.000000;1.149775
9549.000000;1.149961
9548.000000;1.149469
9547.000000;1.148349
9546.000000;1.147158
9545.000000;1.146279
9544.000000;1.145503
9543.000000;1.144405
9542.000000;1.142908
9541.000000;1.141376
9540.000000;1.140265
9539.000000;1.139726
9538.000000;1.139470
9537.000000;1.139115
9536.000000;1.138699
9535.000000;1.138644
9534.000000;1.139056
9533.000000;1.139364
9532.000000;1.138973
9531.000000;1.138028
9530.000000;1.137118
9529.000000;1.136388
9528.000000;1.135453
9527.000000;1.134117
9526.000000;1.132698
9525.000000;1.131582
9524.000000;1.130850
9523.000000;1.130411
9522.000000;1.130118
9521.000000;1.129678
9520.000000;1.128843
9519.000000;1.127792
9518.000000;1.127008
9517.000000;1.126679
9516.000000;1.126570
9515.000000;1.126531
9514.000000;1.126743
9513.000000;1.127281
9512.000000;1.127784
9511.000000;1.127817
9510.000000;1.127308
9509.000000;1.126465
9508.000000;1.125511
9507.000000;1.124672
9506.000000;1.124179
9505.000000;1.124014
9504.000000;1.123843
9503.000000;1.123362
9502.000000;1.122565
9501.000000;1.121538
9500.000000;1.120268
9499.000000;1.118860
9498.000000;1.117697
9497.000000;1.117128
9496.000000;1.117080
9495.000000;1.117200
9494.000000;1.117286
9493.000000;1.117375
9492.000000;1.117501
9491.000000;1.117523
9490.000000;1.117179
9489.000000;1.116281
9488.000000;1.114973
9487.000000;1.113744
9486.000000;1.112945
9485.000000;1.112299
9484.000000;1.111211
9483.000000;1.109676
9482.000000;1.108499
9481.000000;1.108396
9480.000000;1.109183
9479.000000;1.110092
9478.000000;1.110611
9477.000000;1.110711
9476.000000;1.110515
9475.000000;1.110145
9474.000000;1.109740
9473.000000;1.109260
9472.000000;1.108412
9471.000000;1.107091
9470.000000;1.105710
9469.000000;1.104715
9468.000000;1.103919
9467.000000;1.102761
9466.000000;1.101237
9465.000000;1.100058
9464.000000;1.099762
9463.000000;1.100058
9462.000000;1.100251
9461.000000;1.100041
9460.000000;1.099640
9459.000000;1.099251
9458.000000;1.098774
9457.000000;1.098025
9456.000000;1.097092
9455.000000;1.096303
9454.000000;1.095798
9453.000000;1.095255
9452.000000;1.094286
9451.000000;1.093096
9450.000000;1.092421
9449.000000;1.092664
9448.000000;1.093387
9447.000000;1.093868
9446.000000;1.093864
9445.000000;1.093514
9444.000000;1.092819
9443.000000;1.091736
9442.000000;1.090568
9441.000000;1.089699
9440.000000;1.089002
9439.000000;1.088030
9438.000000;1.086829
9437.000000;1.085988
9436.000000;1.085742
9435.000000;1.085572
9434.000000;1.084973
9433.000000;1.084181
9432.000000;1.083766
9431.000000;1.083843
9430.000000;1.084046
9429.000000;1.084064
9428.000000;1.083856
9427.000000;1.083491
9426.000000;1.083125
9425.000000;1.083021
9424.000000;1.083235
9423.000000;1.083306
9422.000000;1.082588
9421.000000;1.081005
9420.000000;1.079268
9419.000000;1.078234
9418.000000;1.078167
9417.000000;1.078616
9416.000000;1.078879
9415.000000;1.078501
9414.000000;1.077404
9413.000000;1.075750
9412.000000;1.073892
9411.000000;1.072431
9410.000000;1.072000
9409.000000;1.072725
9408.000000;1.073972
9407.000000;1.074878
9406.000000;1.075131
9405.000000;1.075007
9404.000000;1.074759
9403.000000;1.074295
9402.000000;1.073478
9401.000000;1.072397
9400.000000;1.071231
9399.000000;1.070126
9398.000000;1.069278
9397.000000;1.068862
9396.000000;1.068699
9395.000000;1.068320
9394.000000;1.067519
9393.000000;1.066570
9392.000000;1.065694
9391.000000;1.064668
9390.000000;1.063291
9389.000000;1.061931
9388.000000;1.061176
9387.000000;1.061083
9386.000000;1.061175
9385.000000;1.061142
9384.000000;1.061168
9383.000000;1.061533
9382.000000;1.062194
9381.000000;1.062781
9380.000000;1.062793
9379.000000;1.061865
9378.000000;1.060165
9377.000000;1.058514
9376.000000;1.057754
9375.000000;1.057898
9374.000000;1.058169
9373.000000;1.057943
9372.000000;1.057365
9371.000000;1.056877
9370.000000;1.056524
9369.000000;1.056031
9368.000000;1.055365
9367.000000;1.054808
9366.000000;1.054489
9365.000000;1.054189
9364.000000;1.053728
9363.000000;1.053286
9362.000000;1.053116
9361.000000;1.053061
9360.000000;1.052640
9359.000000;1.051653
9358.000000;1.050506
9357.000000;1.049784
9356.000000;1.049624
9355.000000;1.049659
9354.000000;1.049537
9353.000000;1.049276
9352.000000;1.049072
9351.000000;1.048998
9350.000000;1.049036
9349.000000;1.049198
9348.000000;1.049338
9347.000000;1.048956
9346.000000;1.047559
9345.000000;1.045354
9344.000000;1.043354
9343.000000;1.042571
9342.000000;1.043113
9341.000000;1.044142
9340.000000;1.044676
9339.000000;1.044436
9338.000000;1.043928
9337.000000;1.043778
9336.000000;1.043997
9335.000000;1.043921
9334.000000;1.042885
9333.000000;1.040969
9332.000000;1.039024
9331.000000;1.037916
9330.000000;1.037764
9329.000000;1.037957
9328.000000;1.037853
9327.000000;1.037310
9326.000000;1.036502
9325.000000;1.035471
9324.000000;1.034170
9323.000000;1.032906
9322.000000;1.032329
9321.000000;1.032694
9320.000000;1.033333
9319.000000;1.033243
9318.000000;1.032222
9317.000000;1.031116
9316.000000;1.030828
9315.000000;1.031367
9314.000000;1.032027
9313.000000;1.032287
9312.000000;1.032286
9311.000000;1.032431
9310.000000;1.032742
9309.000000;1.032671
9308.000000;1.031577
9307.000000;1.029428
9306.000000;1.027029
9305.000000;1.025469
9304.000000;1.025277
9303.000000;1.026107
9302.000000;1.027157
9301.000000;1.027762
9300.000000;1.027636
9299.000000;1.026890
9298.000000;1.025980
9297.000000;1.025396
9296.000000;1.025187
9295.000000;1.024887
9294.000000;1.024103
9293.000000;1.023037
9292.000000;1.022188
9291.000000;1.021668
9290.000000;1.021116
9289.000000;1.020263
9288.000000;1.019308
9287.000000;1.018678
9286.000000;1.018621
9285.000000;1.019087
9284.000000;1.019834
9283.000000;1.020530
9282.000000;1.020871
9281.000000;1.020734
9280.000000;1.020224
9279.000000;1.019556
9278.000000;1.018960
9277.000000;1.018641
9276.000000;1.018664
9275.000000;1.018816
9274.000000;1.018736
9273.000000;1.018294
9272.000000;1.017751
9271.000000;1.017438
9270.000000;1.017343
9269.000000;1.017176
9268.000000;1.016760
9267.000000;1.016153
9266.000000;1.015363
9265.000000;1.014205
9264.000000;1.012684
9263.000000;1.011362
9262.000000;1.010977
9261.000000;1.011607
9260.000000;1.012524
9259.000000;1.012988
9258.000000;1.012895
9257.000000;1.012395
9256.000000;1.011252
9255.000000;1.009214
9254.000000;1.006914
9253.000000;1.005670
9252.000000;1.006127
9251.000000;1.007537
9250.000000;1.008697
9249.000000;1.009228
9248.000000;1.009519
9247.000000;1.009758
9246.000000;1.009627
9245.000000;1.008955
9244.000000;1.008157
9243.000000;1.007786
9242.000000;1.007856
9241.000000;1.007750
9240.000000;1.006798
9239.000000;1.005003
9238.000000;1.003247
9237.000000;1.002584
9236.000000;1.003190
9235.000000;1.004181
9234.000000;1.004660
9233.000000;1.004679
9232.000000;1.004804
9231.000000;1.005028
9230.000000;1.004717
9229.000000;1.003662
9228.000000;1.002535
9227.000000;1.002045
9226.000000;1.002042
9225.000000;1.001779
9224.000000;1.000807
9223.000000;0.999350
9222.000000;0.997938
9221.000000;0.996974
9220.000000;0.996580
9219.000000;0.996622
9218.000000;0.996841
9217.000000;0.997052
9216.000000;0.997180
9215.000000;0.997105
9214.000000;0.996684
9213.000000;0.995988
9212.000000;0.995327
9211.000000;0.994859
9210.000000;0.994342
9209.000000;0.993466
9208.000000;0.992323
9207.000000;0.991368
9206.000000;0.990954
9205.000000;0.991043
9204.000000;0.991314
9203.000000;0.991447
9202.000000;0.991350
9201.000000;0.991211
9200.000000;0.991324
9199.000000;0.991747
9198.000000;0.992127
9197.000000;0.991925
9196.000000;0.990890
9195.000000;0.989297
9194.000000;0.987754
9193.000000;0.986778
9192.000000;0.986461
9191.000000;0.986508
9190.000000;0.986606
9189.000000;0.986728
9188.000000;0.987031
9187.000000;0.987507
9186.000000;0.987926
9185.000000;0.988129
9184.000000;0.988206
9183.000000;0.988246
9182.000000;0.988068
9181.000000;0.987392
9180.000000;0.986292
9179.000000;0.985305
9178.000000;0.984979
9177.000000;0.985314
9176.000000;0.985713
9175.000000;0.985560
9174.000000;0.984864
9173.000000;0.984197
9172.000000;0.983968
9171.000000;0.983900
9170.000000;0.983412
9169.000000;0.982379
9168.000000;0.981261
9167.000000;0.980507
9166.000000;0.980124
9165.000000;0.979865
9164.000000;0.979549
9163.000000;0.979097
9162.000000;0.978489
9161.000000;0.977885
9160.000000;0.977623
9159.000000;0.977866
9158.000000;0.978367
9157.000000;0.978718
9156.000000;0.978737
9155.000000;0.978453
9154.000000;0.977906
9153.000000;0.977152
9152.000000;0.976400
9151.000000;0.975892
9150.000000;0.975683
9149.000000;0.975676
9148.000000;0.975807
9147.000000;0.976012
9146.000000;0.976103
9145.000000;0.975900
9144.000000;0.975505
9143.000000;0.975236
9142.000000;0.975290
9141.000000;0.975634
9140.000000;0.976156
9139.000000;0.976730
9138.000000;0.977109
9137.000000;0.977024
9136.000000;0.976432
9135.000000;0.975479
9134.000000;0.974273
9133.000000;0.972943
9132.000000;0.971925
9131.000000;0.971788
9130.000000;0.972545
9129.000000;0.973394
9128.000000;0.973421
9127.000000;0.972460
9126.000000;0.971117
9125.000000;0.970127
9124.000000;0.969905
9123.000000;0.970450
9122.000000;0.971338
9121.000000;0.971853
9120.000000;0.971526
9119.000000;0.970647
9118.000000;0.969999
9117.000000;0.969991
9116.000000;0.970257
9115.000000;0.970162
9114.000000;0.969519
9113.000000;0.968720
9112.000000;0.968312
9111.000000;0.968541
9110.000000;0.969137
9109.000000;0.969507
9108.000000;0.969290
9107.000000;0.968747
9106.000000;0.968405
9105.000000;0.968282
9104.000000;0.967808
9103.000000;0.966653
9102.000000;0.965284
9101.000000;0.964432
9100.000000;0.964250
9099.000000;0.964371
9098.000000;0.964601
9097.000000;0.965081
9096.000000;0.965742
9095.000000;0.966086
9094.000000;0.965705
9093.000000;0.964753
9092.000000;0.963759
9091.000000;0.963144
9090.000000;0.963005
9089.000000;0.963118
9088.000000;0.963066
9087.000000;0.962596
9086.000000;0.961947
9085.000000;0.961622
9084.000000;0.961710
9083.000000;0.961734
9082.000000;0.961300
9081.000000;0.960623
9080.000000;0.960147
9079.000000;0.959901
9078.000000;0.959556
9077.000000;0.958964
9076.000000;0.958325
9075.000000;0.957875
9074.000000;0.957684
9073.000000;0.957746
9072.000000;0.957988
9071.000000;0.958201
9070.000000;0.958188
9069.000000;0.958023
9068.000000;0.957940
9067.000000;0.957984
9066.000000;0.957963
9065.000000;0.957729
9064.000000;0.957316
9063.000000;0.956809
9062.000000;0.956294
9061.000000;0.955951
9060.000000;0.955913
9059.000000;0.955971
9058.000000;0.955708
9057.000000;0.955056
9056.000000;0.954493
9055.000000;0.954496
9054.000000;0.954970
9053.000000;0.955392
