Criado como novo conjunto de dados;"1909daniel.spp","-4227642.0 Secs"
cm-1;Abs
10000.000000;1.425000
9999.000000;1.424389
9998.000000;1.423779
9997.000000;1.423168
9996.000000;1.422561
9995.000000;1.421951
9994.000000;1.421347
9993.000000;1.420734
9992.000000;1.420150
9991.000000;1.418919
9990.000000;1.417893
9989.000000;1.417791
9988.000000;1.418187
9987.000000;1.417867
9986.000000;1.416127
9985.000000;1.413537
9984.000000;1.411208
9983.000000;1.409568
9982.000000;1.408151
9981.000000;1.406462
9980.000000;1.404697
9979.000000;1.403480
9978.000000;1.403134
9977.000000;1.403395
9976.000000;1.403682
9975.000000;1.403504
9974.000000;1.402785
9973.000000;1.401987
9972.000000;1.401819
9971.000000;1.402541
9970.000000;1.403559
9969.000000;1.403899
9968.000000;1.403202
9967.000000;1.402097
9966.000000;1.401455
9965.000000;1.401380
9964.000000;1.401101
9963.000000;1.399907
9962.000000;1.398062
9961.000000;1.396626
9960.000000;1.396396
9959.000000;1.397115
9958.000000;1.397718
9957.000000;1.397284
9956.000000;1.395731
9955.000000;1.393728
9954.000000;1.392106
9953.000000;1.391354
9952.000000;1.391403
9951.000000;1.391627
9950.000000;1.391233
9949.000000;1.389964
9948.000000;1.388495
9947.000000;1.387947
9946.000000;1.388742
9945.000000;1.389940
9944.000000;1.389965
9943.000000;1.388216
9942.000000;1.385832
9941.000000;1.384650
9940.000000;1.385451
9939.000000;1.387316
9938.000000;1.388535
9937.000000;1.387960
9936.000000;1.385614
9935.000000;1.382411
9934.000000;1.379547
9933.000000;1.377891
9932.000000;1.377479
9931.000000;1.377541
9930.000000;1.377229
9929.000000;1.376393
9928.000000;1.375475
9927.000000;1.374807
9926.000000;1.374358
9925.000000;1.374033
9924.000000;1.373792
9923.000000;1.373438
9922.000000;1.372737
9921.000000;1.371868
9920.000000;1.371308
9919.000000;1.371088
9918.000000;1.370577
9917.000000;1.369344
9916.000000;1.367862
9915.000000;1.366896
9914.000000;1.366422
9913.000000;1.365675
9912.000000;1.364241
9911.000000;1.362673
9910.000000;1.361858
9909.000000;1.362053
9908.000000;1.362678
9907.000000;1.362895
9906.000000;1.362330
9905.000000;1.361369
9904.000000;1.360719
9903.000000;1.360549
9902.000000;1.360093
9901.000000;1.358401
9900.000000;1.355546
9899.000000;1.352796
9898.000000;1.351456
9897.000000;1.351769
9896.000000;1.353016
9895.000000;1.354371
9894.000000;1.355370
9893.000000;1.355767
9892.000000;1.355479
9891.000000;1.354745
9890.000000;1.353948
9889.000000;1.353094
9888.000000;1.351761
9887.000000;1.349783
9886.000000;1.347685
9885.000000;1.346158
9884.000000;1.345277
9883.000000;1.344566
9882.000000;1.343665
9881.000000;1.342522
9880.000000;1.341010
9879.000000;1.338940
9878.000000;1.336683
9877.000000;1.335303
9876.000000;1.335650
9875.000000;1.337477
9874.000000;1.339681
9873.000000;1.341212
9872.000000;1.341572
9871.000000;1.340735
9870.000000;1.339042
9869.000000;1.337175
9868.000000;1.335786
9867.000000;1.334946
9866.000000;1.334173
9865.000000;1.333064
9864.000000;1.331720
9863.000000;1.330564
9862.000000;1.329904
9861.000000;1.329691
9860.000000;1.329554
9859.000000;1.329143
9858.000000;1.328549
9857.000000;1.328288
9856.000000;1.328614
9855.000000;1.328984
9854.000000;1.328567
9853.000000;1.327250
9852.000000;1.325795
9851.000000;1.324962
9850.000000;1.324807
9849.000000;1.324869
9848.000000;1.324681
9847.000000;1.323941
9846.000000;1.322559
9845.000000;1.320832
9844.000000;1.319370
9843.000000;1.318620
9842.000000;1.318512
9841.000000;1.318644
9840.000000;1.318700
9839.000000;1.318517
9838.000000;1.317944
9837.000000;1.316879
9836.000000;1.315435
9835.000000;1.313997
9834.000000;1.313051
9833.000000;1.312868
9832.000000;1.313176
9831.000000;1.313193
9830.000000;1.312297
9829.000000;1.310757
9828.000000;1.309546
9827.000000;1.309281
9826.000000;1.309559
9825.000000;1.309508
9824.000000;1.308788
9823.000000;1.307808
9822.000000;1.307059
9821.000000;1.306551
9820.000000;1.305995
9819.000000;1.305303
9818.000000;1.304702
9817.000000;1.304330
9816.000000;1.303893
9815.000000;1.302915
9814.000000;1.301368
9813.000000;1.299850
9812.000000;1.299003
9811.000000;1.298918
9810.000000;1.299290
9809.000000;1.299875
9808.000000;1.300443
9807.000000;1.300429
9806.000000;1.299216
9805.000000;1.296941
9804.000000;1.294601
9803.000000;1.293080
9802.000000;1.292357
9801.000000;1.291826
9800.000000;1.291145
9799.000000;1.290516
9798.000000;1.290264
9797.000000;1.290426
9796.000000;1.290712
9795.000000;1.290759
9794.000000;1.290421
9793.000000;1.289855
9792.000000;1.289301
9791.000000;1.288803
9790.000000;1.288245
9789.000000;1.287593
9788.000000;1.286883
9787.000000;1.286026
9786.000000;1.284941
9785.000000;1.283884
9784.000000;1.283263
9783.000000;1.283036
9782.000000;1.282680
9781.000000;1.281911
9780.000000;1.280997
9779.000000;1.280087
9778.000000;1.278724
9777.000000;1.276528
9776.000000;1.274095
9775.000000;1.272621
9774.000000;1.272607
9773.000000;1.273389
9772.000000;1.273985
9771.000000;1.274044
9770.000000;1.273748
9769.000000;1.273107
9768.000000;1.271832
9767.000000;1.269941
9766.000000;1.268164
9765.000000;1.267439
9764.000000;1.268005
9763.000000;1.269158
9762.000000;1.270022
9761.000000;1.270420
9760.000000;1.270771
9759.000000;1.271224
9758.000000;1.271233
9757.000000;1.270061
9756.000000;1.267585
9755.000000;1.264544
9754.000000;1.262103
9753.000000;1.261098
9752.000000;1.261418
9751.000000;1.262063
9750.000000;1.262091
9749.000000;1.261549
9748.000000;1.261182
9747.000000;1.261273
9746.000000;1.261268
9745.000000;1.260666
9744.000000;1.259726
9743.000000;1.258994
9742.000000;1.258565
9741.000000;1.258214
9740.000000;1.257911
9739.000000;1.257710
9738.000000;1.257287
9737.000000;1.256087
9736.000000;1.253977
9735.000000;1.251526
9734.000000;1.249633
9733.000000;1.248939
9732.000000;1.249308
9731.000000;1.249728
9730.000000;1.249067
9729.000000;1.247294
9728.000000;1.245636
9727.000000;1.245180
9726.000000;1.245646
9725.000000;1.245937
9724.000000;1.245580
9723.000000;1.245112
9722.000000;1.245115
9721.000000;1.245456
9720.000000;1.245624
9719.000000;1.245347
9718.000000;1.244653
9717.000000;1.243637
9716.000000;1.242430
9715.000000;1.241208
9714.000000;1.240055
9713.000000;1.238920
9712.000000;1.237777
9711.000000;1.236728
9710.000000;1.235853
9709.000000;1.235067
9708.000000;1.234151
9707.000000;1.232890
9706.000000;1.231270
9705.000000;1.229672
9704.000000;1.228710
9703.000000;1.228650
9702.000000;1.229048
9701.000000;1.229251
9700.000000;1.229217
9699.000000;1.229471
9698.000000;1.230178
9697.000000;1.230675
9696.000000;1.230172
9695.000000;1.228777
9694.000000;1.227443
9693.000000;1.226845
9692.000000;1.226547
9691.000000;1.225528
9690.000000;1.223501
9689.000000;1.221375
9688.000000;1.220209
9687.000000;1.219947
9686.000000;1.219542
9685.000000;1.218292
9684.000000;1.216651
9683.000000;1.215537
9682.000000;1.215222
9681.000000;1.215215
9680.000000;1.214943
9679.000000;1.214198
9678.000000;1.213148
9677.000000;1.212311
9676.000000;1.212340
9675.000000;1.213416
9674.000000;1.214847
9673.000000;1.215599
9672.000000;1.215280
9671.000000;1.214369
9670.000000;1.213483
9669.000000;1.212735
9668.000000;1.211869
9667.000000;1.210724
9666.000000;1.209400
9665.000000;1.208172
9664.000000;1.207334
9663.000000;1.206988
9662.000000;1.206842
9661.000000;1.206344
9660.000000;1.205144
9659.000000;1.203408
9658.000000;1.201658
9657.000000;1.200371
9656.000000;1.199693
9655.000000;1.199424
9654.000000;1.199238
9653.000000;1.198906
9652.000000;1.198323
9651.000000;1.197440
9650.000000;1.196387
9649.000000;1.195634
9648.000000;1.195702
9647.000000;1.196529
9646.000000;1.197330
9645.000000;1.197330
9644.000000;1.196491
9643.000000;1.195334
9642.000000;1.194326
9641.000000;1.193664
9640.000000;1.193336
9639.000000;1.193098
9638.000000;1.192569
9637.000000;1.191659
9636.000000;1.190765
9635.000000;1.190296
9634.000000;1.190151
9633.000000;1.189967
9632.000000;1.189602
9631.000000;1.188999
9630.000000;1.187883
9629.000000;1.186196
9628.000000;1.184659
9627.000000;1.184230
9626.000000;1.184958
9625.000000;1.185905
9624.000000;1.186247
9623.000000;1.185900
9622.000000;1.185051
9621.000000;1.183753
9620.000000;1.182247
9619.000000;1.181031
9618.000000;1.180206
9617.000000;1.179246
9616.000000;1.177803
9615.000000;1.176331
9614.000000;1.175529
9613.000000;1.175509
9612.000000;1.175916
9611.000000;1.176503
9610.000000;1.177080
9609.000000;1.177143
9608.000000;1.176203
9607.000000;1.174482
9606.000000;1.172799
9605.000000;1.171695
9604.000000;1.171051
9603.000000;1.170556
9602.000000;1.170124
9601.000000;1.169727
9600.000000;1.169160
9599.000000;1.168274
9598.000000;1.167295
9597.000000;1.166657
9596.000000;1.166471
9595.000000;1.166240
9594.000000;1.165257
9593.000000;1.163388
9592.000000;1.161437
9591.000000;1.160549
9590.000000;1.161158
9589.000000;1.162628
9588.000000;1.163920
9587.000000;1.164434
9586.000000;1.164065
9585.000000;1.162758
9584.000000;1.160572
9583.000000;1.158176
9582.000000;1.156735
9581.000000;1.156876
9580.000000;1.157914
9579.000000;1.158447
9578.000000;1.157789
9577.000000;1.156579
9576.000000;1.155876
9575.000000;1.155903
9574.000000;1.155881
9573.000000;1.155068
9572.000000;1.153665
9571.000000;1.152547
9570.000000;1.152235
9569.000000;1.152391
9568.000000;1.152342
9567.000000;1.151889
9566.000000;1.151360
9565.000000;1.150964
9564.000000;1.150408
9563.000000;1.149346
9562.000000;1.148016
9561.000000;1.147111
9560.000000;1.146986
9559.000000;1.147249
9558.000000;1.147315
9557.000000;1.147128
9556.000000;1.147064
9555.000000;1.147295
9554.000000;1.147571
9553.000000;1.147624
9552.000000;1.147389
9551.000000;1.146726
9550.000000;1.145338
9549.000000;1.143244
9548.000000;1.141073
9547.000000;1.139568
9546.000000;1.138882
9545.000000;1.138557
9544.000000;1.138041
9543.000000;1.137035
9542.000000;1.135589
9541.000000;1.134136
9540.000000;1.133304
9539.000000;1.133335
9538.000000;1.133755
9537.000000;1.133872
9536.000000;1.133557
9535.000000;1.133234
9534.000000;1.133178
9533.000000;1.133190
9532.000000;1.132971
9531.000000;1.132455
9530.000000;1.131666
9529.000000;1.130581
9528.000000;1.129300
9527.000000;1.128045
9526.000000;1.126854
9525.000000;1.125548
9524.000000;1.124098
9523.000000;1.122739
9522.000000;1.121693
9521.000000;1.121015
9520.000000;1.120765
9519.000000;1.121001
9518.000000;1.121444
9517.000000;1.121517
9516.000000;1.121042
9515.000000;1.120617
9514.000000;1.120930
9513.000000;1.121859
9512.000000;1.122575
9511.000000;1.122485
9510.000000;1.121780
9509.000000;1.121058
9508.000000;1.120683
9507.000000;1.120578
9506.000000;1.120383
9505.000000;1.119733
9504.000000;1.118539
9503.000000;1.117055
9502.000000;1.115637
9501.000000;1.114495
9500.000000;1.113644
9499.000000;1.113003
9498.000000;1.112449
9497.000000;1.111877
9496.000000;1.111313
9495.000000;1.110920
9494.000000;1.110796
9493.000000;1.110830
9492.000000;1.110811
9491.000000;1.110582
9490.000000;1.110004
9489.000000;1.108929
9488.000000;1.107353
9487.000000;1.105513
9486.000000;1.103699
9485.000000;1.102106
9484.000000;1.100996
9483.000000;1.100796
9482.000000;1.101692
9481.000000;1.103165
9480.000000;1.104236
9479.000000;1.104293
9478.000000;1.103522
9477.000000;1.102468
9476.000000;1.101428
9475.000000;1.100409
9474.000000;1.099448
9473.000000;1.098715
9472.000000;1.098329
9471.000000;1.098222
9470.000000;1.098238
9469.000000;1.098265
9468.000000;1.098200
9467.000000;1.097855
9466.000000;1.097000
9465.000000;1.095627
9464.000000;1.094121
9463.000000;1.093038
9462.000000;1.092632
9461.000000;1.092627
9460.000000;1.092503
9459.000000;1.091972
9458.000000;1.091149
9457.000000;1.090379
9456.000000;1.090006
9455.000000;1.090196
9454.000000;1.090763
9453.000000;1.091122
9452.000000;1.090623
9451.000000;1.089125
9450.000000;1.087208
9449.000000;1.085737
9448.000000;1.085210
9447.000000;1.085485
9446.000000;1.086041
9445.000000;1.086412
9444.000000;1.086461
9443.000000;1.086354
9442.000000;1.086316
9441.000000;1.086359
9440.000000;1.086215
9439.000000;1.085585
9438.000000;1.084493
9437.000000;1.083394
9436.000000;1.082874
9435.000000;1.083127
9434.000000;1.083673
9433.000000;1.083649
9432.000000;1.082495
9431.000000;1.080419
9430.000000;1.078194
9429.000000;1.076508
9428.000000;1.075567
9427.000000;1.075208
9426.000000;1.075210
9425.000000;1.075360
9424.000000;1.075345
9423.000000;1.074837
9422.000000;1.073832
9421.000000;1.072769
9420.000000;1.072142
9419.000000;1.072002
9418.000000;1.071893
9417.000000;1.071340
9416.000000;1.070293
9415.000000;1.069031
9414.000000;1.067798
9413.000000;1.066658
9412.000000;1.065607
9411.000000;1.064680
9410.000000;1.063958
9409.000000;1.063602
9408.000000;1.063855
9407.000000;1.064837
9406.000000;1.066198
9405.000000;1.067142
9404.000000;1.067012
9403.000000;1.065917
9402.000000;1.064574
9401.000000;1.063525
9400.000000;1.062675
9399.000000;1.061703
9398.000000;1.060734
9397.000000;1.060302
9396.000000;1.060638
9395.000000;1.061271
9394.000000;1.061508
9393.000000;1.061145
9392.000000;1.060478
9391.000000;1.059756
9390.000000;1.058955
9389.000000;1.058100
9388.000000;1.057478
9387.000000;1.057360
9386.000000;1.057677
9385.000000;1.058087
9384.000000;1.058238
9383.000000;1.057913
9382.000000;1.057151
9381.000000;1.056351
9380.000000;1.055981
9379.000000;1.055961
9378.000000;1.055556
9377.000000;1.054239
9376.000000;1.052515
9375.000000;1.051466
9374.000000;1.051496
9373.000000;1.051897
9372.000000;1.051743
9371.000000;1.050867
9370.000000;1.049781
9369.000000;1.048943
9368.000000;1.048456
9367.000000;1.048240
9366.000000;1.048121
9365.000000;1.047769
9364.000000;1.046887
9363.000000;1.045547
9362.000000;1.044189
9361.000000;1.043232
9360.000000;1.042774
9359.000000;1.042654
9358.000000;1.042679
9357.000000;1.042741
9356.000000;1.042820
9355.000000;1.042917
9354.000000;1.042938
9353.000000;1.042634
9352.000000;1.041770
9351.000000;1.040420
9350.000000;1.039011
9349.000000;1.037969
9348.000000;1.037337
9347.000000;1.036852
9346.000000;1.036399
9345.000000;1.036236
9344.000000;1.036644
9343.000000;1.037441
9342.000000;1.038076
9341.000000;1.038231
9340.000000;1.038110
9339.000000;1.037990
9338.000000;1.037721
9337.000000;1.036983
9336.000000;1.035910
9335.000000;1.035086
9334.000000;1.034862
9333.000000;1.034963
9332.000000;1.034892
9331.000000;1.034479
9330.000000;1.033822
9329.000000;1.032893
9328.000000;1.031560
9327.000000;1.030022
9326.000000;1.028922
9325.000000;1.028837
9324.000000;1.029670
9323.000000;1.030641
9322.000000;1.030938
9321.000000;1.030407
9320.000000;1.029568
9319.000000;1.028968
9318.000000;1.028661
9317.000000;1.028412
9316.000000;1.028235
9315.000000;1.028374
9314.000000;1.028720
9313.000000;1.028608
9312.000000;1.027478
9311.000000;1.025611
9310.000000;1.023945
9309.000000;1.023200
9308.000000;1.023359
9307.000000;1.023887
9306.000000;1.024180
9305.000000;1.023834
9304.000000;1.022820
9303.000000;1.021570
9302.000000;1.020692
9301.000000;1.020444
9300.000000;1.020525
9299.000000;1.020430
9298.000000;1.019931
9297.000000;1.019202
9296.000000;1.018630
9295.000000;1.018580
9294.000000;1.019136
9293.000000;1.019828
9292.000000;1.019758
9291.000000;1.018342
9290.000000;1.016045
9289.000000;1.014111
9288.000000;1.013430
9287.000000;1.013788
9286.000000;1.014295
9285.000000;1.014403
9284.000000;1.014268
9283.000000;1.014216
9282.000000;1.014264
9281.000000;1.014249
9280.000000;1.014107
9279.000000;1.013779
9278.000000;1.013043
9277.000000;1.011784
9276.000000;1.010360
9275.000000;1.009399
9274.000000;1.009200
9273.000000;1.009509
9272.000000;1.009860
9271.000000;1.009884
9270.000000;1.009298
9269.000000;1.007984
9268.000000;1.006275
9267.000000;1.004930
9266.000000;1.004528
9265.000000;1.004978
9264.000000;1.005727
9263.000000;1.006306
9262.000000;1.006502
9261.000000;1.006196
9260.000000;1.005423
9259.000000;1.004543
9258.000000;1.004030
9257.000000;1.004004
9256.000000;1.004134
9255.000000;1.004032
9254.000000;1.003559
9253.000000;1.002767
9252.000000;1.001854
9251.000000;1.001270
9250.000000;1.001542
9249.000000;1.002717
9248.000000;1.004080
9247.000000;1.004630
9246.000000;1.003855
9245.000000;1.001995
9244.000000;0.999742
9243.000000;0.997890
9242.000000;0.997075
9241.000000;0.997425
9240.000000;0.998359
9239.000000;0.998978
9238.000000;0.998824
9237.000000;0.998158
9236.000000;0.997476
9235.000000;0.996965
9234.000000;0.996564
9233.000000;0.996302
9232.000000;0.996255
9231.000000;0.996287
9230.000000;0.996148
9229.000000;0.995853
9228.000000;0.995670
9227.000000;0.995641
9226.000000;0.995396
9225.000000;0.994618
9224.000000;0.993521
9223.000000;0.992644
9222.000000;0.992274
9221.000000;0.992256
9220.000000;0.992251
9219.000000;0.992031
9218.000000;0.991588
9217.000000;0.991173
9216.000000;0.991125
9215.000000;0.991486
9214.000000;0.991833
9213.000000;0.991717
9212.000000;0.991205
9211.000000;0.990746
9210.000000;0.990544
9209.000000;0.990362
9208.000000;0.989944
9207.000000;0.989299
9206.000000;0.988484
9205.000000;0.987502
9204.000000;0.986591
9203.000000;0.986245
9202.000000;0.986650
9201.000000;0.987286
9200.000000;0.987440
9199.000000;0.987001
9198.000000;0.986432
9197.000000;0.986043
9196.000000;0.985642
9195.000000;0.984952
9194.000000;0.984046
9193.000000;0.983226
9192.000000;0.982637
9191.000000;0.982139
9190.000000;0.981544
9189.000000;0.980910
9188.000000;0.980560
9187.000000;0.980734
9186.000000;0.981218
9185.000000;0.981473
9184.000000;0.981233
9183.000000;0.980828
9182.000000;0.980787
9181.000000;0.981221
9180.000000;0.981720
9179.000000;0.981721
9178.000000;0.980878
9177.000000;0.979313
9176.000000;0.977733
9175.000000;0.977015
9174.000000;0.977309
9173.000000;0.977745
9172.000000;0.977418
9171.000000;0.976540
9170.000000;0.976085
9169.000000;0.976379
9168.000000;0.976721
9167.000000;0.976484
9166.000000;0.975925
9165.000000;0.975556
9164.000000;0.975262
9163.000000;0.974599
9162.000000;0.973640
9161.000000;0.972933
9160.000000;0.972734
9159.000000;0.972722
9158.000000;0.972486
9157.000000;0.971987
9156.000000;0.971507
9155.000000;0.971394
9154.000000;0.971821
9153.000000;0.972541
9152.000000;0.972941
9151.000000;0.972618
9150.000000;0.971888
9149.000000;0.971442
9148.000000;0.971526
9147.000000;0.971735
9146.000000;0.971612
9145.000000;0.971143
9144.000000;0.970583
9143.000000;0.970096
9142.000000;0.969758
9141.000000;0.969692
9140.000000;0.969937
9139.000000;0.970228
9138.000000;0.970122
9137.000000;0.969409
9136.000000;0.968334
9135.000000;0.967357
9134.000000;0.966696
9133.000000;0.966160
9132.000000;0.965472
9131.000000;0.964727
9130.000000;0.964389
9129.000000;0.964759
9128.000000;0.965582
9127.000000;0.966279
9126.000000;0.966508
9125.000000;0.966373
9124.000000;0.966142
9123.000000;0.965893
9122.000000;0.965432
9121.000000;0.964502
9120.000000;0.963132
9119.000000;0.961842
9118.000000;0.961315
9117.000000;0.961721
9116.000000;0.962477
9115.000000;0.962838
9114.000000;0.962650
9113.000000;0.962330
9112.000000;0.962243
9111.000000;0.962363
9110.000000;0.962483
9109.000000;0.962460
9108.000000;0.962255
9107.000000;0.962001
9106.000000;0.961987
9105.000000;0.962300
9104.000000;0.962484
9103.000000;0.961921
9102.000000;0.960660
9101.000000;0.959507
9100.000000;0.959116
9099.000000;0.959311
9098.000000;0.959540
9097.000000;0.959667
9096.000000;0.959953
9095.000000;0.960454
9094.000000;0.960814
9093.000000;0.960676
9092.000000;0.960002
9091.000000;0.958987
9090.000000;0.957880
9089.000000;0.956874
9088.000000;0.956023
9087.000000;0.955257
9086.000000;0.954618
9085.000000;0.954372
9084.000000;0.954680
9083.000000;0.955214
9082.000000;0.955419
9081.000000;0.955168
9080.000000;0.954886
9079.000000;0.954927
9078.000000;0.955098
9077.000000;0.954981
9076.000000;0.954539
9075.000000;0.954148
9074.000000;0.954126
9073.000000;0.954418
9072.000000;0.954738
9071.000000;0.954862
9070.000000;0.954757
9069.000000;0.954521
9068.000000;0.954230
9067.000000;0.953845
9066.000000;0.953272
9065.000000;0.952519
9064.000000;0.951710
9063.000000;0.950929
9062.000000;0.950152
9061.000000;0.949402
9060.000000;0.948858
9059.000000;0.948663
9058.000000;0.948714
9057.000000;0.948801
9056.000000;0.948903
9055.000000;0.949171
9054.000000;0.949595
9053.000000;0.949892
