Criado como novo conjunto de dados;"1909daniel.spp","-4231962.2 Secs"
cm-1;Abs
10000.000000;1.465680
9999.000000;1.466778
9998.000000;1.467878
9997.000000;1.468981
9996.000000;1.470088
9995.000000;1.471194
9994.000000;1.472311
9993.000000;1.473416
9992.000000;1.474566
9991.000000;1.474475
9990.000000;1.473448
9989.000000;1.472553
9988.000000;1.472074
9987.000000;1.471369
9986.000000;1.469989
9985.000000;1.468276
9984.000000;1.466776
9983.000000;1.465849
9982.000000;1.465879
9981.000000;1.466971
9980.000000;1.468175
9979.000000;1.467917
9978.000000;1.465724
9977.000000;1.462883
9976.000000;1.460943
9975.000000;1.460278
9974.000000;1.460510
9973.000000;1.461523
9972.000000;1.463300
9971.000000;1.465265
9970.000000;1.466629
9969.000000;1.467151
9968.000000;1.466874
9967.000000;1.465438
9966.000000;1.462491
9965.000000;1.458734
9964.000000;1.455762
9963.000000;1.454628
9962.000000;1.454928
9961.000000;1.455324
9960.000000;1.454700
9959.000000;1.452915
9958.000000;1.450793
9957.000000;1.449417
9956.000000;1.449239
9955.000000;1.449870
9954.000000;1.450696
9953.000000;1.451396
9952.000000;1.451740
9951.000000;1.451299
9950.000000;1.449894
9949.000000;1.448172
9948.000000;1.447216
9947.000000;1.447462
9946.000000;1.448281
9945.000000;1.448688
9944.000000;1.448238
9943.000000;1.447134
9942.000000;1.445729
9941.000000;1.444183
9940.000000;1.442542
9939.000000;1.440950
9938.000000;1.439656
9937.000000;1.438814
9936.000000;1.438397
9935.000000;1.438391
9934.000000;1.438860
9933.000000;1.439600
9932.000000;1.439910
9931.000000;1.439110
9930.000000;1.437294
9929.000000;1.435158
9928.000000;1.433136
9927.000000;1.431273
9926.000000;1.429951
9925.000000;1.429885
9924.000000;1.430996
9923.000000;1.431974
9922.000000;1.431605
9921.000000;1.430081
9920.000000;1.428403
9919.000000;1.427034
9918.000000;1.425896
9917.000000;1.425221
9916.000000;1.425376
9915.000000;1.425960
9914.000000;1.426013
9913.000000;1.425231
9912.000000;1.424209
9911.000000;1.423327
9910.000000;1.422223
9909.000000;1.420732
9908.000000;1.419561
9907.000000;1.419324
9906.000000;1.419417
9905.000000;1.418592
9904.000000;1.416479
9903.000000;1.413972
9902.000000;1.412168
9901.000000;1.411432
9900.000000;1.411491
9899.000000;1.411896
9898.000000;1.412173
9897.000000;1.411837
9896.000000;1.410600
9895.000000;1.408601
9894.000000;1.406434
9893.000000;1.404954
9892.000000;1.404880
9891.000000;1.406247
9890.000000;1.408079
9889.000000;1.408876
9888.000000;1.407848
9887.000000;1.405689
9886.000000;1.403918
9885.000000;1.403462
9884.000000;1.404078
9883.000000;1.405071
9882.000000;1.406089
9881.000000;1.406911
9880.000000;1.406911
9879.000000;1.405457
9878.000000;1.402943
9877.000000;1.400793
9876.000000;1.400044
9875.000000;1.400370
9874.000000;1.400816
9873.000000;1.400983
9872.000000;1.401045
9871.000000;1.400921
9870.000000;1.400132
9869.000000;1.398455
9868.000000;1.396271
9867.000000;1.394202
9866.000000;1.392693
9865.000000;1.391926
9864.000000;1.391773
9863.000000;1.391763
9862.000000;1.391530
9861.000000;1.391334
9860.000000;1.391707
9859.000000;1.392486
9858.000000;1.392621
9857.000000;1.391243
9856.000000;1.388648
9855.000000;1.385915
9854.000000;1.383766
9853.000000;1.382183
9852.000000;1.380991
9851.000000;1.380341
9850.000000;1.380467
9849.000000;1.381253
9848.000000;1.382219
9847.000000;1.382822
9846.000000;1.382660
9845.000000;1.381476
9844.000000;1.379290
9843.000000;1.376701
9842.000000;1.374744
9841.000000;1.374007
9840.000000;1.373910
9839.000000;1.373252
9838.000000;1.371605
9837.000000;1.369776
9836.000000;1.368705
9835.000000;1.368401
9834.000000;1.368318
9833.000000;1.368343
9832.000000;1.368799
9831.000000;1.369633
9830.000000;1.370226
9829.000000;1.370060
9828.000000;1.369126
9827.000000;1.367664
9826.000000;1.366040
9825.000000;1.364935
9824.000000;1.365003
9823.000000;1.365982
9822.000000;1.366566
9821.000000;1.365622
9820.000000;1.363383
9819.000000;1.361113
9818.000000;1.359799
9817.000000;1.359398
9816.000000;1.359190
9815.000000;1.358598
9814.000000;1.357718
9813.000000;1.357104
9812.000000;1.357038
9811.000000;1.357176
9810.000000;1.357109
9809.000000;1.357035
9808.000000;1.357347
9807.000000;1.357626
9806.000000;1.356774
9805.000000;1.354511
9804.000000;1.352057
9803.000000;1.350765
9802.000000;1.350567
9801.000000;1.350426
9800.000000;1.349914
9799.000000;1.349492
9798.000000;1.349354
9797.000000;1.348953
9796.000000;1.347929
9795.000000;1.346758
9794.000000;1.346067
9793.000000;1.345779
9792.000000;1.345354
9791.000000;1.344507
9790.000000;1.343269
9789.000000;1.341677
9788.000000;1.339926
9787.000000;1.338599
9786.000000;1.338204
9785.000000;1.338500
9784.000000;1.338775
9783.000000;1.338826
9782.000000;1.339124
9781.000000;1.339830
9780.000000;1.340184
9779.000000;1.339348
9778.000000;1.337590
9777.000000;1.336085
9776.000000;1.335564
9775.000000;1.335545
9774.000000;1.335023
9773.000000;1.333646
9772.000000;1.331959
9771.000000;1.330690
9770.000000;1.330057
9769.000000;1.329732
9768.000000;1.329301
9767.000000;1.328642
9766.000000;1.327889
9765.000000;1.327158
9764.000000;1.326396
9763.000000;1.325500
9762.000000;1.324535
9761.000000;1.323740
9760.000000;1.323326
9759.000000;1.323364
9758.000000;1.323816
9757.000000;1.324407
9756.000000;1.324469
9755.000000;1.323332
9754.000000;1.321186
9753.000000;1.319276
9752.000000;1.318739
9751.000000;1.319303
9750.000000;1.319525
9749.000000;1.318425
9748.000000;1.316526
9747.000000;1.314982
9746.000000;1.314104
9745.000000;1.313264
9744.000000;1.312038
9743.000000;1.310759
9742.000000;1.309846
9741.000000;1.309210
9740.000000;1.308679
9739.000000;1.308565
9738.000000;1.309245
9737.000000;1.310301
9736.000000;1.310674
9735.000000;1.309880
9734.000000;1.308630
9733.000000;1.307932
9732.000000;1.307903
9731.000000;1.307803
9730.000000;1.306996
9729.000000;1.305559
9728.000000;1.304010
9727.000000;1.302827
9726.000000;1.302313
9725.000000;1.302594
9724.000000;1.303491
9723.000000;1.304487
9722.000000;1.304920
9721.000000;1.304286
9720.000000;1.302515
9719.000000;1.300186
9718.000000;1.298387
9717.000000;1.297956
9716.000000;1.298685
9715.000000;1.299427
9714.000000;1.299132
9713.000000;1.297615
9712.000000;1.295363
9711.000000;1.292946
9710.000000;1.290802
9709.000000;1.289286
9708.000000;1.288537
9707.000000;1.288318
9706.000000;1.288206
9705.000000;1.287894
9704.000000;1.287227
9703.000000;1.286163
9702.000000;1.284960
9701.000000;1.284246
9700.000000;1.284544
9699.000000;1.285703
9698.000000;1.286960
9697.000000;1.287540
9696.000000;1.287022
9695.000000;1.285272
9694.000000;1.282468
9693.000000;1.279319
9692.000000;1.276947
9691.000000;1.276233
9690.000000;1.277148
9689.000000;1.278732
9688.000000;1.279774
9687.000000;1.279635
9686.000000;1.278574
9685.000000;1.277289
9684.000000;1.276130
9683.000000;1.274874
9682.000000;1.273296
9681.000000;1.271715
9680.000000;1.270747
9679.000000;1.270650
9678.000000;1.271192
9677.000000;1.272041
9676.000000;1.272947
9675.000000;1.273567
9674.000000;1.273471
9673.000000;1.272525
9672.000000;1.271075
9671.000000;1.269639
9670.000000;1.268559
9669.000000;1.267938
9668.000000;1.267647
9667.000000;1.267255
9666.000000;1.266210
9665.000000;1.264294
9664.000000;1.261897
9663.000000;1.259798
9662.000000;1.258672
9661.000000;1.258685
9660.000000;1.259423
9659.000000;1.260196
9658.000000;1.260550
9657.000000;1.260474
9656.000000;1.260097
9655.000000;1.259392
9654.000000;1.258413
9653.000000;1.257595
9652.000000;1.257376
9651.000000;1.257512
9650.000000;1.257199
9649.000000;1.255995
9648.000000;1.254281
9647.000000;1.252740
9646.000000;1.251801
9645.000000;1.251654
9644.000000;1.252232
9643.000000;1.252882
9642.000000;1.252586
9641.000000;1.251083
9640.000000;1.249435
9639.000000;1.248844
9638.000000;1.249074
9637.000000;1.248682
9636.000000;1.246917
9635.000000;1.244743
9634.000000;1.243672
9633.000000;1.244079
9632.000000;1.245003
9631.000000;1.245330
9630.000000;1.244766
9629.000000;1.243668
9628.000000;1.242341
9627.000000;1.240770
9626.000000;1.238912
9625.000000;1.237047
9624.000000;1.235649
9623.000000;1.234959
9622.000000;1.234781
9621.000000;1.234755
9620.000000;1.234767
9619.000000;1.234904
9618.000000;1.235023
9617.000000;1.234684
9616.000000;1.233728
9615.000000;1.232682
9614.000000;1.232251
9613.000000;1.232406
9612.000000;1.232324
9611.000000;1.231411
9610.000000;1.230103
9609.000000;1.229290
9608.000000;1.229100
9607.000000;1.228720
9606.000000;1.227597
9605.000000;1.226366
9604.000000;1.226164
9603.000000;1.227278
9602.000000;1.228903
9601.000000;1.230103
9600.000000;1.230500
9599.000000;1.229948
9598.000000;1.228176
9597.000000;1.225213
9596.000000;1.221821
9595.000000;1.219023
9594.000000;1.217307
9593.000000;1.216564
9592.000000;1.216596
9591.000000;1.217250
9590.000000;1.218122
9589.000000;1.218624
9588.000000;1.218443
9587.000000;1.217712
9586.000000;1.216706
9585.000000;1.215686
9584.000000;1.215002
9583.000000;1.214921
9582.000000;1.215166
9581.000000;1.214967
9580.000000;1.213849
9579.000000;1.212143
9578.000000;1.210521
9577.000000;1.209296
9576.000000;1.208459
9575.000000;1.208064
9574.000000;1.208081
9573.000000;1.208023
9572.000000;1.207288
9571.000000;1.205971
9570.000000;1.204916
9569.000000;1.204750
9568.000000;1.205176
9567.000000;1.205435
9566.000000;1.205203
9565.000000;1.204656
9564.000000;1.203874
9563.000000;1.202712
9562.000000;1.201337
9561.000000;1.200403
9560.000000;1.200361
9559.000000;1.200803
9558.000000;1.200820
9557.000000;1.199972
9556.000000;1.198653
9555.000000;1.197483
9554.000000;1.196650
9553.000000;1.195949
9552.000000;1.195220
9551.000000;1.194520
9550.000000;1.193991
9549.000000;1.193790
9548.000000;1.194130
9547.000000;1.195148
9546.000000;1.196590
9545.000000;1.197718
9544.000000;1.197720
9543.000000;1.196338
9542.000000;1.194162
9541.000000;1.192255
9540.000000;1.191352
9539.000000;1.191273
9538.000000;1.191136
9537.000000;1.190260
9536.000000;1.188833
9535.000000;1.187581
9534.000000;1.186871
9533.000000;1.186363
9532.000000;1.185605
9531.000000;1.184711
9530.000000;1.184166
9529.000000;1.184061
9528.000000;1.183869
9527.000000;1.183127
9526.000000;1.182110
9525.000000;1.181515
9524.000000;1.181577
9523.000000;1.181801
9522.000000;1.181630
9521.000000;1.181086
9520.000000;1.180524
9519.000000;1.179935
9518.000000;1.178878
9517.000000;1.177198
9516.000000;1.175545
9515.000000;1.174910
9514.000000;1.175664
9513.000000;1.177143
9512.000000;1.178150
9511.000000;1.177824
9510.000000;1.176192
9509.000000;1.174021
9508.000000;1.172141
9507.000000;1.170842
9506.000000;1.169908
9505.000000;1.169167
9504.000000;1.168737
9503.000000;1.168636
9502.000000;1.168466
9501.000000;1.167878
9500.000000;1.167180
9499.000000;1.166987
9498.000000;1.167278
9497.000000;1.167274
9496.000000;1.166451
9495.000000;1.165261
9494.000000;1.164521
9493.000000;1.164443
9492.000000;1.164636
9491.000000;1.164742
9490.000000;1.164610
9489.000000;1.164052
9488.000000;1.163004
9487.000000;1.161873
9486.000000;1.161192
9485.000000;1.160839
9484.000000;1.160123
9483.000000;1.158775
9482.000000;1.157329
9481.000000;1.156286
9480.000000;1.155420
9479.000000;1.154334
9478.000000;1.153315
9477.000000;1.153013
9476.000000;1.153405
9475.000000;1.153686
9474.000000;1.153294
9473.000000;1.152603
9472.000000;1.152337
9471.000000;1.152577
9470.000000;1.152695
9469.000000;1.152166
9468.000000;1.151202
9467.000000;1.150524
9466.000000;1.150548
9465.000000;1.150904
9464.000000;1.150805
9463.000000;1.149879
9462.000000;1.148513
9461.000000;1.147340
9460.000000;1.146534
9459.000000;1.145765
9458.000000;1.144758
9457.000000;1.143664
9456.000000;1.142857
9455.000000;1.142504
9454.000000;1.142414
9453.000000;1.142241
9452.000000;1.141824
9451.000000;1.141362
9450.000000;1.141224
9449.000000;1.141499
9448.000000;1.141825
9447.000000;1.141777
9446.000000;1.141349
9445.000000;1.140872
9444.000000;1.140520
9443.000000;1.140165
9442.000000;1.139790
9441.000000;1.139699
9440.000000;1.140034
9439.000000;1.140283
9438.000000;1.139614
9437.000000;1.137802
9436.000000;1.135606
9435.000000;1.134085
9434.000000;1.133605
9433.000000;1.133588
9432.000000;1.133199
9431.000000;1.132144
9430.000000;1.130756
9429.000000;1.129437
9428.000000;1.128304
9427.000000;1.127430
9426.000000;1.127119
9425.000000;1.127605
9424.000000;1.128538
9423.000000;1.129112
9422.000000;1.128809
9421.000000;1.127851
9420.000000;1.126853
9419.000000;1.126211
9418.000000;1.125907
9417.000000;1.125765
9416.000000;1.125706
9415.000000;1.125748
9414.000000;1.125855
9413.000000;1.125781
9412.000000;1.125114
9411.000000;1.123602
9410.000000;1.121475
9409.000000;1.119320
9408.000000;1.117644
9407.000000;1.116666
9406.000000;1.116458
9405.000000;1.116985
9404.000000;1.117952
9403.000000;1.118850
9402.000000;1.119324
9401.000000;1.119318
9400.000000;1.118812
9399.000000;1.117717
9398.000000;1.116229
9397.000000;1.114984
9396.000000;1.114522
9395.000000;1.114754
9394.000000;1.115182
9393.000000;1.115428
9392.000000;1.115279
9391.000000;1.114459
9390.000000;1.112871
9389.000000;1.110999
9388.000000;1.109615
9387.000000;1.109011
9386.000000;1.108861
9385.000000;1.108859
9384.000000;1.109056
9383.000000;1.109463
9382.000000;1.109768
9381.000000;1.109662
9380.000000;1.109114
9379.000000;1.108136
9378.000000;1.106652
9377.000000;1.104912
9376.000000;1.103692
9375.000000;1.103617
9374.000000;1.104426
9373.000000;1.105255
9372.000000;1.105546
9371.000000;1.105346
9370.000000;1.104807
9369.000000;1.103907
9368.000000;1.102717
9367.000000;1.101509
9366.000000;1.100421
9365.000000;1.099356
9364.000000;1.098349
9363.000000;1.097703
9362.000000;1.097541
9361.000000;1.097523
9360.000000;1.097294
9359.000000;1.096979
9358.000000;1.096910
9357.000000;1.096988
9356.000000;1.096684
9355.000000;1.095722
9354.000000;1.094491
9353.000000;1.093709
9352.000000;1.093785
9351.000000;1.094476
9350.000000;1.095041
9349.000000;1.094836
9348.000000;1.093974
9347.000000;1.093311
9346.000000;1.093519
9345.000000;1.094231
9344.000000;1.094389
9343.000000;1.093498
9342.000000;1.092154
9341.000000;1.091203
9340.000000;1.090786
9339.000000;1.090524
9338.000000;1.090305
9337.000000;1.090366
9336.000000;1.090671
9335.000000;1.090669
9334.000000;1.089876
9333.000000;1.088450
9332.000000;1.087056
9331.000000;1.086283
9330.000000;1.086247
9329.000000;1.086545
9328.000000;1.086484
9327.000000;1.085539
9326.000000;1.083821
9325.000000;1.082096
9324.000000;1.081253
9323.000000;1.081692
9322.000000;1.083151
9321.000000;1.084927
9320.000000;1.086195
9319.000000;1.086358
9318.000000;1.085385
9317.000000;1.083868
9316.000000;1.082550
9315.000000;1.081641
9314.000000;1.080632
9313.000000;1.078927
9312.000000;1.076643
9311.000000;1.074637
9310.000000;1.073698
9309.000000;1.073865
9308.000000;1.074593
9307.000000;1.075388
9306.000000;1.076021
9305.000000;1.076267
9304.000000;1.075877
9303.000000;1.074970
9302.000000;1.074096
9301.000000;1.073675
9300.000000;1.073590
9299.000000;1.073534
9298.000000;1.073493
9297.000000;1.073549
9296.000000;1.073436
9295.000000;1.072740
9294.000000;1.071539
9293.000000;1.070402
9292.000000;1.069706
9291.000000;1.069309
9290.000000;1.068995
9289.000000;1.068853
9288.000000;1.068999
9287.000000;1.069234
9286.000000;1.069300
9285.000000;1.069262
9284.000000;1.069331
9283.000000;1.069455
9282.000000;1.069325
9281.000000;1.068758
9280.000000;1.067851
9279.000000;1.066782
9278.000000;1.065673
9277.000000;1.064641
9276.000000;1.063800
9275.000000;1.063211
9274.000000;1.062967
9273.000000;1.063242
9272.000000;1.064099
9271.000000;1.065214
9270.000000;1.065970
9269.000000;1.065893
9268.000000;1.065003
9267.000000;1.063763
9266.000000;1.062758
9265.000000;1.062326
9264.000000;1.062332
9263.000000;1.062270
9262.000000;1.061692
9261.000000;1.060604
9260.000000;1.059431
9259.000000;1.058646
9258.000000;1.058450
9257.000000;1.058665
9256.000000;1.058827
9255.000000;1.058480
9254.000000;1.057554
9253.000000;1.056441
9252.000000;1.055608
9251.000000;1.055178
9250.000000;1.054987
9249.000000;1.054977
9248.000000;1.055301
9247.000000;1.055987
9246.000000;1.056668
9245.000000;1.056830
9244.000000;1.056344
9243.000000;1.055604
9242.000000;1.055053
9241.000000;1.054614
9240.000000;1.053756
9239.000000;1.052211
9238.000000;1.050477
9237.000000;1.049406
9236.000000;1.049313
9235.000000;1.049720
9234.000000;1.050024
9233.000000;1.050152
9232.000000;1.050380
9231.000000;1.050683
9230.000000;1.050573
9229.000000;1.049615
9228.000000;1.047922
9227.000000;1.046103
9226.000000;1.044815
9225.000000;1.044338
9224.000000;1.044460
9223.000000;1.044741
9222.000000;1.044945
9221.000000;1.045160
9220.000000;1.045415
9219.000000;1.045364
9218.000000;1.044615
9217.000000;1.043367
9216.000000;1.042392
9215.000000;1.042216
9214.000000;1.042529
9213.000000;1.042610
9212.000000;1.042212
9211.000000;1.041778
9210.000000;1.041769
9209.000000;1.042031
9208.000000;1.041976
9207.000000;1.041271
9206.000000;1.040177
9205.000000;1.039249
9204.000000;1.038863
9203.000000;1.039033
9202.000000;1.039519
9201.000000;1.039997
9200.000000;1.040205
9199.000000;1.040052
9198.000000;1.039636
9197.000000;1.039097
9196.000000;1.038465
9195.000000;1.037686
9194.000000;1.036776
9193.000000;1.035899
9192.000000;1.035283
9191.000000;1.035065
9190.000000;1.035146
9189.000000;1.035188
9188.000000;1.034903
9187.000000;1.034383
9186.000000;1.034029
9185.000000;1.034013
9184.000000;1.033960
9183.000000;1.033389
9182.000000;1.032396
9181.000000;1.031633
9180.000000;1.031583
9179.000000;1.032103
9178.000000;1.032720
9177.000000;1.033117
9176.000000;1.033197
9175.000000;1.032918
9174.000000;1.032300
9173.000000;1.031524
9172.000000;1.030838
9171.000000;1.030393
9170.000000;1.030184
9169.000000;1.030042
9168.000000;1.029664
9167.000000;1.028878
9166.000000;1.027998
9165.000000;1.027636
9164.000000;1.027956
9163.000000;1.028312
9162.000000;1.027954
9161.000000;1.026998
9160.000000;1.026310
9159.000000;1.026424
9158.000000;1.026916
9157.000000;1.026985
9156.000000;1.026368
9155.000000;1.025442
9154.000000;1.024630
9153.000000;1.024018
9152.000000;1.023543
9151.000000;1.023255
9150.000000;1.023222
9149.000000;1.023285
9148.000000;1.023130
9147.000000;1.022651
9146.000000;1.022087
9145.000000;1.021703
9144.000000;1.021450
9143.000000;1.021113
9142.000000;1.020763
9141.000000;1.020797
9140.000000;1.021447
9139.000000;1.022391
9138.000000;1.022997
9137.000000;1.022878
9136.000000;1.022122
9135.000000;1.021091
9134.000000;1.020107
9133.000000;1.019281
9132.000000;1.018529
9131.000000;1.017799
9130.000000;1.017289
9129.000000;1.017269
9128.000000;1.017555
9127.000000;1.017388
9126.000000;1.016186
9125.000000;1.014407
9124.000000;1.013301
9123.000000;1.013621
9122.000000;1.014810
9121.000000;1.015665
9120.000000;1.015662
9119.000000;1.015350
9118.000000;1.015491
9117.000000;1.016133
9116.000000;1.016665
9115.000000;1.016549
9114.000000;1.015748
9113.000000;1.014558
9112.000000;1.013351
9111.000000;1.012501
9110.000000;1.012249
9109.000000;1.012437
9108.000000;1.012544
9107.000000;1.012227
9106.000000;1.011741
9105.000000;1.011599
9104.000000;1.011860
9103.000000;1.011977
9102.000000;1.011413
9101.000000;1.010291
9100.000000;1.009369
9099.000000;1.009403
9098.000000;1.010462
9097.000000;1.011755
9096.000000;1.012251
9095.000000;1.011665
9094.000000;1.010742
9093.000000;1.010314
9092.000000;1.010284
9091.000000;1.009894
9090.000000;1.008843
9089.000000;1.007607
9088.000000;1.006601
9087.000000;1.005662
9086.000000;1.004665
9085.000000;1.004082
9084.000000;1.004367
9083.000000;1.005129
9082.000000;1.005526
9081.000000;1.005393
9080.000000;1.005371
9079.000000;1.005837
9078.000000;1.006263
9077.000000;1.005862
9076.000000;1.004616
9075.000000;1.003331
9074.000000;1.002771
9073.000000;1.002960
9072.000000;1.003322
9071.000000;1.003377
9070.000000;1.003242
9069.000000;1.003391
9068.000000;1.004002
9067.000000;1.004718
9066.000000;1.005120
9065.000000;1.005199
9064.000000;1.005140
9063.000000;1.004817
9062.000000;1.003906
9061.000000;1.002505
9060.000000;1.001238
9059.000000;1.000602
9058.000000;1.000480
9057.000000;1.000429
9056.000000;1.000222
9055.000000;0.999897
9054.000000;0.999428
9053.000000;0.998675
