Criado como novo conjunto de dados;"1909daniel.spp","-4280024.8 Secs"
cm-1;Abs
10000.000000;1.395196
9999.000000;1.395169
9998.000000;1.395082
9997.000000;1.394699
9996.000000;1.394008
9995.000000;1.393386
9994.000000;1.393120
9993.000000;1.393013
9992.000000;1.392603
9991.000000;1.391625
9990.000000;1.390128
9989.000000;1.388404
9988.000000;1.387003
9987.000000;1.386533
9986.000000;1.387022
9985.000000;1.387562
9984.000000;1.387043
9983.000000;1.385342
9982.000000;1.383459
9981.000000;1.382386
9980.000000;1.382182
9979.000000;1.382216
9978.000000;1.381925
9977.000000;1.381126
9976.000000;1.379854
9975.000000;1.378224
9974.000000;1.376411
9973.000000;1.374594
9972.000000;1.372942
9971.000000;1.371682
9970.000000;1.371020
9969.000000;1.370916
9968.000000;1.371027
9967.000000;1.370955
9966.000000;1.370495
9965.000000;1.369678
9964.000000;1.368795
9963.000000;1.368401
9962.000000;1.368989
9961.000000;1.370437
9960.000000;1.371891
9959.000000;1.372340
9958.000000;1.371350
9957.000000;1.369336
9956.000000;1.367272
9955.000000;1.366054
9954.000000;1.365834
9953.000000;1.365806
9952.000000;1.364881
9951.000000;1.362795
9950.000000;1.360406
9949.000000;1.358743
9948.000000;1.357948
9947.000000;1.357387
9946.000000;1.356663
9945.000000;1.356172
9944.000000;1.356496
9943.000000;1.357430
9942.000000;1.357843
9941.000000;1.356723
9940.000000;1.354358
9939.000000;1.352184
9938.000000;1.351413
9937.000000;1.351978
9936.000000;1.352851
9935.000000;1.353148
9934.000000;1.352646
9933.000000;1.351404
9932.000000;1.349427
9931.000000;1.346916
9930.000000;1.344569
9929.000000;1.343194
9928.000000;1.342979
9927.000000;1.343307
9926.000000;1.343272
9925.000000;1.342385
9924.000000;1.340907
9923.000000;1.339571
9922.000000;1.338940
9921.000000;1.338976
9920.000000;1.339179
9919.000000;1.339112
9918.000000;1.338755
9917.000000;1.338317
9916.000000;1.337786
9915.000000;1.336814
9914.000000;1.335202
9913.000000;1.333465
9912.000000;1.332590
9911.000000;1.333009
9910.000000;1.333989
9909.000000;1.334384
9908.000000;1.333872
9907.000000;1.332953
9906.000000;1.331829
9905.000000;1.330014
9904.000000;1.327298
9903.000000;1.324449
9902.000000;1.322465
9901.000000;1.321629
9900.000000;1.321722
9899.000000;1.322593
9898.000000;1.323883
9897.000000;1.324647
9896.000000;1.324106
9895.000000;1.322650
9894.000000;1.321310
9893.000000;1.320349
9892.000000;1.319194
9891.000000;1.317707
9890.000000;1.316616
9889.000000;1.316387
9888.000000;1.316483
9887.000000;1.316157
9886.000000;1.315419
9885.000000;1.314786
9884.000000;1.314532
9883.000000;1.314620
9882.000000;1.315003
9881.000000;1.315480
9880.000000;1.315423
9879.000000;1.314108
9878.000000;1.311371
9877.000000;1.307807
9876.000000;1.304488
9875.000000;1.302466
9874.000000;1.302180
9873.000000;1.303062
9872.000000;1.303949
9871.000000;1.304102
9870.000000;1.303686
9869.000000;1.303174
9868.000000;1.302662
9867.000000;1.302000
9866.000000;1.301206
9865.000000;1.300390
9864.000000;1.299500
9863.000000;1.298481
9862.000000;1.297525
9861.000000;1.296836
9860.000000;1.296268
9859.000000;1.295499
9858.000000;1.294484
9857.000000;1.293450
9856.000000;1.292484
9855.000000;1.291390
9854.000000;1.290009
9853.000000;1.288517
9852.000000;1.287330
9851.000000;1.286696
9850.000000;1.286390
9849.000000;1.285858
9848.000000;1.284791
9847.000000;1.283535
9846.000000;1.282819
9845.000000;1.283074
9844.000000;1.284076
9843.000000;1.285124
9842.000000;1.285419
9841.000000;1.284418
9840.000000;1.282245
9839.000000;1.279804
9838.000000;1.278168
9837.000000;1.277683
9836.000000;1.277796
9835.000000;1.277778
9834.000000;1.277418
9833.000000;1.276944
9832.000000;1.276571
9831.000000;1.276351
9830.000000;1.276267
9829.000000;1.276213
9828.000000;1.275924
9827.000000;1.275085
9826.000000;1.273624
9825.000000;1.271933
9824.000000;1.270747
9823.000000;1.270569
9822.000000;1.271027
9821.000000;1.270972
9820.000000;1.269584
9819.000000;1.267311
9818.000000;1.265402
9817.000000;1.264596
9816.000000;1.264632
9815.000000;1.264942
9814.000000;1.265295
9813.000000;1.265655
9812.000000;1.265897
9811.000000;1.265926
9810.000000;1.265694
9809.000000;1.264857
9808.000000;1.262831
9807.000000;1.259616
9806.000000;1.256348
9805.000000;1.254589
9804.000000;1.254991
9803.000000;1.256719
9802.000000;1.258136
9801.000000;1.258088
9800.000000;1.256781
9799.000000;1.255498
9798.000000;1.255241
9797.000000;1.255594
9796.000000;1.255156
9795.000000;1.253235
9794.000000;1.250723
9793.000000;1.249027
9792.000000;1.248489
9791.000000;1.248218
9790.000000;1.247251
9789.000000;1.245527
9788.000000;1.243794
9787.000000;1.242893
9786.000000;1.243083
9785.000000;1.243807
9784.000000;1.244091
9783.000000;1.243356
9782.000000;1.241905
9781.000000;1.240549
9780.000000;1.239834
9779.000000;1.239680
9778.000000;1.239609
9777.000000;1.239128
9776.000000;1.238009
9775.000000;1.236385
9774.000000;1.234674
9773.000000;1.233396
9772.000000;1.232976
9771.000000;1.233519
9770.000000;1.234551
9769.000000;1.235079
9768.000000;1.234288
9767.000000;1.232354
9766.000000;1.230332
9765.000000;1.229099
9764.000000;1.228609
9763.000000;1.228245
9762.000000;1.227669
9761.000000;1.227077
9760.000000;1.226758
9759.000000;1.226641
9758.000000;1.226304
9757.000000;1.225344
9756.000000;1.223742
9755.000000;1.221916
9754.000000;1.220390
9753.000000;1.219485
9752.000000;1.219312
9751.000000;1.219840
9750.000000;1.220697
9749.000000;1.221061
9748.000000;1.220220
9747.000000;1.218410
9746.000000;1.216756
9745.000000;1.216184
9744.000000;1.216565
9743.000000;1.216949
9742.000000;1.216407
9741.000000;1.214650
9740.000000;1.212210
9739.000000;1.210214
9738.000000;1.209696
9737.000000;1.210749
9736.000000;1.212336
9735.000000;1.213113
9734.000000;1.212506
9733.000000;1.211016
9732.000000;1.209629
9731.000000;1.208983
9730.000000;1.208904
9729.000000;1.208613
9728.000000;1.207542
9727.000000;1.205969
9726.000000;1.204628
9725.000000;1.203752
9724.000000;1.202883
9723.000000;1.201641
9722.000000;1.200215
9721.000000;1.198957
9720.000000;1.197931
9719.000000;1.197109
9718.000000;1.196646
9717.000000;1.196617
9716.000000;1.196781
9715.000000;1.196929
9714.000000;1.197195
9713.000000;1.197631
9712.000000;1.197757
9711.000000;1.196956
9710.000000;1.195194
9709.000000;1.193023
9708.000000;1.191071
9707.000000;1.189849
9706.000000;1.189703
9705.000000;1.190400
9704.000000;1.190886
9703.000000;1.190110
9702.000000;1.188235
9701.000000;1.186494
9700.000000;1.185746
9699.000000;1.185625
9698.000000;1.185247
9697.000000;1.184325
9696.000000;1.183274
9695.000000;1.182489
9694.000000;1.181913
9693.000000;1.181258
9692.000000;1.180339
9691.000000;1.179167
9690.000000;1.177901
9689.000000;1.176842
9688.000000;1.176356
9687.000000;1.176578
9686.000000;1.177109
9685.000000;1.177145
9684.000000;1.176166
9683.000000;1.174430
9682.000000;1.172594
9681.000000;1.170917
9680.000000;1.169183
9679.000000;1.167430
9678.000000;1.166263
9677.000000;1.166164
9676.000000;1.166772
9675.000000;1.167201
9674.000000;1.166987
9673.000000;1.166408
9672.000000;1.165940
9671.000000;1.165718
9670.000000;1.165514
9669.000000;1.164945
9668.000000;1.163782
9667.000000;1.162275
9666.000000;1.161099
9665.000000;1.160676
9664.000000;1.160621
9663.000000;1.160155
9662.000000;1.159032
9661.000000;1.157738
9660.000000;1.156793
9659.000000;1.156251
9658.000000;1.155958
9657.000000;1.155923
9656.000000;1.156174
9655.000000;1.156490
9654.000000;1.156511
9653.000000;1.156069
9652.000000;1.155299
9651.000000;1.154467
9650.000000;1.153764
9649.000000;1.153182
9648.000000;1.152582
9647.000000;1.151852
9646.000000;1.150959
9645.000000;1.149802
9644.000000;1.148241
9643.000000;1.146410
9642.000000;1.144857
9641.000000;1.144075
9640.000000;1.143938
9639.000000;1.143885
9638.000000;1.143656
9637.000000;1.143479
9636.000000;1.143510
9635.000000;1.143475
9634.000000;1.143037
9633.000000;1.142204
9632.000000;1.141211
9631.000000;1.140258
9630.000000;1.139533
9629.000000;1.139211
9628.000000;1.139206
9627.000000;1.139176
9626.000000;1.138994
9625.000000;1.138877
9624.000000;1.138793
9623.000000;1.138160
9622.000000;1.136611
9621.000000;1.134821
9620.000000;1.133950
9619.000000;1.134258
9618.000000;1.134773
9617.000000;1.134423
9616.000000;1.133104
9615.000000;1.131472
9614.000000;1.130076
9613.000000;1.129080
9612.000000;1.128503
9611.000000;1.128205
9610.000000;1.127731
9609.000000;1.126596
9608.000000;1.124855
9607.000000;1.123126
9606.000000;1.121956
9605.000000;1.121368
9604.000000;1.121150
9603.000000;1.121308
9602.000000;1.121926
9601.000000;1.122699
9600.000000;1.122986
9599.000000;1.122417
9598.000000;1.121201
9597.000000;1.119699
9596.000000;1.117946
9595.000000;1.115899
9594.000000;1.113975
9593.000000;1.112894
9592.000000;1.112892
9591.000000;1.113356
9590.000000;1.113423
9589.000000;1.112766
9588.000000;1.111639
9587.000000;1.110400
9586.000000;1.109324
9585.000000;1.108704
9584.000000;1.108696
9583.000000;1.108972
9582.000000;1.108863
9581.000000;1.108054
9580.000000;1.106924
9579.000000;1.106022
9578.000000;1.105419
9577.000000;1.104792
9576.000000;1.103973
9575.000000;1.103107
9574.000000;1.102303
9573.000000;1.101441
9572.000000;1.100420
9571.000000;1.099401
9570.000000;1.098688
9569.000000;1.098445
9568.000000;1.098571
9567.000000;1.098784
9566.000000;1.098750
9565.000000;1.098288
9564.000000;1.097539
9563.000000;1.096915
9562.000000;1.096768
9561.000000;1.097046
9560.000000;1.097271
9559.000000;1.096876
9558.000000;1.095590
9557.000000;1.093588
9556.000000;1.091352
9555.000000;1.089385
9554.000000;1.088017
9553.000000;1.087363
9552.000000;1.087352
9551.000000;1.087706
9550.000000;1.087992
9549.000000;1.087886
9548.000000;1.087469
9547.000000;1.087167
9546.000000;1.087248
9545.000000;1.087392
9544.000000;1.086860
9543.000000;1.085236
9542.000000;1.083006
9541.000000;1.081303
9540.000000;1.080975
9539.000000;1.081857
9538.000000;1.082942
9537.000000;1.083259
9536.000000;1.082549
9535.000000;1.081159
9534.000000;1.079520
9533.000000;1.077864
9532.000000;1.076293
9531.000000;1.074888
9530.000000;1.073740
9529.000000;1.072991
9528.000000;1.072789
9527.000000;1.073053
9526.000000;1.073302
9525.000000;1.072953
9524.000000;1.071899
9523.000000;1.070643
9522.000000;1.069746
9521.000000;1.069280
9520.000000;1.068936
9519.000000;1.068523
9518.000000;1.068169
9517.000000;1.068082
9516.000000;1.068319
9515.000000;1.068817
9514.000000;1.069467
9513.000000;1.070056
9512.000000;1.070214
9511.000000;1.069562
9510.000000;1.067980
9509.000000;1.065690
9508.000000;1.063107
9507.000000;1.060667
9506.000000;1.058786
9505.000000;1.057807
9504.000000;1.057764
9503.000000;1.058205
9502.000000;1.058460
9501.000000;1.058248
9500.000000;1.057905
9499.000000;1.057897
9498.000000;1.058219
9497.000000;1.058467
9496.000000;1.058357
9495.000000;1.057901
9494.000000;1.057139
9493.000000;1.056039
9492.000000;1.054716
9491.000000;1.053499
9490.000000;1.052617
9489.000000;1.051961
9488.000000;1.051286
9487.000000;1.050505
9486.000000;1.049672
9485.000000;1.048863
9484.000000;1.048252
9483.000000;1.048124
9482.000000;1.048557
9481.000000;1.049104
9480.000000;1.049047
9479.000000;1.048047
9478.000000;1.046428
9477.000000;1.044783
9476.000000;1.043487
9475.000000;1.042634
9474.000000;1.042247
9473.000000;1.042310
9472.000000;1.042606
9471.000000;1.042686
9470.000000;1.042169
9469.000000;1.041096
9468.000000;1.039902
9467.000000;1.039006
9466.000000;1.038511
9465.000000;1.038277
9464.000000;1.038130
9463.000000;1.037915
9462.000000;1.037494
9461.000000;1.036886
9460.000000;1.036352
9459.000000;1.036120
9458.000000;1.036009
9457.000000;1.035593
9456.000000;1.034786
9455.000000;1.033999
9454.000000;1.033580
9453.000000;1.033340
9452.000000;1.032814
9451.000000;1.031857
9450.000000;1.030745
9449.000000;1.029774
9448.000000;1.028972
9447.000000;1.028239
9446.000000;1.027592
9445.000000;1.027134
9444.000000;1.026831
9443.000000;1.026446
9442.000000;1.025800
9441.000000;1.025034
9440.000000;1.024445
9439.000000;1.024080
9438.000000;1.023690
9437.000000;1.023198
9436.000000;1.022929
9435.000000;1.023101
9434.000000;1.023314
9433.000000;1.022964
9432.000000;1.022025
9431.000000;1.020973
9430.000000;1.020005
9429.000000;1.018891
9428.000000;1.017704
9427.000000;1.017082
9426.000000;1.017397
9425.000000;1.018089
9424.000000;1.018268
9423.000000;1.017672
9422.000000;1.016635
9421.000000;1.015427
9420.000000;1.014136
9419.000000;1.013019
9418.000000;1.012389
9417.000000;1.012149
9416.000000;1.011889
9415.000000;1.011495
9414.000000;1.011273
9413.000000;1.011364
9412.000000;1.011374
9411.000000;1.010801
9410.000000;1.009665
9409.000000;1.008555
9408.000000;1.008079
9407.000000;1.008286
9406.000000;1.008565
9405.000000;1.008170
9404.000000;1.006946
9403.000000;1.005470
9402.000000;1.004356
9401.000000;1.003615
9400.000000;1.002832
9399.000000;1.001814
9398.000000;1.000793
9397.000000;1.000103
9396.000000;0.999917
9395.000000;1.000201
9394.000000;1.000627
9393.000000;1.000617
9392.000000;0.999811
9391.000000;0.998509
9390.000000;0.997358
9389.000000;0.996660
9388.000000;0.996266
9387.000000;0.996032
9386.000000;0.995998
9385.000000;0.996078
9384.000000;0.996023
9383.000000;0.995825
9382.000000;0.995783
9381.000000;0.995982
9380.000000;0.995994
9379.000000;0.995349
9378.000000;0.994061
9377.000000;0.992531
9376.000000;0.991173
9375.000000;0.990313
9374.000000;0.990193
9373.000000;0.990762
9372.000000;0.991591
9371.000000;0.992197
9370.000000;0.992353
9369.000000;0.991958
9368.000000;0.990815
9367.000000;0.988848
9366.000000;0.986464
9365.000000;0.984399
9364.000000;0.983164
9363.000000;0.982737
9362.000000;0.982760
9361.000000;0.982881
9360.000000;0.982950
9359.000000;0.983021
9358.000000;0.983198
9357.000000;0.983438
9356.000000;0.983519
9355.000000;0.983245
9354.000000;0.982608
9353.000000;0.981723
9352.000000;0.980707
9351.000000;0.979704
9350.000000;0.978886
9349.000000;0.978270
9348.000000;0.977604
9347.000000;0.976660
9346.000000;0.975647
9345.000000;0.975152
9344.000000;0.975534
9343.000000;0.976426
9342.000000;0.976932
9341.000000;0.976416
9340.000000;0.975093
9339.000000;0.973851
9338.000000;0.973473
9337.000000;0.974012
9336.000000;0.974844
9335.000000;0.975213
9334.000000;0.974701
9333.000000;0.973350
9332.000000;0.971580
9331.000000;0.970012
9330.000000;0.969134
9329.000000;0.968928
9328.000000;0.968903
9327.000000;0.968607
9326.000000;0.968068
9325.000000;0.967610
9324.000000;0.967334
9323.000000;0.966995
9322.000000;0.966462
9321.000000;0.966065
9320.000000;0.966217
9319.000000;0.966725
9318.000000;0.966792
9317.000000;0.965895
9316.000000;0.964499
9315.000000;0.963568
9314.000000;0.963435
9313.000000;0.963479
9312.000000;0.963005
9311.000000;0.962085
9310.000000;0.961255
9309.000000;0.960666
9308.000000;0.959983
9307.000000;0.959039
9306.000000;0.958153
9305.000000;0.957724
9304.000000;0.957807
9303.000000;0.958178
9302.000000;0.958539
9301.000000;0.958560
9300.000000;0.957995
9299.000000;0.956945
9298.000000;0.955840
9297.000000;0.954992
9296.000000;0.954306
9295.000000;0.953583
9294.000000;0.952960
9293.000000;0.952789
9292.000000;0.953128
9291.000000;0.953524
9290.000000;0.953384
9289.000000;0.952530
9288.000000;0.951398
9287.000000;0.950704
9286.000000;0.950843
9285.000000;0.951554
9284.000000;0.952173
9283.000000;0.952191
9282.000000;0.951547
9281.000000;0.950506
9280.000000;0.949480
9279.000000;0.948872
9278.000000;0.948759
9277.000000;0.948633
9276.000000;0.947792
9275.000000;0.946175
9274.000000;0.944586
9273.000000;0.943839
9272.000000;0.943868
9271.000000;0.943937
9270.000000;0.943587
9269.000000;0.943031
9268.000000;0.942615
9267.000000;0.942295
9266.000000;0.941793
9265.000000;0.941052
9264.000000;0.940333
9263.000000;0.939929
9262.000000;0.939917
9261.000000;0.940107
9260.000000;0.940155
9259.000000;0.939766
9258.000000;0.938891
9257.000000;0.937756
9256.000000;0.936699
9255.000000;0.935951
9254.000000;0.935556
9253.000000;0.935411
9252.000000;0.935396
9251.000000;0.935466
9250.000000;0.935639
9249.000000;0.935864
9248.000000;0.935947
9247.000000;0.935674
9246.000000;0.935008
9245.000000;0.934123
9244.000000;0.933292
9243.000000;0.932744
9242.000000;0.932526
9241.000000;0.932406
9240.000000;0.931990
9239.000000;0.931107
9238.000000;0.930110
9237.000000;0.929618
9236.000000;0.929864
9235.000000;0.930384
9234.000000;0.930449
9233.000000;0.929788
9232.000000;0.928815
9231.000000;0.928172
9230.000000;0.928098
9229.000000;0.928282
9228.000000;0.928220
9227.000000;0.927649
9226.000000;0.926668
9225.000000;0.925564
9224.000000;0.924637
9223.000000;0.924129
9222.000000;0.924092
9221.000000;0.924234
9220.000000;0.924054
9219.000000;0.923312
9218.000000;0.922342
9217.000000;0.921704
9216.000000;0.921529
9215.000000;0.921369
9214.000000;0.920745
9213.000000;0.919706
9212.000000;0.918749
9211.000000;0.918326
9210.000000;0.918539
9209.000000;0.919199
9208.000000;0.919944
9207.000000;0.920340
9206.000000;0.920071
9205.000000;0.919183
9204.000000;0.918096
9203.000000;0.917282
9202.000000;0.916918
9201.000000;0.916846
9200.000000;0.916845
9199.000000;0.916898
9198.000000;0.917145
9197.000000;0.917587
9196.000000;0.917895
9195.000000;0.917624
9194.000000;0.916685
9193.000000;0.915483
9192.000000;0.914530
9191.000000;0.913966
9190.000000;0.913562
9189.000000;0.913122
9188.000000;0.912689
9187.000000;0.912375
9186.000000;0.912196
9185.000000;0.912178
9184.000000;0.912399
9183.000000;0.912775
9182.000000;0.912921
9181.000000;0.912467
9180.000000;0.911494
9179.000000;0.910470
9178.000000;0.909725
9177.000000;0.909130
9176.000000;0.908373
9175.000000;0.907421
9174.000000;0.906609
9173.000000;0.906324
9172.000000;0.906671
9171.000000;0.907421
9170.000000;0.908169
9169.000000;0.908526
9168.000000;0.908269
9167.000000;0.907441
9166.000000;0.906348
9165.000000;0.905377
9164.000000;0.904715
9163.000000;0.904225
9162.000000;0.903651
9161.000000;0.902931
9160.000000;0.902225
9159.000000;0.901684
9158.000000;0.901342
9157.000000;0.901264
9156.000000;0.901557
9155.000000;0.902101
9154.000000;0.902432
9153.000000;0.902142
9152.000000;0.901337
9151.000000;0.900487
9150.000000;0.899879
9149.000000;0.899442
9148.000000;0.899049
9147.000000;0.898684
9146.000000;0.898294
9145.000000;0.897758
9144.000000;0.897124
9143.000000;0.896633
9142.000000;0.896345
9141.000000;0.896008
9140.000000;0.895512
9139.000000;0.895254
9138.000000;0.895725
9137.000000;0.896799
9136.000000;0.897701
9135.000000;0.897731
9134.000000;0.896862
9133.000000;0.895629
9132.000000;0.894648
9131.000000;0.894303
9130.000000;0.894647
9129.000000;0.895397
9128.000000;0.896024
9127.000000;0.896010
9126.000000;0.895155
9125.000000;0.893727
9124.000000;0.892314
9123.000000;0.891421
9122.000000;0.891106
9121.000000;0.890994
9120.000000;0.890717
9119.000000;0.890299
9118.000000;0.890053
9117.000000;0.890138
9116.000000;0.890362
9115.000000;0.890440
9114.000000;0.890317
9113.000000;0.890139
9112.000000;0.889958
9111.000000;0.889589
9110.000000;0.888837
9109.000000;0.887821
9108.000000;0.886993
9107.000000;0.886758
9106.000000;0.887093
9105.000000;0.887599
9104.000000;0.887905
9103.000000;0.887978
9102.000000;0.887990
9101.000000;0.887978
9100.000000;0.887694
9099.000000;0.886800
9098.000000;0.885241
9097.000000;0.883441
9096.000000;0.882103
9095.000000;0.881656
9094.000000;0.881867
9093.000000;0.882082
9092.000000;0.881908
9091.000000;0.881543
9090.000000;0.881388
9089.000000;0.881510
9088.000000;0.881627
9087.000000;0.881513
9086.000000;0.881226
9085.000000;0.880952
9084.000000;0.880777
9083.000000;0.880618
9082.000000;0.880294
9081.000000;0.879695
9080.000000;0.878944
9079.000000;0.878341
9078.000000;0.878053
9077.000000;0.877908
9076.000000;0.877615
9075.000000;0.877127
9074.000000;0.876666
9073.000000;0.876435
9072.000000;0.876481
9071.000000;0.876843
9070.000000;0.877597
9069.000000;0.878646
9068.000000;0.879578
9067.000000;0.879861
9066.000000;0.879221
9065.000000;0.877824
9064.000000;0.876151
9063.000000;0.874715
9062.000000;0.873804
9061.000000;0.873412
9060.000000;0.873367
9059.000000;0.873506
9058.000000;0.873707
9057.000000;0.873859
9056.000000;0.873912
9055.000000;0.873917
9054.000000;0.873915
9053.000000;0.873794
