Criado como novo conjunto de dados;"1909daniel.spp","-4212341.0 Secs"
cm-1;Abs
10000.000000;1.175145
9999.000000;1.173571
9998.000000;1.171973
9997.000000;1.170396
9996.000000;1.169296
9995.000000;1.169310
9994.000000;1.170186
9993.000000;1.170682
9992.000000;1.170049
9991.000000;1.168940
9990.000000;1.168288
9989.000000;1.167902
9988.000000;1.166937
9987.000000;1.165324
9986.000000;1.163890
9985.000000;1.163200
9984.000000;1.163013
9983.000000;1.162900
9982.000000;1.162792
9981.000000;1.162745
9980.000000;1.162585
9979.000000;1.162015
9978.000000;1.160938
9977.000000;1.159605
9976.000000;1.158540
9975.000000;1.158181
9974.000000;1.158419
9973.000000;1.158583
9972.000000;1.158074
9971.000000;1.156969
9970.000000;1.155866
9969.000000;1.155269
9968.000000;1.155162
9967.000000;1.155024
9966.000000;1.154218
9965.000000;1.152609
9964.000000;1.150861
9963.000000;1.149807
9962.000000;1.149470
9961.000000;1.149089
9960.000000;1.148211
9959.000000;1.147308
9958.000000;1.147012
9957.000000;1.147160
9956.000000;1.146972
9955.000000;1.145963
9954.000000;1.144375
9953.000000;1.142880
9952.000000;1.142050
9951.000000;1.141877
9950.000000;1.141620
9949.000000;1.140451
9948.000000;1.138458
9947.000000;1.136695
9946.000000;1.136010
9945.000000;1.136217
9944.000000;1.136614
9943.000000;1.136868
9942.000000;1.136996
9941.000000;1.136900
9940.000000;1.136441
9939.000000;1.135749
9938.000000;1.135018
9937.000000;1.134216
9936.000000;1.133344
9935.000000;1.132686
9934.000000;1.132365
9933.000000;1.131889
9932.000000;1.130674
9931.000000;1.128881
9930.000000;1.127311
9929.000000;1.126524
9928.000000;1.126412
9927.000000;1.126484
9926.000000;1.126241
9925.000000;1.125419
9924.000000;1.124261
9923.000000;1.123466
9922.000000;1.123509
9921.000000;1.124032
9920.000000;1.124106
9919.000000;1.123033
9918.000000;1.120788
9917.000000;1.117985
9916.000000;1.115598
9915.000000;1.114390
9914.000000;1.114230
9913.000000;1.114169
9912.000000;1.113449
9911.000000;1.112215
9910.000000;1.111037
9909.000000;1.110142
9908.000000;1.109551
9907.000000;1.109529
9906.000000;1.110227
9905.000000;1.111063
9904.000000;1.111071
9903.000000;1.109951
9902.000000;1.108290
9901.000000;1.106704
9900.000000;1.105292
9899.000000;1.103991
9898.000000;1.102978
9897.000000;1.102450
9896.000000;1.102262
9895.000000;1.102029
9894.000000;1.101539
9893.000000;1.100901
9892.000000;1.100252
9891.000000;1.099409
9890.000000;1.098032
9889.000000;1.096234
9888.000000;1.094805
9887.000000;1.094401
9886.000000;1.094605
9885.000000;1.094235
9884.000000;1.092753
9883.000000;1.090885
9882.000000;1.089598
9881.000000;1.089008
9880.000000;1.088609
9879.000000;1.088104
9878.000000;1.087571
9877.000000;1.087111
9876.000000;1.086791
9875.000000;1.086708
9874.000000;1.086718
9873.000000;1.086358
9872.000000;1.085407
9871.000000;1.084269
9870.000000;1.083446
9869.000000;1.082903
9868.000000;1.082349
9867.000000;1.081799
9866.000000;1.081354
9865.000000;1.080697
9864.000000;1.079448
9863.000000;1.077937
9862.000000;1.077037
9861.000000;1.077177
9860.000000;1.077910
9859.000000;1.078403
9858.000000;1.078003
9857.000000;1.076454
9856.000000;1.074043
9855.000000;1.071540
9854.000000;1.069652
9853.000000;1.068527
9852.000000;1.067967
9851.000000;1.067926
9850.000000;1.068390
9849.000000;1.068890
9848.000000;1.068670
9847.000000;1.067461
9846.000000;1.065786
9845.000000;1.064424
9844.000000;1.063816
9843.000000;1.063933
9842.000000;1.064398
9841.000000;1.064728
9840.000000;1.064704
9839.000000;1.064490
9838.000000;1.064225
9837.000000;1.063629
9836.000000;1.062316
9835.000000;1.060407
9834.000000;1.058507
9833.000000;1.057104
9832.000000;1.056285
9831.000000;1.055931
9830.000000;1.055848
9829.000000;1.055708
9828.000000;1.055131
9827.000000;1.053919
9826.000000;1.052186
9825.000000;1.050391
9824.000000;1.049292
9823.000000;1.049477
9822.000000;1.050583
9821.000000;1.051236
9820.000000;1.050268
9819.000000;1.047916
9818.000000;1.045470
9817.000000;1.043915
9816.000000;1.043308
9815.000000;1.043268
9814.000000;1.043487
9813.000000;1.043710
9812.000000;1.043682
9811.000000;1.043303
9810.000000;1.042627
9809.000000;1.041698
9808.000000;1.040596
9807.000000;1.039554
9806.000000;1.038682
9805.000000;1.037686
9804.000000;1.036239
9803.000000;1.034646
9802.000000;1.033723
9801.000000;1.033910
9800.000000;1.034805
9799.000000;1.035590
9798.000000;1.035638
9797.000000;1.034715
9796.000000;1.032987
9795.000000;1.031019
9794.000000;1.029491
9793.000000;1.028666
9792.000000;1.028244
9791.000000;1.027782
9790.000000;1.027130
9789.000000;1.026379
9788.000000;1.025602
9787.000000;1.024765
9786.000000;1.023858
9785.000000;1.023019
9784.000000;1.022489
9783.000000;1.022343
9782.000000;1.022242
9781.000000;1.021669
9780.000000;1.020547
9779.000000;1.019420
9778.000000;1.018814
9777.000000;1.018594
9776.000000;1.018202
9775.000000;1.017395
9774.000000;1.016451
9773.000000;1.015733
9772.000000;1.015329
9771.000000;1.015089
9770.000000;1.014678
9769.000000;1.013658
9768.000000;1.011859
9767.000000;1.009745
9766.000000;1.008150
9765.000000;1.007532
9764.000000;1.007656
9763.000000;1.007956
9762.000000;1.007956
9761.000000;1.007331
9760.000000;1.005942
9759.000000;1.004076
9758.000000;1.002467
9757.000000;1.001804
9756.000000;1.002161
9755.000000;1.002988
9754.000000;1.003636
9753.000000;1.003784
9752.000000;1.003359
9751.000000;1.002255
9750.000000;1.000413
9749.000000;0.998187
9748.000000;0.996327
9747.000000;0.995352
9746.000000;0.995057
9745.000000;0.994883
9744.000000;0.994646
9743.000000;0.994554
9742.000000;0.994606
9741.000000;0.994447
9740.000000;0.993908
9739.000000;0.993242
9738.000000;0.992610
9737.000000;0.991717
9736.000000;0.990242
9735.000000;0.988374
9734.000000;0.986630
9733.000000;0.985340
9732.000000;0.984498
9731.000000;0.983914
9730.000000;0.983333
9729.000000;0.982639
9728.000000;0.982093
9727.000000;0.982082
9726.000000;0.982464
9725.000000;0.982541
9724.000000;0.981928
9723.000000;0.981042
9722.000000;0.980402
9721.000000;0.979851
9720.000000;0.978933
9719.000000;0.977744
9718.000000;0.976848
9717.000000;0.976471
9716.000000;0.976272
9715.000000;0.975873
9714.000000;0.975207
9713.000000;0.974347
9712.000000;0.973357
9711.000000;0.972377
9710.000000;0.971566
9709.000000;0.970914
9708.000000;0.970270
9707.000000;0.969558
9706.000000;0.968824
9705.000000;0.968159
9704.000000;0.967673
9703.000000;0.967371
9702.000000;0.966921
9701.000000;0.965871
9700.000000;0.964323
9699.000000;0.963107
9698.000000;0.962890
9697.000000;0.963343
9696.000000;0.963528
9695.000000;0.962975
9694.000000;0.961999
9693.000000;0.961075
9692.000000;0.960341
9691.000000;0.959689
9690.000000;0.958983
9689.000000;0.958139
9688.000000;0.957213
9687.000000;0.956387
9686.000000;0.955675
9685.000000;0.954774
9684.000000;0.953483
9683.000000;0.952102
9682.000000;0.951141
9681.000000;0.950759
9680.000000;0.950736
9679.000000;0.950780
9678.000000;0.950566
9677.000000;0.949702
9676.000000;0.948151
9675.000000;0.946575
9674.000000;0.945797
9673.000000;0.945923
9672.000000;0.946327
9671.000000;0.946462
9670.000000;0.946296
9669.000000;0.945985
9668.000000;0.945563
9667.000000;0.945074
9666.000000;0.944640
9665.000000;0.944230
9664.000000;0.943587
9663.000000;0.942506
9662.000000;0.941038
9661.000000;0.939422
9660.000000;0.937941
9659.000000;0.936780
9658.000000;0.935822
9657.000000;0.934715
9656.000000;0.933322
9655.000000;0.932014
9654.000000;0.931220
9653.000000;0.930843
9652.000000;0.930420
9651.000000;0.929749
9650.000000;0.929043
9649.000000;0.928475
9648.000000;0.927986
9647.000000;0.927561
9646.000000;0.927386
9645.000000;0.927591
9644.000000;0.928015
9643.000000;0.928285
9642.000000;0.928020
9641.000000;0.927084
9640.000000;0.925795
9639.000000;0.924744
9638.000000;0.924170
9637.000000;0.923642
9636.000000;0.922603
9635.000000;0.921057
9634.000000;0.919477
9633.000000;0.918226
9632.000000;0.917413
9631.000000;0.917099
9630.000000;0.917179
9629.000000;0.917174
9628.000000;0.916648
9627.000000;0.915825
9626.000000;0.915359
9625.000000;0.915460
9624.000000;0.915666
9623.000000;0.915460
9622.000000;0.914746
9621.000000;0.913712
9620.000000;0.912607
9619.000000;0.911686
9618.000000;0.910949
9617.000000;0.909933
9616.000000;0.908252
9615.000000;0.906398
9614.000000;0.905426
9613.000000;0.905659
9612.000000;0.906193
9611.000000;0.905987
9610.000000;0.905007
9609.000000;0.903936
9608.000000;0.903192
9607.000000;0.902726
9606.000000;0.902499
9605.000000;0.902586
9604.000000;0.902845
9603.000000;0.902895
9602.000000;0.902544
9601.000000;0.901977
9600.000000;0.901442
9599.000000;0.900913
9598.000000;0.900118
9597.000000;0.898783
9596.000000;0.896842
9595.000000;0.894581
9594.000000;0.892612
9593.000000;0.891555
9592.000000;0.891591
9591.000000;0.892266
9590.000000;0.892827
9589.000000;0.892870
9588.000000;0.892663
9587.000000;0.892727
9586.000000;0.893115
9585.000000;0.893239
9584.000000;0.892501
9583.000000;0.890925
9582.000000;0.889019
9581.000000;0.887233
9580.000000;0.885763
9579.000000;0.884770
9578.000000;0.884407
9577.000000;0.884516
9576.000000;0.884570
9575.000000;0.884089
9574.000000;0.883070
9573.000000;0.881893
9572.000000;0.880872
9571.000000;0.879986
9570.000000;0.879054
9569.000000;0.878082
9568.000000;0.877327
9567.000000;0.876976
9566.000000;0.876875
9565.000000;0.876712
9564.000000;0.876424
9563.000000;0.876180
9562.000000;0.875977
9561.000000;0.875544
9560.000000;0.874741
9559.000000;0.873796
9558.000000;0.872985
9557.000000;0.872322
9556.000000;0.871715
9555.000000;0.871177
9554.000000;0.870662
9553.000000;0.869926
9552.000000;0.868869
9551.000000;0.867805
9550.000000;0.867112
9549.000000;0.866768
9548.000000;0.866522
9547.000000;0.866330
9546.000000;0.866241
9545.000000;0.865997
9544.000000;0.865196
9543.000000;0.863848
9542.000000;0.862439
9541.000000;0.861434
9540.000000;0.860983
9539.000000;0.861044
9538.000000;0.861415
9537.000000;0.861645
9536.000000;0.861278
9535.000000;0.860313
9534.000000;0.859199
9533.000000;0.858310
9532.000000;0.857639
9531.000000;0.857013
9530.000000;0.856329
9529.000000;0.855510
9528.000000;0.854475
9527.000000;0.853270
9526.000000;0.852067
9525.000000;0.851003
9524.000000;0.850130
9523.000000;0.849496
9522.000000;0.849054
9521.000000;0.848546
9520.000000;0.847698
9519.000000;0.846557
9518.000000;0.845448
9517.000000;0.844640
9516.000000;0.844252
9515.000000;0.844355
9514.000000;0.844879
9513.000000;0.845396
9512.000000;0.845349
9511.000000;0.844571
9510.000000;0.843408
9509.000000;0.842320
9508.000000;0.841552
9507.000000;0.841144
9506.000000;0.840947
9505.000000;0.840616
9504.000000;0.839897
9503.000000;0.838969
9502.000000;0.838243
9501.000000;0.837790
9500.000000;0.837274
9499.000000;0.836506
9498.000000;0.835712
9497.000000;0.835120
9496.000000;0.834631
9495.000000;0.834099
9494.000000;0.833628
9493.000000;0.833334
9492.000000;0.833031
9491.000000;0.832445
9490.000000;0.831634
9489.000000;0.830912
9488.000000;0.830405
9487.000000;0.829882
9486.000000;0.829062
9485.000000;0.827943
9484.000000;0.826789
9483.000000;0.825851
9482.000000;0.825152
9481.000000;0.824515
9480.000000;0.823824
9479.000000;0.823194
9478.000000;0.822832
9477.000000;0.822756
9476.000000;0.822757
9475.000000;0.822612
9474.000000;0.822244
9473.000000;0.821716
9472.000000;0.821168
9471.000000;0.820742
9470.000000;0.820451
9469.000000;0.820164
9468.000000;0.819810
9467.000000;0.819502
9466.000000;0.819292
9465.000000;0.818916
9464.000000;0.818039
9463.000000;0.816718
9462.000000;0.815394
9461.000000;0.814406
9460.000000;0.813735
9459.000000;0.813207
9458.000000;0.812687
9457.000000;0.812030
9456.000000;0.811135
9455.000000;0.810186
9454.000000;0.809585
9453.000000;0.809501
9452.000000;0.809640
9451.000000;0.809590
9450.000000;0.809225
9449.000000;0.808654
9448.000000;0.807963
9447.000000;0.807177
9446.000000;0.806325
9445.000000;0.805380
9444.000000;0.804247
9443.000000;0.803007
9442.000000;0.802063
9441.000000;0.801806
9440.000000;0.802096
9439.000000;0.802258
9438.000000;0.801738
9437.000000;0.800676
9436.000000;0.799764
9435.000000;0.799555
9434.000000;0.800002
9433.000000;0.800610
9432.000000;0.800883
9431.000000;0.800548
9430.000000;0.799517
9429.000000;0.797958
9428.000000;0.796426
9427.000000;0.795610
9426.000000;0.795664
9425.000000;0.795944
9424.000000;0.795661
9423.000000;0.794747
9422.000000;0.793810
9421.000000;0.793289
9420.000000;0.792944
9419.000000;0.792242
9418.000000;0.791011
9417.000000;0.789591
9416.000000;0.788511
9415.000000;0.788110
9414.000000;0.788322
9413.000000;0.788671
9412.000000;0.788602
9411.000000;0.787928
9410.000000;0.786934
9409.000000;0.786060
9408.000000;0.785567
9407.000000;0.785506
9406.000000;0.785767
9405.000000;0.786038
9404.000000;0.785889
9403.000000;0.785085
9402.000000;0.783809
9401.000000;0.782463
9400.000000;0.781328
9399.000000;0.780450
9398.000000;0.779795
9397.000000;0.779339
9396.000000;0.779029
9395.000000;0.778758
9394.000000;0.778425
9393.000000;0.777994
9392.000000;0.777475
9391.000000;0.776877
9390.000000;0.776209
9389.000000;0.775549
9388.000000;0.775066
9387.000000;0.774918
9386.000000;0.775054
9385.000000;0.775157
9384.000000;0.774869
9383.000000;0.774091
9382.000000;0.773048
9381.000000;0.772084
9380.000000;0.771414
9379.000000;0.771028
9378.000000;0.770734
9377.000000;0.770309
9376.000000;0.769658
9375.000000;0.768851
9374.000000;0.768000
9373.000000;0.767179
9372.000000;0.766455
9371.000000;0.765900
9370.000000;0.765472
9369.000000;0.764987
9368.000000;0.764328
9367.000000;0.763627
9366.000000;0.763099
9365.000000;0.762754
9364.000000;0.762389
9363.000000;0.761852
9362.000000;0.761169
9361.000000;0.760443
9360.000000;0.759770
9359.000000;0.759278
9358.000000;0.759109
9357.000000;0.759298
9356.000000;0.759703
9355.000000;0.760069
9354.000000;0.760123
9353.000000;0.759683
9352.000000;0.758817
9351.000000;0.757877
9350.000000;0.757214
9349.000000;0.756843
9348.000000;0.756516
9347.000000;0.756087
9346.000000;0.755611
9345.000000;0.755062
9344.000000;0.754202
9343.000000;0.752924
9342.000000;0.751565
9341.000000;0.750660
9340.000000;0.750423
9339.000000;0.750598
9338.000000;0.750808
9337.000000;0.750910
9336.000000;0.750961
9335.000000;0.750956
9334.000000;0.750724
9333.000000;0.750068
9332.000000;0.748944
9331.000000;0.747481
9330.000000;0.745917
9329.000000;0.744543
9328.000000;0.743662
9327.000000;0.743427
9326.000000;0.743662
9325.000000;0.743903
9324.000000;0.743736
9323.000000;0.743103
9322.000000;0.742280
9321.000000;0.741612
9320.000000;0.741284
9319.000000;0.741227
9318.000000;0.741151
9317.000000;0.740770
9316.000000;0.740145
9315.000000;0.739742
9314.000000;0.739956
9313.000000;0.740598
9312.000000;0.741014
9311.000000;0.740750
9310.000000;0.739953
9309.000000;0.739023
9308.000000;0.738107
9307.000000;0.737098
9306.000000;0.736032
9305.000000;0.735205
9304.000000;0.734844
9303.000000;0.734811
9302.000000;0.734736
9301.000000;0.734396
9300.000000;0.733861
9299.000000;0.733297
9298.000000;0.732750
9297.000000;0.732151
9296.000000;0.731487
9295.000000;0.730861
9294.000000;0.730408
9293.000000;0.730194
9292.000000;0.730195
9291.000000;0.730310
9290.000000;0.730365
9289.000000;0.730144
9288.000000;0.729509
9287.000000;0.728544
9286.000000;0.727573
9285.000000;0.726989
9284.000000;0.726988
9283.000000;0.727415
9282.000000;0.727848
9281.000000;0.727853
9280.000000;0.727202
9279.000000;0.725972
9278.000000;0.724522
9277.000000;0.723316
9276.000000;0.722602
9275.000000;0.722214
9274.000000;0.721812
9273.000000;0.721346
9272.000000;0.721133
9271.000000;0.721343
9270.000000;0.721623
9269.000000;0.721457
9268.000000;0.720785
9267.000000;0.720008
9266.000000;0.719436
9265.000000;0.719025
9264.000000;0.718637
9263.000000;0.718251
9262.000000;0.717837
9261.000000;0.717323
9260.000000;0.716804
9259.000000;0.716530
9258.000000;0.716480
9257.000000;0.716200
9256.000000;0.715332
9255.000000;0.714159
9254.000000;0.713331
9253.000000;0.713094
9252.000000;0.713066
9251.000000;0.712775
9250.000000;0.712209
9249.000000;0.711703
9248.000000;0.711432
9247.000000;0.711159
9246.000000;0.710494
9245.000000;0.709389
9244.000000;0.708323
9243.000000;0.707931
9242.000000;0.708376
9241.000000;0.709130
9240.000000;0.709431
9239.000000;0.708986
9238.000000;0.708197
9237.000000;0.707721
9236.000000;0.707821
9235.000000;0.708161
9234.000000;0.708196
9233.000000;0.707726
9232.000000;0.706975
9231.000000;0.706167
9230.000000;0.705226
9229.000000;0.704073
9228.000000;0.703024
9227.000000;0.702581
9226.000000;0.702822
9225.000000;0.703266
9224.000000;0.703401
9223.000000;0.703125
9222.000000;0.702623
9221.000000;0.702079
9220.000000;0.701629
9219.000000;0.701372
9218.000000;0.701213
9217.000000;0.700869
9216.000000;0.700248
9215.000000;0.699649
9214.000000;0.699390
9213.000000;0.699331
9212.000000;0.699026
9211.000000;0.698331
9210.000000;0.697635
9209.000000;0.697448
9208.000000;0.697875
9207.000000;0.698520
9206.000000;0.698811
9205.000000;0.698427
9204.000000;0.697485
9203.000000;0.696387
9202.000000;0.695482
9201.000000;0.694879
9200.000000;0.694506
9199.000000;0.694237
9198.000000;0.693944
9197.000000;0.693547
9196.000000;0.693055
9195.000000;0.692488
9194.000000;0.691767
9193.000000;0.690848
9192.000000;0.689942
9191.000000;0.689430
9190.000000;0.689465
9189.000000;0.689815
9188.000000;0.690146
9187.000000;0.690296
9186.000000;0.690222
9185.000000;0.689876
9184.000000;0.689298
9183.000000;0.688678
9182.000000;0.688193
9181.000000;0.687882
9180.000000;0.687756
9179.000000;0.687853
9178.000000;0.688047
9177.000000;0.687975
9176.000000;0.687344
9175.000000;0.686274
9174.000000;0.685212
9173.000000;0.684583
9172.000000;0.684558
9171.000000;0.684984
9170.000000;0.685415
9169.000000;0.685410
9168.000000;0.684950
9167.000000;0.684455
9166.000000;0.684256
9165.000000;0.684186
9164.000000;0.683804
9163.000000;0.682871
9162.000000;0.681483
9161.000000;0.679977
9160.000000;0.678855
9159.000000;0.678551
9158.000000;0.678976
9157.000000;0.679487
9156.000000;0.679541
9155.000000;0.679250
9154.000000;0.679009
9153.000000;0.678787
9152.000000;0.678195
9151.000000;0.677169
9150.000000;0.676171
9149.000000;0.675626
9148.000000;0.675507
9147.000000;0.675543
9146.000000;0.675563
9145.000000;0.675498
9144.000000;0.675295
9143.000000;0.674996
9142.000000;0.674788
9141.000000;0.674815
9140.000000;0.674985
9139.000000;0.675024
9138.000000;0.674699
9137.000000;0.674017
9136.000000;0.673255
9135.000000;0.672734
9134.000000;0.672483
9133.000000;0.672191
9132.000000;0.671634
9131.000000;0.671051
9130.000000;0.670883
9129.000000;0.671157
9128.000000;0.671357
9127.000000;0.670992
9126.000000;0.670142
9125.000000;0.669365
9124.000000;0.669160
9123.000000;0.669554
9122.000000;0.670111
9121.000000;0.670321
9120.000000;0.669998
9119.000000;0.669343
9118.000000;0.668655
9117.000000;0.668071
9116.000000;0.667609
9115.000000;0.667299
9114.000000;0.667116
9113.000000;0.666927
9112.000000;0.666673
9111.000000;0.666500
9110.000000;0.666532
9109.000000;0.666602
9108.000000;0.666440
9107.000000;0.666060
9106.000000;0.665734
9105.000000;0.665577
9104.000000;0.665385
9103.000000;0.664896
9102.000000;0.664062
9101.000000;0.663047
9100.000000;0.662158
9099.000000;0.661727
9098.000000;0.661843
9097.000000;0.662167
9096.000000;0.662197
9095.000000;0.661806
9094.000000;0.661335
9093.000000;0.661109
9092.000000;0.661035
9091.000000;0.660763
9090.000000;0.660086
9089.000000;0.659093
9088.000000;0.658059
9087.000000;0.657300
9086.000000;0.656993
9085.000000;0.657040
9084.000000;0.657137
9083.000000;0.657064
9082.000000;0.656865
9081.000000;0.656728
9080.000000;0.656746
9079.000000;0.656840
9078.000000;0.656838
9077.000000;0.656620
9076.000000;0.656205
9075.000000;0.655739
9074.000000;0.655342
9073.000000;0.655027
9072.000000;0.654799
9071.000000;0.654758
9070.000000;0.654968
9069.000000;0.655266
9068.000000;0.655369
9067.000000;0.655170
9066.000000;0.654797
9065.000000;0.654371
9064.000000;0.653847
9063.000000;0.653164
9062.000000;0.652410
9061.000000;0.651767
9060.000000;0.651351
9059.000000;0.651146
9058.000000;0.651018
9057.000000;0.650775
9056.000000;0.650329
9055.000000;0.649824
9054.000000;0.649529
9053.000000;0.649549
