Criado como novo conjunto de dados;"1909daniel.spp","-4272464.4 Secs"
cm-1;Abs
10000.000000;1.521577
9999.000000;1.523410
9998.000000;1.523649
9997.000000;1.522215
9996.000000;1.519682
9995.000000;1.516505
9994.000000;1.513056
9993.000000;1.510197
9992.000000;1.509180
9991.000000;1.510511
9990.000000;1.513002
9989.000000;1.514479
9988.000000;1.513807
9987.000000;1.511858
9986.000000;1.510135
9985.000000;1.508904
9984.000000;1.507292
9983.000000;1.505105
9982.000000;1.503609
9981.000000;1.503972
9980.000000;1.505511
9979.000000;1.506305
9978.000000;1.505498
9977.000000;1.504162
9976.000000;1.503552
9975.000000;1.503356
9974.000000;1.502350
9973.000000;1.500312
9972.000000;1.498394
9971.000000;1.497620
9970.000000;1.497713
9969.000000;1.497534
9968.000000;1.496273
9967.000000;1.493970
9966.000000;1.491209
9965.000000;1.488687
9964.000000;1.486926
9963.000000;1.486089
9962.000000;1.485996
9961.000000;1.486358
9960.000000;1.486938
9959.000000;1.487514
9958.000000;1.487931
9957.000000;1.488218
9956.000000;1.488442
9955.000000;1.488398
9954.000000;1.487690
9953.000000;1.486102
9952.000000;1.483760
9951.000000;1.480926
9950.000000;1.477939
9949.000000;1.475485
9948.000000;1.474483
9947.000000;1.475433
9946.000000;1.478012
9945.000000;1.481268
9944.000000;1.483877
9943.000000;1.484341
9942.000000;1.481854
9941.000000;1.477466
9940.000000;1.473722
9939.000000;1.472510
9938.000000;1.473521
9937.000000;1.475043
9936.000000;1.475931
9935.000000;1.476165
9934.000000;1.475812
9933.000000;1.474542
9932.000000;1.472471
9931.000000;1.470664
9930.000000;1.470218
9929.000000;1.471085
9928.000000;1.472134
9927.000000;1.472200
9926.000000;1.470955
9925.000000;1.468925
9924.000000;1.466821
9923.000000;1.464851
9922.000000;1.462701
9921.000000;1.460243
9920.000000;1.458027
9919.000000;1.456773
9918.000000;1.456533
9917.000000;1.456724
9916.000000;1.456830
9915.000000;1.456672
9914.000000;1.456134
9913.000000;1.455246
9912.000000;1.454546
9911.000000;1.454696
9910.000000;1.455478
9909.000000;1.455711
9908.000000;1.454569
9907.000000;1.452605
9906.000000;1.451065
9905.000000;1.450508
9904.000000;1.450481
9903.000000;1.450309
9902.000000;1.449840
9901.000000;1.449424
9900.000000;1.449358
9899.000000;1.449317
9898.000000;1.448394
9897.000000;1.446021
9896.000000;1.442830
9895.000000;1.440203
9894.000000;1.438918
9893.000000;1.438531
9892.000000;1.438112
9891.000000;1.437260
9890.000000;1.436249
9889.000000;1.435565
9888.000000;1.435567
9887.000000;1.436222
9886.000000;1.436928
9885.000000;1.437011
9884.000000;1.436726
9883.000000;1.437183
9882.000000;1.438699
9881.000000;1.439784
9880.000000;1.438636
9879.000000;1.435481
9878.000000;1.432461
9877.000000;1.431174
9876.000000;1.431197
9875.000000;1.431199
9874.000000;1.430640
9873.000000;1.429840
9872.000000;1.429008
9871.000000;1.428006
9870.000000;1.426903
9869.000000;1.426168
9868.000000;1.426197
9867.000000;1.426874
9866.000000;1.427581
9865.000000;1.427540
9864.000000;1.426332
9863.000000;1.424339
9862.000000;1.422550
9861.000000;1.421682
9860.000000;1.421620
9859.000000;1.421773
9858.000000;1.421709
9857.000000;1.421217
9856.000000;1.420103
9855.000000;1.418414
9854.000000;1.416759
9853.000000;1.415858
9852.000000;1.415649
9851.000000;1.415314
9850.000000;1.414402
9849.000000;1.413496
9848.000000;1.413373
9847.000000;1.413776
9846.000000;1.413510
9845.000000;1.411813
9844.000000;1.409298
9843.000000;1.407340
9842.000000;1.406745
9841.000000;1.407145
9840.000000;1.407535
9839.000000;1.407285
9838.000000;1.406643
9837.000000;1.406277
9836.000000;1.406388
9835.000000;1.406463
9834.000000;1.405957
9833.000000;1.404947
9832.000000;1.403821
9831.000000;1.402561
9830.000000;1.400794
9829.000000;1.398537
9828.000000;1.396384
9827.000000;1.394803
9826.000000;1.393709
9825.000000;1.393011
9824.000000;1.393141
9823.000000;1.394429
9822.000000;1.396113
9821.000000;1.396703
9820.000000;1.395521
9819.000000;1.393383
9818.000000;1.391471
9817.000000;1.390036
9816.000000;1.388625
9815.000000;1.387275
9814.000000;1.386729
9813.000000;1.387382
9812.000000;1.388583
9811.000000;1.389289
9810.000000;1.389199
9809.000000;1.388817
9808.000000;1.388417
9807.000000;1.387456
9806.000000;1.385278
9805.000000;1.382151
9804.000000;1.379204
9803.000000;1.377432
9802.000000;1.377005
9801.000000;1.377437
9800.000000;1.378014
9799.000000;1.377978
9798.000000;1.376777
9797.000000;1.374593
9796.000000;1.372519
9795.000000;1.371774
9794.000000;1.372565
9793.000000;1.373840
9792.000000;1.374309
9791.000000;1.373672
9790.000000;1.372707
9789.000000;1.372220
9788.000000;1.372080
9787.000000;1.371363
9786.000000;1.369420
9785.000000;1.366702
9784.000000;1.364398
9783.000000;1.363330
9782.000000;1.363332
9781.000000;1.363681
9780.000000;1.363872
9779.000000;1.363838
9778.000000;1.363629
9777.000000;1.363143
9776.000000;1.362275
9775.000000;1.361124
9774.000000;1.360014
9773.000000;1.359297
9772.000000;1.359084
9771.000000;1.359015
9770.000000;1.358388
9769.000000;1.356783
9768.000000;1.354668
9767.000000;1.353206
9766.000000;1.353221
9765.000000;1.354346
9764.000000;1.355328
9763.000000;1.355249
9762.000000;1.354310
9761.000000;1.353254
9760.000000;1.352245
9759.000000;1.350790
9758.000000;1.348737
9757.000000;1.346831
9756.000000;1.345950
9755.000000;1.346031
9754.000000;1.346180
9753.000000;1.345807
9752.000000;1.345153
9751.000000;1.344597
9750.000000;1.344035
9749.000000;1.343206
9748.000000;1.342261
9747.000000;1.341631
9746.000000;1.341520
9745.000000;1.341751
9744.000000;1.341905
9743.000000;1.341387
9742.000000;1.339639
9741.000000;1.336753
9740.000000;1.333751
9739.000000;1.331880
9738.000000;1.331604
9737.000000;1.332399
9736.000000;1.333354
9735.000000;1.333744
9734.000000;1.333207
9733.000000;1.331843
9732.000000;1.330259
9731.000000;1.329176
9730.000000;1.328789
9729.000000;1.328600
9728.000000;1.327987
9727.000000;1.326855
9726.000000;1.325662
9725.000000;1.324866
9724.000000;1.324379
9723.000000;1.323593
9722.000000;1.322119
9721.000000;1.320457
9720.000000;1.319673
9719.000000;1.320216
9718.000000;1.321249
9717.000000;1.321399
9716.000000;1.320137
9715.000000;1.318142
9714.000000;1.316335
9713.000000;1.314916
9712.000000;1.313509
9711.000000;1.311966
9710.000000;1.310768
9709.000000;1.310645
9708.000000;1.311820
9707.000000;1.313654
9706.000000;1.315131
9705.000000;1.315701
9704.000000;1.315445
9703.000000;1.314476
9702.000000;1.312641
9701.000000;1.310083
9700.000000;1.307648
9699.000000;1.306202
9698.000000;1.305720
9697.000000;1.305445
9696.000000;1.304816
9695.000000;1.303836
9694.000000;1.302700
9693.000000;1.301604
9692.000000;1.300874
9691.000000;1.300746
9690.000000;1.300957
9689.000000;1.301034
9688.000000;1.300972
9687.000000;1.301106
9686.000000;1.301294
9685.000000;1.300899
9684.000000;1.299785
9683.000000;1.298678
9682.000000;1.298155
9681.000000;1.297882
9680.000000;1.297301
9679.000000;1.296556
9678.000000;1.296120
9677.000000;1.295866
9676.000000;1.295156
9675.000000;1.293743
9674.000000;1.292075
9673.000000;1.290743
9672.000000;1.290040
9671.000000;1.289946
9670.000000;1.290148
9669.000000;1.290100
9668.000000;1.289463
9667.000000;1.288447
9666.000000;1.287433
9665.000000;1.286387
9664.000000;1.285077
9663.000000;1.283759
9662.000000;1.283066
9661.000000;1.283169
9660.000000;1.283521
9659.000000;1.283558
9658.000000;1.283186
9657.000000;1.282395
9656.000000;1.280896
9655.000000;1.278505
9654.000000;1.275603
9653.000000;1.272897
9652.000000;1.270919
9651.000000;1.269942
9650.000000;1.270084
9649.000000;1.271117
9648.000000;1.272336
9647.000000;1.273051
9646.000000;1.273180
9645.000000;1.273059
9644.000000;1.272742
9643.000000;1.271882
9642.000000;1.270390
9641.000000;1.268797
9640.000000;1.267719
9639.000000;1.267151
9638.000000;1.266515
9637.000000;1.265376
9636.000000;1.263916
9635.000000;1.262685
9634.000000;1.261998
9633.000000;1.261662
9632.000000;1.261281
9631.000000;1.260698
9630.000000;1.260056
9629.000000;1.259509
9628.000000;1.259057
9627.000000;1.258670
9626.000000;1.258338
9625.000000;1.257905
9624.000000;1.257142
9623.000000;1.256193
9622.000000;1.255686
9621.000000;1.255978
9620.000000;1.256443
9619.000000;1.256023
9618.000000;1.254555
9617.000000;1.252966
9616.000000;1.252007
9615.000000;1.251390
9614.000000;1.250542
9613.000000;1.249664
9612.000000;1.249350
9611.000000;1.249461
9610.000000;1.249164
9609.000000;1.248204
9608.000000;1.247410
9607.000000;1.247521
9606.000000;1.248029
9605.000000;1.247701
9604.000000;1.246045
9603.000000;1.243849
9602.000000;1.242377
9601.000000;1.242344
9600.000000;1.243532
9599.000000;1.245018
9598.000000;1.245680
9597.000000;1.244849
9596.000000;1.242751
9595.000000;1.240357
9594.000000;1.238654
9593.000000;1.237922
9592.000000;1.237668
9591.000000;1.237205
9590.000000;1.236314
9589.000000;1.235308
9588.000000;1.234540
9587.000000;1.234007
9586.000000;1.233487
9585.000000;1.232882
9584.000000;1.232228
9583.000000;1.231480
9582.000000;1.230614
9581.000000;1.229903
9580.000000;1.229713
9579.000000;1.229935
9578.000000;1.229987
9577.000000;1.229583
9576.000000;1.229147
9575.000000;1.229172
9574.000000;1.229429
9573.000000;1.229144
9572.000000;1.227831
9571.000000;1.225687
9570.000000;1.223267
9569.000000;1.221090
9568.000000;1.219514
9567.000000;1.218682
9566.000000;1.218507
9565.000000;1.218773
9564.000000;1.219264
9563.000000;1.219707
9562.000000;1.219775
9561.000000;1.219344
9560.000000;1.218675
9559.000000;1.218165
9558.000000;1.217983
9557.000000;1.218028
9556.000000;1.218043
9555.000000;1.217623
9554.000000;1.216416
9553.000000;1.214686
9552.000000;1.213468
9551.000000;1.213678
9550.000000;1.215079
9549.000000;1.216464
9548.000000;1.216907
9547.000000;1.216445
9546.000000;1.215481
9545.000000;1.214024
9544.000000;1.211902
9543.000000;1.209387
9542.000000;1.207188
9541.000000;1.205807
9540.000000;1.205094
9539.000000;1.204430
9538.000000;1.203325
9537.000000;1.201934
9536.000000;1.200986
9535.000000;1.201031
9534.000000;1.201721
9533.000000;1.202025
9532.000000;1.201293
9531.000000;1.199970
9530.000000;1.199048
9529.000000;1.198940
9528.000000;1.199065
9527.000000;1.198525
9526.000000;1.197060
9525.000000;1.195289
9524.000000;1.194085
9523.000000;1.193790
9522.000000;1.194079
9521.000000;1.194462
9520.000000;1.194716
9519.000000;1.194760
9518.000000;1.194431
9517.000000;1.193733
9516.000000;1.193153
9515.000000;1.193279
9514.000000;1.194020
9513.000000;1.194527
9512.000000;1.194052
9511.000000;1.192669
9510.000000;1.190996
9509.000000;1.189477
9508.000000;1.188125
9507.000000;1.186811
9506.000000;1.185520
9505.000000;1.184343
9504.000000;1.183351
9503.000000;1.182523
9502.000000;1.181765
9501.000000;1.181052
9500.000000;1.180520
9499.000000;1.180293
9498.000000;1.180253
9497.000000;1.180143
9496.000000;1.179879
9495.000000;1.179592
9494.000000;1.179338
9493.000000;1.179001
9492.000000;1.178569
9491.000000;1.178232
9490.000000;1.178079
9489.000000;1.177904
9488.000000;1.177446
9487.000000;1.176606
9486.000000;1.175328
9485.000000;1.173580
9484.000000;1.171659
9483.000000;1.170211
9482.000000;1.169656
9481.000000;1.169693
9480.000000;1.169693
9479.000000;1.169452
9478.000000;1.169170
9477.000000;1.168819
9476.000000;1.168024
9475.000000;1.166648
9474.000000;1.165101
9473.000000;1.163943
9472.000000;1.163448
9471.000000;1.163640
9470.000000;1.164403
9469.000000;1.165316
9468.000000;1.165679
9467.000000;1.165070
9466.000000;1.163795
9465.000000;1.162520
9464.000000;1.161543
9463.000000;1.160651
9462.000000;1.159604
9461.000000;1.158430
9460.000000;1.157164
9459.000000;1.155631
9458.000000;1.153797
9457.000000;1.152210
9456.000000;1.151714
9455.000000;1.152602
9454.000000;1.154144
9453.000000;1.155141
9452.000000;1.154968
9451.000000;1.153984
9450.000000;1.152955
9449.000000;1.152253
9448.000000;1.151702
9447.000000;1.151034
9446.000000;1.150304
9445.000000;1.149796
9444.000000;1.149625
9443.000000;1.149520
9442.000000;1.149045
9441.000000;1.148006
9440.000000;1.146648
9439.000000;1.145446
9438.000000;1.144769
9437.000000;1.144751
9436.000000;1.145290
9435.000000;1.146026
9434.000000;1.146439
9433.000000;1.146244
9432.000000;1.145669
9431.000000;1.145112
9430.000000;1.144505
9429.000000;1.143405
9428.000000;1.141827
9427.000000;1.140577
9426.000000;1.140366
9425.000000;1.140854
9424.000000;1.140982
9423.000000;1.140138
9422.000000;1.138629
9421.000000;1.137118
9420.000000;1.136061
9419.000000;1.135651
9418.000000;1.135748
9417.000000;1.135741
9416.000000;1.134961
9415.000000;1.133520
9414.000000;1.132345
9413.000000;1.132010
9412.000000;1.131929
9411.000000;1.131163
9410.000000;1.129802
9409.000000;1.128988
9408.000000;1.129543
9407.000000;1.130967
9406.000000;1.131866
9405.000000;1.131147
9404.000000;1.128801
9403.000000;1.125780
9402.000000;1.123283
9401.000000;1.122029
9400.000000;1.121989
9399.000000;1.122742
9398.000000;1.123915
9397.000000;1.125187
9396.000000;1.126078
9395.000000;1.126141
9394.000000;1.125373
9393.000000;1.124182
9392.000000;1.122901
9391.000000;1.121586
9390.000000;1.120292
9389.000000;1.119207
9388.000000;1.118383
9387.000000;1.117624
9386.000000;1.116825
9385.000000;1.116256
9384.000000;1.116286
9383.000000;1.116935
9382.000000;1.117809
9381.000000;1.118374
9380.000000;1.118202
9379.000000;1.117196
9378.000000;1.115776
9377.000000;1.114727
9376.000000;1.114613
9375.000000;1.115261
9374.000000;1.115893
9373.000000;1.115745
9372.000000;1.114598
9371.000000;1.112860
9370.000000;1.111260
9369.000000;1.110310
9368.000000;1.109873
9367.000000;1.109322
9366.000000;1.108315
9365.000000;1.107315
9364.000000;1.107095
9363.000000;1.107735
9362.000000;1.108338
9361.000000;1.107857
9360.000000;1.106129
9359.000000;1.104027
9358.000000;1.102647
9357.000000;1.102377
9356.000000;1.102642
9355.000000;1.102528
9354.000000;1.101710
9353.000000;1.100745
9352.000000;1.100426
9351.000000;1.100919
9350.000000;1.101657
9349.000000;1.102006
9348.000000;1.101858
9347.000000;1.101504
9346.000000;1.101137
9345.000000;1.100633
9344.000000;1.099797
9343.000000;1.098717
9342.000000;1.097770
9341.000000;1.097223
9340.000000;1.096840
9339.000000;1.096025
9338.000000;1.094478
9337.000000;1.092631
9336.000000;1.091306
9335.000000;1.090906
9334.000000;1.091088
9333.000000;1.091213
9332.000000;1.090971
9331.000000;1.090517
9330.000000;1.090125
9329.000000;1.089852
9328.000000;1.089566
9327.000000;1.089156
9326.000000;1.088641
9325.000000;1.088132
9324.000000;1.087759
9323.000000;1.087575
9322.000000;1.087444
9321.000000;1.087040
9320.000000;1.086141
9319.000000;1.084965
9318.000000;1.084061
9317.000000;1.083761
9316.000000;1.083912
9315.000000;1.084244
9314.000000;1.084735
9313.000000;1.085340
9312.000000;1.085602
9311.000000;1.085018
9310.000000;1.083781
9309.000000;1.082611
9308.000000;1.081772
9307.000000;1.080776
9306.000000;1.079238
9305.000000;1.077581
9304.000000;1.076573
9303.000000;1.076503
9302.000000;1.077130
9301.000000;1.078048
9300.000000;1.078736
9299.000000;1.078625
9298.000000;1.077671
9297.000000;1.076663
9296.000000;1.076376
9295.000000;1.076534
9294.000000;1.076166
9293.000000;1.074952
9292.000000;1.073641
9291.000000;1.073041
9290.000000;1.073102
9289.000000;1.073160
9288.000000;1.072689
9287.000000;1.071648
9286.000000;1.070441
9285.000000;1.069692
9284.000000;1.069752
9283.000000;1.070247
9282.000000;1.070399
9281.000000;1.069896
9280.000000;1.069220
9279.000000;1.068958
9278.000000;1.069070
9277.000000;1.069006
9276.000000;1.068320
9275.000000;1.067029
9274.000000;1.065575
9273.000000;1.064590
9272.000000;1.064477
9271.000000;1.065069
9270.000000;1.065868
9269.000000;1.066594
9268.000000;1.067203
9267.000000;1.067342
9266.000000;1.066398
9265.000000;1.064410
9264.000000;1.062483
9263.000000;1.061765
9262.000000;1.062217
9261.000000;1.062783
9260.000000;1.062637
9259.000000;1.061824
9258.000000;1.060776
9257.000000;1.059684
9256.000000;1.058533
9255.000000;1.057414
9254.000000;1.056554
9253.000000;1.056141
9252.000000;1.056214
9251.000000;1.056622
9250.000000;1.057069
9249.000000;1.057289
9248.000000;1.057232
9247.000000;1.057020
9246.000000;1.056779
9245.000000;1.056600
9244.000000;1.056618
9243.000000;1.056911
9242.000000;1.057277
9241.000000;1.057259
9240.000000;1.056490
9239.000000;1.055040
9238.000000;1.053464
9237.000000;1.052475
9236.000000;1.052453
9235.000000;1.053125
9234.000000;1.053749
9233.000000;1.053667
9232.000000;1.052742
9231.000000;1.051320
9230.000000;1.049901
9229.000000;1.048861
9228.000000;1.048304
9227.000000;1.048020
9226.000000;1.047660
9225.000000;1.047097
9224.000000;1.046531
9223.000000;1.046176
9222.000000;1.045976
9221.000000;1.045796
9220.000000;1.045759
9219.000000;1.046123
9218.000000;1.046793
9217.000000;1.047178
9216.000000;1.046702
9215.000000;1.045412
9214.000000;1.044006
9213.000000;1.043242
9212.000000;1.043327
9211.000000;1.043830
9210.000000;1.044116
9209.000000;1.043829
9208.000000;1.042993
9207.000000;1.041858
9206.000000;1.040802
9205.000000;1.040255
9204.000000;1.040374
9203.000000;1.040738
9202.000000;1.040632
9201.000000;1.039844
9200.000000;1.038981
9199.000000;1.038806
9198.000000;1.039366
9197.000000;1.039975
9196.000000;1.039990
9195.000000;1.039336
9194.000000;1.038366
9193.000000;1.037487
9192.000000;1.036969
9191.000000;1.036865
9190.000000;1.036987
9189.000000;1.037044
9188.000000;1.036924
9187.000000;1.036762
9186.000000;1.036642
9185.000000;1.036360
9184.000000;1.035629
9183.000000;1.034547
9182.000000;1.033655
9181.000000;1.033410
9180.000000;1.033681
9179.000000;1.033906
9178.000000;1.033737
9177.000000;1.033351
9176.000000;1.033051
9175.000000;1.032775
9174.000000;1.032224
9173.000000;1.031366
9172.000000;1.030561
9171.000000;1.030181
9170.000000;1.030268
9169.000000;1.030565
9168.000000;1.030715
9167.000000;1.030461
9166.000000;1.029875
9165.000000;1.029382
9164.000000;1.029300
9163.000000;1.029352
9162.000000;1.028930
9161.000000;1.027953
9160.000000;1.027084
9159.000000;1.026872
9158.000000;1.027006
9157.000000;1.026705
9156.000000;1.025670
9155.000000;1.024285
9154.000000;1.023028
9153.000000;1.022085
9152.000000;1.021542
9151.000000;1.021558
9150.000000;1.022114
9149.000000;1.022778
9148.000000;1.022910
9147.000000;1.022153
9146.000000;1.020707
9145.000000;1.019198
9144.000000;1.018256
9143.000000;1.018096
9142.000000;1.018430
9141.000000;1.018808
9140.000000;1.019092
9139.000000;1.019534
9138.000000;1.020350
9137.000000;1.021273
9136.000000;1.021616
9135.000000;1.020875
9134.000000;1.019275
9133.000000;1.017647
9132.000000;1.016700
9131.000000;1.016479
9130.000000;1.016544
9129.000000;1.016532
9128.000000;1.016310
9127.000000;1.015724
9126.000000;1.014647
9125.000000;1.013407
9124.000000;1.012786
9123.000000;1.013234
9122.000000;1.014237
9121.000000;1.014780
9120.000000;1.014418
9119.000000;1.013660
9118.000000;1.013279
9117.000000;1.013496
9116.000000;1.013908
9115.000000;1.014027
9114.000000;1.013729
9113.000000;1.013259
9112.000000;1.012902
9111.000000;1.012700
9110.000000;1.012460
9109.000000;1.012032
9108.000000;1.011518
9107.000000;1.011201
9106.000000;1.011256
9105.000000;1.011543
9104.000000;1.011639
9103.000000;1.011148
9102.000000;1.010092
9101.000000;1.009009
9100.000000;1.008500
9099.000000;1.008602
9098.000000;1.008717
9097.000000;1.008265
9096.000000;1.007307
9095.000000;1.006413
9094.000000;1.006004
9093.000000;1.005957
9092.000000;1.005864
9091.000000;1.005526
9090.000000;1.005132
9089.000000;1.005014
9088.000000;1.005273
9087.000000;1.005696
9086.000000;1.006004
9085.000000;1.006077
9084.000000;1.005876
9083.000000;1.005325
9082.000000;1.004470
9081.000000;1.003628
9080.000000;1.003091
9079.000000;1.002689
9078.000000;1.001977
9077.000000;1.000946
9076.000000;1.000203
9075.000000;1.000256
9074.000000;1.000853
9073.000000;1.001258
9072.000000;1.001000
9071.000000;1.000197
9070.000000;0.999348
9069.000000;0.999037
9068.000000;0.999560
9067.000000;1.000556
9066.000000;1.001112
9065.000000;1.000575
9064.000000;0.999180
9063.000000;0.997670
9062.000000;0.996502
9061.000000;0.995729
9060.000000;0.995444
9059.000000;0.995807
9058.000000;0.996608
9057.000000;0.997265
9056.000000;0.997402
9055.000000;0.997121
9054.000000;0.996603
9053.000000;0.995793
