Criado como novo conjunto de dados;"1909daniel.spp","-4292805.2 Secs"
cm-1;Abs
10000.000000;0.841038
9999.000000;0.840203
9998.000000;0.839670
9997.000000;0.839282
9996.000000;0.838666
9995.000000;0.837763
9994.000000;0.836847
9993.000000;0.836284
9992.000000;0.836135
9991.000000;0.836110
9990.000000;0.835743
9989.000000;0.834756
9988.000000;0.833328
9987.000000;0.831993
9986.000000;0.831172
9985.000000;0.830806
9984.000000;0.830534
9983.000000;0.830162
9982.000000;0.829766
9981.000000;0.829336
9980.000000;0.828600
9979.000000;0.827356
9978.000000;0.825828
9977.000000;0.824477
9976.000000;0.823535
9975.000000;0.822877
9974.000000;0.822295
9973.000000;0.821706
9972.000000;0.821098
9971.000000;0.820511
9970.000000;0.820163
9969.000000;0.820372
9968.000000;0.821121
9967.000000;0.821776
9966.000000;0.821508
9965.000000;0.820092
9964.000000;0.818154
9963.000000;0.816587
9962.000000;0.815800
9961.000000;0.815537
9960.000000;0.815242
9959.000000;0.814505
9958.000000;0.813317
9957.000000;0.812057
9956.000000;0.811204
9955.000000;0.810939
9954.000000;0.811003
9953.000000;0.810977
9952.000000;0.810654
9951.000000;0.810092
9950.000000;0.809418
9949.000000;0.808730
9948.000000;0.808148
9947.000000;0.807787
9946.000000;0.807615
9945.000000;0.807416
9944.000000;0.806952
9943.000000;0.806138
9942.000000;0.805085
9941.000000;0.804016
9940.000000;0.803108
9939.000000;0.802329
9938.000000;0.801465
9937.000000;0.800395
9936.000000;0.799276
9935.000000;0.798345
9934.000000;0.797608
9933.000000;0.796905
9932.000000;0.796242
9931.000000;0.795821
9930.000000;0.795670
9929.000000;0.795406
9928.000000;0.794561
9927.000000;0.793086
9926.000000;0.791430
9925.000000;0.790137
9924.000000;0.789417
9923.000000;0.789045
9922.000000;0.788655
9921.000000;0.788105
9920.000000;0.787552
9919.000000;0.787185
9918.000000;0.786961
9917.000000;0.786700
9916.000000;0.786353
9915.000000;0.786020
9914.000000;0.785690
9913.000000;0.785133
9912.000000;0.784153
9911.000000;0.782864
9910.000000;0.781633
9909.000000;0.780775
9908.000000;0.780318
9907.000000;0.780013
9906.000000;0.779559
9905.000000;0.778870
9904.000000;0.778113
9903.000000;0.777460
9902.000000;0.776877
9901.000000;0.776237
9900.000000;0.775561
9899.000000;0.774967
9898.000000;0.774465
9897.000000;0.773994
9896.000000;0.773647
9895.000000;0.773584
9894.000000;0.773642
9893.000000;0.773285
9892.000000;0.772145
9891.000000;0.770483
9890.000000;0.768928
9889.000000;0.767844
9888.000000;0.767125
9887.000000;0.766526
9886.000000;0.765990
9885.000000;0.765605
9884.000000;0.765371
9883.000000;0.765098
9882.000000;0.764535
9881.000000;0.763614
9880.000000;0.762564
9879.000000;0.761759
9878.000000;0.761415
9877.000000;0.761419
9876.000000;0.761445
9875.000000;0.761187
9874.000000;0.760487
9873.000000;0.759372
9872.000000;0.758035
9871.000000;0.756766
9870.000000;0.755783
9869.000000;0.755059
9868.000000;0.754330
9867.000000;0.753335
9866.000000;0.752112
9865.000000;0.751078
9864.000000;0.750737
9863.000000;0.751192
9862.000000;0.751940
9861.000000;0.752205
9860.000000;0.751506
9859.000000;0.749939
9858.000000;0.747996
9857.000000;0.746248
9856.000000;0.745078
9855.000000;0.744529
9854.000000;0.744325
9853.000000;0.744108
9852.000000;0.743703
9851.000000;0.743137
9850.000000;0.742486
9849.000000;0.741800
9848.000000;0.741153
9847.000000;0.740623
9846.000000;0.740202
9845.000000;0.739804
9844.000000;0.739351
9843.000000;0.738770
9842.000000;0.737975
9841.000000;0.737013
9840.000000;0.736175
9839.000000;0.735749
9838.000000;0.735602
9837.000000;0.735210
9836.000000;0.734232
9835.000000;0.732914
9834.000000;0.731814
9833.000000;0.731206
9832.000000;0.730895
9831.000000;0.730538
9830.000000;0.729987
9829.000000;0.729315
9828.000000;0.728629
9827.000000;0.727954
9826.000000;0.727304
9825.000000;0.726799
9824.000000;0.726586
9823.000000;0.726584
9822.000000;0.726409
9821.000000;0.725706
9820.000000;0.724549
9819.000000;0.723374
9818.000000;0.722503
9817.000000;0.721864
9816.000000;0.721201
9815.000000;0.720435
9814.000000;0.719707
9813.000000;0.719148
9812.000000;0.718710
9811.000000;0.718217
9810.000000;0.717527
9809.000000;0.716665
9808.000000;0.715794
9807.000000;0.715057
9806.000000;0.714444
9805.000000;0.713846
9804.000000;0.713183
9803.000000;0.712436
9802.000000;0.711622
9801.000000;0.710853
9800.000000;0.710349
9799.000000;0.710213
9798.000000;0.710177
9797.000000;0.709765
9796.000000;0.708793
9795.000000;0.707592
9794.000000;0.706654
9793.000000;0.706150
9792.000000;0.705889
9791.000000;0.705633
9790.000000;0.705324
9789.000000;0.704979
9788.000000;0.704513
9787.000000;0.703775
9786.000000;0.702779
9785.000000;0.701816
9784.000000;0.701212
9783.000000;0.700954
9782.000000;0.700676
9781.000000;0.700053
9780.000000;0.699120
9779.000000;0.698103
9778.000000;0.697120
9777.000000;0.696204
9776.000000;0.695483
9775.000000;0.695048
9774.000000;0.694705
9773.000000;0.694131
9772.000000;0.693338
9771.000000;0.692695
9770.000000;0.692388
9769.000000;0.692071
9768.000000;0.691252
9767.000000;0.689919
9766.000000;0.688620
9765.000000;0.687944
9764.000000;0.688023
9763.000000;0.688480
9762.000000;0.688759
9761.000000;0.688521
9760.000000;0.687801
9759.000000;0.686859
9758.000000;0.685908
9757.000000;0.685016
9756.000000;0.684168
9755.000000;0.683334
9754.000000;0.682487
9753.000000;0.681659
9752.000000;0.680934
9751.000000;0.680305
9750.000000;0.679575
9749.000000;0.678569
9748.000000;0.677419
9747.000000;0.676486
9746.000000;0.675972
9745.000000;0.675762
9744.000000;0.675597
9743.000000;0.675253
9742.000000;0.674562
9741.000000;0.673540
9740.000000;0.672538
9739.000000;0.671988
9738.000000;0.671837
9737.000000;0.671459
9736.000000;0.670387
9735.000000;0.668964
9734.000000;0.668000
9733.000000;0.667831
9732.000000;0.667967
9731.000000;0.667709
9730.000000;0.666890
9729.000000;0.665900
9728.000000;0.665109
9727.000000;0.664485
9726.000000;0.663791
9725.000000;0.663005
9724.000000;0.662371
9723.000000;0.662031
9722.000000;0.661775
9721.000000;0.661278
9720.000000;0.660498
9719.000000;0.659669
9718.000000;0.658977
9717.000000;0.658412
9716.000000;0.657919
9715.000000;0.657469
9714.000000;0.656905
9713.000000;0.655944
9712.000000;0.654464
9711.000000;0.652726
9710.000000;0.651192
9709.000000;0.650179
9708.000000;0.649710
9707.000000;0.649589
9706.000000;0.649533
9705.000000;0.649332
9704.000000;0.648977
9703.000000;0.648613
9702.000000;0.648337
9701.000000;0.648123
9700.000000;0.647950
9699.000000;0.647846
9698.000000;0.647735
9697.000000;0.647372
9696.000000;0.646575
9695.000000;0.645439
9694.000000;0.644236
9693.000000;0.643204
9692.000000;0.642527
9691.000000;0.642358
9690.000000;0.642628
9689.000000;0.642858
9688.000000;0.642437
9687.000000;0.641190
9686.000000;0.639577
9685.000000;0.638269
9684.000000;0.637575
9683.000000;0.637293
9682.000000;0.636991
9681.000000;0.636366
9680.000000;0.635433
9679.000000;0.634477
9678.000000;0.633800
9677.000000;0.633440
9676.000000;0.633146
9675.000000;0.632675
9674.000000;0.632080
9673.000000;0.631615
9672.000000;0.631363
9671.000000;0.631084
9670.000000;0.630511
9669.000000;0.629676
9668.000000;0.628867
9667.000000;0.628283
9666.000000;0.627843
9665.000000;0.627314
9664.000000;0.626503
9663.000000;0.625374
9662.000000;0.624115
9661.000000;0.623098
9660.000000;0.622585
9659.000000;0.622412
9658.000000;0.622111
9657.000000;0.621418
9656.000000;0.620541
9655.000000;0.619819
9654.000000;0.619263
9653.000000;0.618612
9652.000000;0.617736
9651.000000;0.616802
9650.000000;0.616055
9649.000000;0.615584
9648.000000;0.615317
9647.000000;0.615104
9646.000000;0.614783
9645.000000;0.614255
9644.000000;0.613516
9643.000000;0.612595
9642.000000;0.611534
9641.000000;0.610455
9640.000000;0.609577
9639.000000;0.609056
9638.000000;0.608836
9637.000000;0.608716
9636.000000;0.608490
9635.000000;0.607998
9634.000000;0.607197
9633.000000;0.606259
9632.000000;0.605465
9631.000000;0.604879
9630.000000;0.604267
9629.000000;0.603459
9628.000000;0.602635
9627.000000;0.602082
9626.000000;0.601814
9625.000000;0.601613
9624.000000;0.601308
9623.000000;0.600817
9622.000000;0.600071
9621.000000;0.599196
9620.000000;0.598596
9619.000000;0.598503
9618.000000;0.598506
9617.000000;0.597933
9616.000000;0.596715
9615.000000;0.595514
9614.000000;0.594923
9613.000000;0.594873
9612.000000;0.594905
9611.000000;0.594707
9610.000000;0.594205
9609.000000;0.593430
9608.000000;0.592510
9607.000000;0.591635
9606.000000;0.590835
9605.000000;0.589960
9604.000000;0.588990
9603.000000;0.588186
9602.000000;0.587799
9601.000000;0.587742
9600.000000;0.587685
9599.000000;0.587333
9598.000000;0.586555
9597.000000;0.585411
9596.000000;0.584202
9595.000000;0.583324
9594.000000;0.582921
9593.000000;0.582766
9592.000000;0.582559
9591.000000;0.582202
9590.000000;0.581710
9589.000000;0.581074
9588.000000;0.580353
9587.000000;0.579732
9586.000000;0.579302
9585.000000;0.578897
9584.000000;0.578310
9583.000000;0.577532
9582.000000;0.576656
9581.000000;0.575702
9580.000000;0.574730
9579.000000;0.573973
9578.000000;0.573622
9577.000000;0.573514
9576.000000;0.573272
9575.000000;0.572712
9574.000000;0.571937
9573.000000;0.571079
9572.000000;0.570167
9571.000000;0.569267
9570.000000;0.568541
9569.000000;0.568078
9568.000000;0.567791
9567.000000;0.567558
9566.000000;0.567352
9565.000000;0.567158
9564.000000;0.566869
9563.000000;0.566374
9562.000000;0.565712
9561.000000;0.565047
9560.000000;0.564468
9559.000000;0.563886
9558.000000;0.563192
9557.000000;0.562456
9556.000000;0.561889
9555.000000;0.561567
9554.000000;0.561303
9553.000000;0.560846
9552.000000;0.560153
9551.000000;0.559378
9550.000000;0.558663
9549.000000;0.558074
9548.000000;0.557677
9547.000000;0.557518
9546.000000;0.557515
9545.000000;0.557494
9544.000000;0.557332
9543.000000;0.556937
9542.000000;0.556170
9541.000000;0.554967
9540.000000;0.553586
9539.000000;0.552479
9538.000000;0.551843
9537.000000;0.551455
9536.000000;0.551015
9535.000000;0.550479
9534.000000;0.549952
9533.000000;0.549454
9532.000000;0.548945
9531.000000;0.548458
9530.000000;0.548031
9529.000000;0.547592
9528.000000;0.547032
9527.000000;0.546342
9526.000000;0.545556
9525.000000;0.544654
9524.000000;0.543641
9523.000000;0.542637
9522.000000;0.541780
9521.000000;0.541088
9520.000000;0.540526
9519.000000;0.540141
9518.000000;0.540008
9517.000000;0.540097
9516.000000;0.540292
9515.000000;0.540496
9514.000000;0.540612
9513.000000;0.540492
9512.000000;0.540042
9511.000000;0.539345
9510.000000;0.538576
9509.000000;0.537804
9508.000000;0.536965
9507.000000;0.536003
9506.000000;0.534936
9505.000000;0.533825
9504.000000;0.532764
9503.000000;0.531910
9502.000000;0.531380
9501.000000;0.531111
9500.000000;0.530902
9499.000000;0.530606
9498.000000;0.530260
9497.000000;0.529994
9496.000000;0.529868
9495.000000;0.529796
9494.000000;0.529615
9493.000000;0.529233
9492.000000;0.528680
9491.000000;0.528017
9490.000000;0.527237
9489.000000;0.526350
9488.000000;0.525538
9487.000000;0.525048
9486.000000;0.524869
9485.000000;0.524661
9484.000000;0.524126
9483.000000;0.523341
9482.000000;0.522595
9481.000000;0.521995
9480.000000;0.521406
9479.000000;0.520745
9478.000000;0.520139
9477.000000;0.519722
9476.000000;0.519438
9475.000000;0.519103
9474.000000;0.518594
9473.000000;0.517923
9472.000000;0.517197
9471.000000;0.516567
9470.000000;0.516151
9469.000000;0.515909
9468.000000;0.515622
9467.000000;0.515081
9466.000000;0.514319
9465.000000;0.513607
9464.000000;0.513155
9463.000000;0.512875
9462.000000;0.512493
9461.000000;0.511870
9460.000000;0.511115
9459.000000;0.510384
9458.000000;0.509698
9457.000000;0.509058
9456.000000;0.508601
9455.000000;0.508478
9454.000000;0.508573
9453.000000;0.508538
9452.000000;0.508149
9451.000000;0.507521
9450.000000;0.506880
9449.000000;0.506269
9448.000000;0.505582
9447.000000;0.504856
9446.000000;0.504325
9445.000000;0.504140
9444.000000;0.504118
9443.000000;0.503878
9442.000000;0.503228
9441.000000;0.502345
9440.000000;0.501548
9439.000000;0.500973
9438.000000;0.500566
9437.000000;0.500309
9436.000000;0.500284
9435.000000;0.500465
9434.000000;0.500608
9433.000000;0.500461
9432.000000;0.499951
9431.000000;0.499064
9430.000000;0.497725
9429.000000;0.496012
9428.000000;0.494401
9427.000000;0.493490
9426.000000;0.493427
9425.000000;0.493774
9424.000000;0.493981
9423.000000;0.493819
9422.000000;0.493360
9421.000000;0.492760
9420.000000;0.492178
9419.000000;0.491705
9418.000000;0.491243
9417.000000;0.490613
9416.000000;0.489844
9415.000000;0.489216
9414.000000;0.488866
9413.000000;0.488534
9412.000000;0.487876
9411.000000;0.486931
9410.000000;0.486072
9409.000000;0.485593
9408.000000;0.485491
9407.000000;0.485600
9406.000000;0.485750
9405.000000;0.485775
9404.000000;0.485568
9403.000000;0.485171
9402.000000;0.484706
9401.000000;0.484174
9400.000000;0.483436
9399.000000;0.482467
9398.000000;0.481536
9397.000000;0.481008
9396.000000;0.480963
9395.000000;0.481071
9394.000000;0.480906
9393.000000;0.480332
9392.000000;0.479542
9391.000000;0.478739
9390.000000;0.477919
9389.000000;0.477040
9388.000000;0.476279
9387.000000;0.475923
9386.000000;0.476003
9385.000000;0.476198
9384.000000;0.476176
9383.000000;0.475907
9382.000000;0.475559
9381.000000;0.475210
9380.000000;0.474781
9379.000000;0.474184
9378.000000;0.473425
9377.000000;0.472585
9376.000000;0.471770
9375.000000;0.471058
9374.000000;0.470449
9373.000000;0.469876
9372.000000;0.469319
9371.000000;0.468856
9370.000000;0.468557
9369.000000;0.468376
9368.000000;0.468178
9367.000000;0.467856
9366.000000;0.467375
9365.000000;0.466769
9364.000000;0.466135
9363.000000;0.465590
9362.000000;0.465149
9361.000000;0.464699
9360.000000;0.464143
9359.000000;0.463568
9358.000000;0.463204
9357.000000;0.463203
9356.000000;0.463454
9355.000000;0.463592
9354.000000;0.463237
9353.000000;0.462306
9352.000000;0.461116
9351.000000;0.460116
9350.000000;0.459508
9349.000000;0.459179
9348.000000;0.458954
9347.000000;0.458750
9346.000000;0.458458
9345.000000;0.457904
9344.000000;0.457072
9343.000000;0.456262
9342.000000;0.455831
9341.000000;0.455823
9340.000000;0.455947
9339.000000;0.455918
9338.000000;0.455700
9337.000000;0.455465
9336.000000;0.455388
9335.000000;0.455456
9334.000000;0.455388
9333.000000;0.454819
9332.000000;0.453696
9331.000000;0.452446
9330.000000;0.451592
9329.000000;0.451238
9328.000000;0.451073
9327.000000;0.450851
9326.000000;0.450626
9325.000000;0.450473
9324.000000;0.450224
9323.000000;0.449680
9322.000000;0.448972
9321.000000;0.448465
9320.000000;0.448301
9319.000000;0.448199
9318.000000;0.447793
9317.000000;0.447070
9316.000000;0.446384
9315.000000;0.446044
9314.000000;0.445971
9313.000000;0.445786
9312.000000;0.445218
9311.000000;0.444387
9310.000000;0.443637
9309.000000;0.443132
9308.000000;0.442705
9307.000000;0.442128
9306.000000;0.441450
9305.000000;0.440964
9304.000000;0.440867
9303.000000;0.441062
9302.000000;0.441290
9301.000000;0.441342
9300.000000;0.441112
9299.000000;0.440571
9298.000000;0.439839
9297.000000;0.439188
9296.000000;0.438805
9295.000000;0.438545
9294.000000;0.438087
9293.000000;0.437366
9292.000000;0.436698
9291.000000;0.436412
9290.000000;0.436467
9289.000000;0.436513
9288.000000;0.436253
9287.000000;0.435689
9286.000000;0.435094
9285.000000;0.434806
9284.000000;0.434937
9283.000000;0.435190
9282.000000;0.435062
9281.000000;0.434374
9280.000000;0.433517
9279.000000;0.433034
9278.000000;0.433008
9277.000000;0.433010
9276.000000;0.432614
9275.000000;0.431806
9274.000000;0.430896
9273.000000;0.430207
9272.000000;0.429872
9271.000000;0.429755
9270.000000;0.429549
9269.000000;0.429043
9268.000000;0.428334
9267.000000;0.427693
9266.000000;0.427265
9265.000000;0.427031
9264.000000;0.426993
9263.000000;0.427160
9262.000000;0.427342
9261.000000;0.427204
9260.000000;0.426662
9259.000000;0.425990
9258.000000;0.425438
9257.000000;0.424909
9256.000000;0.424214
9255.000000;0.423441
9254.000000;0.422859
9253.000000;0.422537
9252.000000;0.422304
9251.000000;0.422079
9250.000000;0.422020
9249.000000;0.422261
9248.000000;0.422649
9247.000000;0.422803
9246.000000;0.422425
9245.000000;0.421556
9244.000000;0.420612
9243.000000;0.420098
9242.000000;0.420156
9241.000000;0.420360
9240.000000;0.420098
9239.000000;0.419207
9238.000000;0.418175
9237.000000;0.417648
9236.000000;0.417777
9235.000000;0.418129
9234.000000;0.418168
9233.000000;0.417730
9232.000000;0.417000
9231.000000;0.416172
9230.000000;0.415316
9229.000000;0.414550
9228.000000;0.414119
9227.000000;0.414124
9226.000000;0.414285
9225.000000;0.414169
9224.000000;0.413655
9223.000000;0.413028
9222.000000;0.412606
9221.000000;0.412465
9220.000000;0.412517
9219.000000;0.412656
9218.000000;0.412713
9217.000000;0.412484
9216.000000;0.411954
9215.000000;0.411379
9214.000000;0.411007
9213.000000;0.410816
9212.000000;0.410637
9211.000000;0.410424
9210.000000;0.410237
9209.000000;0.410054
9208.000000;0.409781
9207.000000;0.409408
9206.000000;0.409001
9205.000000;0.408582
9204.000000;0.408167
9203.000000;0.407842
9202.000000;0.407653
9201.000000;0.407449
9200.000000;0.407063
9199.000000;0.406630
9198.000000;0.406495
9197.000000;0.406720
9196.000000;0.406908
9195.000000;0.406609
9194.000000;0.405803
9193.000000;0.404855
9192.000000;0.404119
9191.000000;0.403699
9190.000000;0.403485
9189.000000;0.403323
9188.000000;0.403120
9187.000000;0.402907
9186.000000;0.402775
9185.000000;0.402752
9184.000000;0.402747
9183.000000;0.402650
9182.000000;0.402433
9181.000000;0.402144
9180.000000;0.401846
9179.000000;0.401593
9178.000000;0.401379
9177.000000;0.401103
9176.000000;0.400657
9175.000000;0.400082
9174.000000;0.399566
9173.000000;0.399221
9172.000000;0.398966
9171.000000;0.398685
9170.000000;0.398423
9169.000000;0.398302
9168.000000;0.398295
9167.000000;0.398220
9166.000000;0.397952
9165.000000;0.397544
9164.000000;0.397103
9163.000000;0.396637
9162.000000;0.396102
9161.000000;0.395559
9160.000000;0.395192
9159.000000;0.395129
9158.000000;0.395250
9157.000000;0.395232
9156.000000;0.394835
9155.000000;0.394175
9154.000000;0.393649
9153.000000;0.393557
9152.000000;0.393807
9151.000000;0.394019
9150.000000;0.393880
9149.000000;0.393356
9148.000000;0.392610
9147.000000;0.391848
9146.000000;0.391254
9145.000000;0.390954
9144.000000;0.390945
9143.000000;0.391044
9142.000000;0.391004
9141.000000;0.390700
9140.000000;0.390222
9139.000000;0.389800
9138.000000;0.389626
9137.000000;0.389722
9136.000000;0.389919
9135.000000;0.389946
9134.000000;0.389594
9133.000000;0.388861
9132.000000;0.388005
9131.000000;0.387441
9130.000000;0.387478
9129.000000;0.388023
9128.000000;0.388565
9127.000000;0.388560
9126.000000;0.387942
9125.000000;0.387199
9124.000000;0.386878
9123.000000;0.387004
9122.000000;0.387085
9121.000000;0.386687
9120.000000;0.385903
9119.000000;0.385195
9118.000000;0.384881
9117.000000;0.384855
9116.000000;0.384825
9115.000000;0.384670
9114.000000;0.384503
9113.000000;0.384442
9112.000000;0.384438
9111.000000;0.384340
9110.000000;0.384054
9109.000000;0.383612
9108.000000;0.383135
9107.000000;0.382787
9106.000000;0.382704
9105.000000;0.382880
9104.000000;0.383092
9103.000000;0.383041
9102.000000;0.382634
9101.000000;0.382099
9100.000000;0.381744
9099.000000;0.381646
9098.000000;0.381631
9097.000000;0.381507
9096.000000;0.381220
9095.000000;0.380816
9094.000000;0.380347
9093.000000;0.379852
9092.000000;0.379363
9091.000000;0.378863
9090.000000;0.378329
9089.000000;0.377839
9088.000000;0.377565
9087.000000;0.377590
9086.000000;0.377768
9085.000000;0.377826
9084.000000;0.377591
9083.000000;0.377097
9082.000000;0.376535
9081.000000;0.376130
9080.000000;0.375987
9079.000000;0.375964
9078.000000;0.375747
9077.000000;0.375181
9076.000000;0.374499
9075.000000;0.374111
9074.000000;0.374181
9073.000000;0.374510
9072.000000;0.374845
9071.000000;0.375117
9070.000000;0.375357
9069.000000;0.375514
9068.000000;0.375505
9067.000000;0.375353
9066.000000;0.375137
9065.000000;0.374832
9064.000000;0.374297
9063.000000;0.373458
9062.000000;0.372463
9061.000000;0.371651
9060.000000;0.371344
9059.000000;0.371625
9058.000000;0.372230
9057.000000;0.372724
9056.000000;0.372835
9055.000000;0.372645
9054.000000;0.372403
9053.000000;0.372222
