Criado como novo conjunto de dados;"1909daniel.spp","-4264723.7 Secs"
cm-1;Abs
10000.000000;1.833930
9999.000000;1.831344
9998.000000;1.828773
9997.000000;1.826219
9996.000000;1.823676
9995.000000;1.821154
9994.000000;1.818636
9993.000000;1.816153
9992.000000;1.813624
9991.000000;1.812774
9990.000000;1.812933
9989.000000;1.812689
9988.000000;1.811652
9987.000000;1.810496
9986.000000;1.809756
9985.000000;1.809285
9984.000000;1.808830
9983.000000;1.808357
9982.000000;1.807654
9981.000000;1.806337
9980.000000;1.804472
9979.000000;1.802615
9978.000000;1.801195
9977.000000;1.800491
9976.000000;1.801011
9975.000000;1.802945
9974.000000;1.805110
9973.000000;1.805471
9972.000000;1.803369
9971.000000;1.800433
9970.000000;1.798721
9969.000000;1.798799
9968.000000;1.799916
9967.000000;1.801149
9966.000000;1.801801
9965.000000;1.801424
9964.000000;1.800261
9963.000000;1.799124
9962.000000;1.798128
9961.000000;1.796127
9960.000000;1.792367
9959.000000;1.788192
9958.000000;1.785962
9957.000000;1.786471
9956.000000;1.788357
9955.000000;1.790003
9954.000000;1.791116
9953.000000;1.792043
9952.000000;1.792413
9951.000000;1.791358
9950.000000;1.788876
9949.000000;1.786331
9948.000000;1.785406
9947.000000;1.786661
9946.000000;1.788961
9945.000000;1.790279
9944.000000;1.789330
9943.000000;1.786672
9942.000000;1.784150
9941.000000;1.783046
9940.000000;1.782733
9939.000000;1.781358
9938.000000;1.778047
9937.000000;1.774166
9936.000000;1.772062
9935.000000;1.772669
9934.000000;1.774604
9933.000000;1.775671
9932.000000;1.775038
9931.000000;1.773717
9930.000000;1.773105
9929.000000;1.773301
9928.000000;1.772885
9927.000000;1.770427
9926.000000;1.766303
9925.000000;1.762760
9924.000000;1.761768
9923.000000;1.762892
9922.000000;1.763821
9921.000000;1.763228
9920.000000;1.762351
9919.000000;1.763178
9918.000000;1.765903
9917.000000;1.768943
9916.000000;1.770842
9915.000000;1.771166
9914.000000;1.769860
9913.000000;1.766974
9912.000000;1.763191
9911.000000;1.759583
9910.000000;1.756527
9909.000000;1.753657
9908.000000;1.751078
9907.000000;1.749710
9906.000000;1.750070
9905.000000;1.751600
9904.000000;1.753552
9903.000000;1.755707
9902.000000;1.757714
9901.000000;1.758563
9900.000000;1.757615
9899.000000;1.755539
9898.000000;1.753414
9897.000000;1.751461
9896.000000;1.749398
9895.000000;1.747496
9894.000000;1.746338
9893.000000;1.745830
9892.000000;1.745299
9891.000000;1.744493
9890.000000;1.743805
9889.000000;1.743591
9888.000000;1.743871
9887.000000;1.744494
9886.000000;1.744863
9885.000000;1.743734
9884.000000;1.740399
9883.000000;1.736287
9882.000000;1.734274
9881.000000;1.735858
9880.000000;1.739445
9879.000000;1.741752
9878.000000;1.740755
9877.000000;1.737026
9876.000000;1.732564
9875.000000;1.729066
9874.000000;1.727212
9873.000000;1.726741
9872.000000;1.726789
9871.000000;1.726572
9870.000000;1.726150
9869.000000;1.726284
9868.000000;1.727225
9867.000000;1.727966
9866.000000;1.727166
9865.000000;1.724891
9864.000000;1.722867
9863.000000;1.722696
9862.000000;1.724257
9861.000000;1.726057
9860.000000;1.726745
9859.000000;1.725919
9858.000000;1.723760
9857.000000;1.720683
9856.000000;1.717374
9855.000000;1.714542
9854.000000;1.712553
9853.000000;1.711661
9852.000000;1.712332
9851.000000;1.714635
9850.000000;1.717413
9849.000000;1.718904
9848.000000;1.718489
9847.000000;1.717150
9846.000000;1.715956
9845.000000;1.714938
9844.000000;1.713797
9843.000000;1.712830
9842.000000;1.712486
9841.000000;1.712642
9840.000000;1.712991
9839.000000;1.713507
9838.000000;1.713753
9837.000000;1.712410
9836.000000;1.708785
9835.000000;1.704574
9834.000000;1.702729
9833.000000;1.704254
9832.000000;1.706921
9831.000000;1.707548
9830.000000;1.705199
9829.000000;1.701668
9828.000000;1.699299
9827.000000;1.698993
9826.000000;1.700021
9825.000000;1.701121
9824.000000;1.701739
9823.000000;1.702267
9822.000000;1.703100
9821.000000;1.703754
9820.000000;1.703291
9819.000000;1.701639
9818.000000;1.699852
9817.000000;1.698808
9816.000000;1.698250
9815.000000;1.697474
9814.000000;1.696455
9813.000000;1.695710
9812.000000;1.695351
9811.000000;1.694883
9810.000000;1.693818
9809.000000;1.692036
9808.000000;1.689548
9807.000000;1.686437
9806.000000;1.683253
9805.000000;1.680959
9804.000000;1.680241
9803.000000;1.681059
9802.000000;1.682977
9801.000000;1.685557
9800.000000;1.688063
9799.000000;1.689239
9798.000000;1.688236
9797.000000;1.685799
9796.000000;1.683691
9795.000000;1.682763
9794.000000;1.682224
9793.000000;1.680853
9792.000000;1.678331
9791.000000;1.675222
9790.000000;1.672264
9789.000000;1.670239
9788.000000;1.669956
9787.000000;1.671411
9786.000000;1.673205
9785.000000;1.673757
9784.000000;1.673234
9783.000000;1.673332
9782.000000;1.674870
9781.000000;1.676482
9780.000000;1.676306
9779.000000;1.674435
9778.000000;1.672760
9777.000000;1.672458
9776.000000;1.672571
9775.000000;1.671467
9774.000000;1.669082
9773.000000;1.667065
9772.000000;1.666705
9771.000000;1.667257
9770.000000;1.666777
9769.000000;1.664479
9768.000000;1.661715
9767.000000;1.660372
9766.000000;1.660619
9765.000000;1.660683
9764.000000;1.658915
9763.000000;1.655802
9762.000000;1.653597
9761.000000;1.654053
9760.000000;1.656791
9759.000000;1.659807
9758.000000;1.661345
9757.000000;1.661139
9756.000000;1.659909
9755.000000;1.658172
9754.000000;1.656002
9753.000000;1.653629
9752.000000;1.651592
9751.000000;1.650189
9750.000000;1.649390
9749.000000;1.649483
9748.000000;1.651069
9747.000000;1.653867
9746.000000;1.656056
9745.000000;1.655663
9744.000000;1.652601
9743.000000;1.648700
9742.000000;1.645771
9741.000000;1.644324
9740.000000;1.644031
9739.000000;1.644343
9738.000000;1.644362
9737.000000;1.643035
9736.000000;1.640186
9735.000000;1.636936
9734.000000;1.634617
9733.000000;1.633585
9732.000000;1.633345
9731.000000;1.633528
9730.000000;1.634325
9729.000000;1.635969
9728.000000;1.638108
9727.000000;1.639744
9726.000000;1.639755
9725.000000;1.637686
9724.000000;1.634304
9723.000000;1.631371
9722.000000;1.630586
9721.000000;1.632403
9720.000000;1.635587
9719.000000;1.637947
9718.000000;1.637918
9717.000000;1.635738
9716.000000;1.632965
9715.000000;1.630851
9714.000000;1.629469
9713.000000;1.628430
9712.000000;1.627837
9711.000000;1.628034
9710.000000;1.628672
9709.000000;1.628699
9708.000000;1.627436
9707.000000;1.625172
9706.000000;1.622449
9705.000000;1.619369
9704.000000;1.616104
9703.000000;1.613614
9702.000000;1.613124
9701.000000;1.614750
9700.000000;1.617025
9699.000000;1.618043
9698.000000;1.617167
9697.000000;1.615574
9696.000000;1.614966
9695.000000;1.615721
9694.000000;1.616446
9693.000000;1.615559
9692.000000;1.613206
9691.000000;1.611252
9690.000000;1.611401
9689.000000;1.613625
9688.000000;1.616371
9687.000000;1.617937
9686.000000;1.617661
9685.000000;1.616060
9684.000000;1.614010
9683.000000;1.611906
9682.000000;1.609669
9681.000000;1.607459
9680.000000;1.605867
9679.000000;1.605083
9678.000000;1.604379
9677.000000;1.602985
9676.000000;1.601258
9675.000000;1.600300
9674.000000;1.600446
9673.000000;1.600746
9672.000000;1.600115
9671.000000;1.598454
9670.000000;1.596540
9669.000000;1.595328
9668.000000;1.595523
9667.000000;1.597190
9666.000000;1.599382
9665.000000;1.600522
9664.000000;1.599590
9663.000000;1.596856
9662.000000;1.593473
9661.000000;1.590685
9660.000000;1.589384
9659.000000;1.589752
9658.000000;1.591065
9657.000000;1.592297
9656.000000;1.593006
9655.000000;1.593214
9654.000000;1.592608
9653.000000;1.590652
9652.000000;1.587636
9651.000000;1.584841
9650.000000;1.583238
9649.000000;1.582506
9648.000000;1.581852
9647.000000;1.581257
9646.000000;1.581196
9645.000000;1.581474
9644.000000;1.581163
9643.000000;1.579724
9642.000000;1.577688
9641.000000;1.576146
9640.000000;1.575876
9639.000000;1.576825
9638.000000;1.578088
9637.000000;1.578576
9636.000000;1.578078
9635.000000;1.577512
9634.000000;1.577813
9633.000000;1.578782
9632.000000;1.579401
9631.000000;1.579068
9630.000000;1.578008
9629.000000;1.576676
9628.000000;1.575392
9627.000000;1.574408
9626.000000;1.573696
9625.000000;1.572630
9624.000000;1.570493
9623.000000;1.567477
9622.000000;1.564700
9621.000000;1.563034
9620.000000;1.562342
9619.000000;1.562069
9618.000000;1.562147
9617.000000;1.562906
9616.000000;1.564258
9615.000000;1.565448
9614.000000;1.565665
9613.000000;1.564709
9612.000000;1.562989
9611.000000;1.561079
9610.000000;1.559512
9609.000000;1.558876
9608.000000;1.559650
9607.000000;1.561687
9606.000000;1.563997
9605.000000;1.565329
9604.000000;1.565034
9603.000000;1.563309
9602.000000;1.560723
9601.000000;1.557791
9600.000000;1.554966
9599.000000;1.552659
9598.000000;1.551096
9597.000000;1.550249
9596.000000;1.549934
9595.000000;1.549849
9594.000000;1.549628
9593.000000;1.549071
9592.000000;1.548413
9591.000000;1.548088
9590.000000;1.548138
9589.000000;1.548189
9588.000000;1.548038
9587.000000;1.547798
9586.000000;1.547337
9585.000000;1.546114
9584.000000;1.544011
9583.000000;1.541997
9582.000000;1.541409
9581.000000;1.542535
9580.000000;1.544081
9579.000000;1.544176
9578.000000;1.542057
9577.000000;1.538801
9576.000000;1.536337
9575.000000;1.535711
9574.000000;1.536271
9573.000000;1.536597
9572.000000;1.536050
9571.000000;1.535085
9570.000000;1.534227
9569.000000;1.533395
9568.000000;1.532381
9567.000000;1.531417
9566.000000;1.530929
9565.000000;1.531029
9564.000000;1.531585
9563.000000;1.532461
9562.000000;1.533344
9561.000000;1.533588
9560.000000;1.532705
9559.000000;1.530968
9558.000000;1.529218
9557.000000;1.528060
9556.000000;1.527475
9555.000000;1.527131
9554.000000;1.526860
9553.000000;1.526815
9552.000000;1.527101
9551.000000;1.527251
9550.000000;1.526425
9549.000000;1.524433
9548.000000;1.522259
9547.000000;1.521006
9546.000000;1.520439
9545.000000;1.519304
9544.000000;1.517175
9543.000000;1.515182
9542.000000;1.514549
9541.000000;1.515184
9540.000000;1.516216
9539.000000;1.517269
9538.000000;1.518406
9537.000000;1.519248
9536.000000;1.519147
9535.000000;1.518187
9534.000000;1.517313
9533.000000;1.517287
9532.000000;1.517934
9531.000000;1.518399
9530.000000;1.517743
9529.000000;1.515420
9528.000000;1.511732
9527.000000;1.507915
9526.000000;1.505327
9525.000000;1.504361
9524.000000;1.504306
9523.000000;1.504244
9522.000000;1.503830
9521.000000;1.503279
9520.000000;1.503014
9519.000000;1.503335
9518.000000;1.504119
9517.000000;1.504793
9516.000000;1.504890
9515.000000;1.504596
9514.000000;1.504460
9513.000000;1.504629
9512.000000;1.504670
9511.000000;1.504114
9510.000000;1.502974
9509.000000;1.501702
9508.000000;1.500803
9507.000000;1.500474
9506.000000;1.500432
9505.000000;1.500161
9504.000000;1.499515
9503.000000;1.498931
9502.000000;1.498756
9501.000000;1.498563
9500.000000;1.497595
9499.000000;1.495849
9498.000000;1.494260
9497.000000;1.493732
9496.000000;1.494361
9495.000000;1.495572
9494.000000;1.496579
9493.000000;1.496687
9492.000000;1.495557
9491.000000;1.493497
9490.000000;1.491305
9489.000000;1.489691
9488.000000;1.488897
9487.000000;1.488759
9486.000000;1.488843
9485.000000;1.488490
9484.000000;1.487088
9483.000000;1.484683
9482.000000;1.482199
9481.000000;1.480747
9480.000000;1.480633
9479.000000;1.481062
9478.000000;1.480934
9477.000000;1.479985
9476.000000;1.479015
9475.000000;1.478910
9474.000000;1.479650
9473.000000;1.480491
9472.000000;1.480980
9471.000000;1.481223
9470.000000;1.481083
9469.000000;1.479897
9468.000000;1.477534
9467.000000;1.475129
9466.000000;1.474008
9465.000000;1.474154
9464.000000;1.474449
9463.000000;1.474205
9462.000000;1.473668
9461.000000;1.473088
9460.000000;1.472230
9459.000000;1.471079
9458.000000;1.470262
9457.000000;1.470321
9456.000000;1.471023
9455.000000;1.471687
9454.000000;1.471810
9453.000000;1.471166
9452.000000;1.469793
9451.000000;1.468179
9450.000000;1.467025
9449.000000;1.466473
9448.000000;1.465973
9447.000000;1.465247
9446.000000;1.464774
9445.000000;1.464778
9444.000000;1.464377
9443.000000;1.462665
9442.000000;1.460298
9441.000000;1.458993
9440.000000;1.459444
9439.000000;1.460555
9438.000000;1.460911
9437.000000;1.460358
9436.000000;1.459723
9435.000000;1.459529
9434.000000;1.459509
9433.000000;1.459087
9432.000000;1.457913
9431.000000;1.456000
9430.000000;1.453681
9429.000000;1.451511
9428.000000;1.450075
9427.000000;1.449790
9426.000000;1.450700
9425.000000;1.452280
9424.000000;1.453493
9423.000000;1.453421
9422.000000;1.452088
9421.000000;1.450513
9420.000000;1.449719
9419.000000;1.449742
9418.000000;1.449808
9417.000000;1.449268
9416.000000;1.448098
9415.000000;1.446667
9414.000000;1.445409
9413.000000;1.444718
9412.000000;1.444757
9411.000000;1.445159
9410.000000;1.445136
9409.000000;1.444115
9408.000000;1.442273
9407.000000;1.440378
9406.000000;1.439161
9405.000000;1.438900
9404.000000;1.439441
9403.000000;1.440463
9402.000000;1.441668
9401.000000;1.442688
9400.000000;1.442875
9399.000000;1.441534
9398.000000;1.438761
9397.000000;1.435921
9396.000000;1.434695
9395.000000;1.435412
9394.000000;1.436750
9393.000000;1.437382
9392.000000;1.437477
9391.000000;1.438037
9390.000000;1.439157
9389.000000;1.439820
9388.000000;1.439363
9387.000000;1.438319
9386.000000;1.437572
9385.000000;1.437411
9384.000000;1.437689
9383.000000;1.438137
9382.000000;1.438102
9381.000000;1.436677
9380.000000;1.433894
9379.000000;1.431312
9378.000000;1.430405
9377.000000;1.430675
9376.000000;1.430273
9375.000000;1.428452
9374.000000;1.426479
9373.000000;1.425894
9372.000000;1.426700
9371.000000;1.427639
9370.000000;1.427627
9369.000000;1.426493
9368.000000;1.424730
9367.000000;1.423074
9366.000000;1.422142
9365.000000;1.421996
9364.000000;1.422111
9363.000000;1.421978
9362.000000;1.421627
9361.000000;1.421392
9360.000000;1.421427
9359.000000;1.421726
9358.000000;1.422352
9357.000000;1.423199
9356.000000;1.423635
9355.000000;1.422910
9354.000000;1.421021
9353.000000;1.418914
9352.000000;1.417718
9351.000000;1.417912
9350.000000;1.419081
9349.000000;1.420253
9348.000000;1.420507
9347.000000;1.419514
9346.000000;1.417632
9345.000000;1.415459
9344.000000;1.413405
9343.000000;1.411725
9342.000000;1.410629
9341.000000;1.410036
9340.000000;1.409483
9339.000000;1.408714
9338.000000;1.408243
9337.000000;1.408832
9336.000000;1.410386
9335.000000;1.411796
9334.000000;1.412017
9333.000000;1.411064
9332.000000;1.409878
9331.000000;1.409476
9330.000000;1.410279
9329.000000;1.411855
9328.000000;1.413093
9327.000000;1.412933
9326.000000;1.411214
9325.000000;1.408738
9324.000000;1.406473
9323.000000;1.404934
9322.000000;1.404268
9321.000000;1.404384
9320.000000;1.404746
9319.000000;1.404525
9318.000000;1.403436
9317.000000;1.402149
9316.000000;1.401480
9315.000000;1.401425
9314.000000;1.401402
9313.000000;1.401162
9312.000000;1.400900
9311.000000;1.400567
9310.000000;1.399750
9309.000000;1.398440
9308.000000;1.397335
9307.000000;1.397049
9306.000000;1.397408
9305.000000;1.397753
9304.000000;1.397674
9303.000000;1.397199
9302.000000;1.396500
9301.000000;1.395672
9300.000000;1.394698
9299.000000;1.393512
9298.000000;1.392217
9297.000000;1.391271
9296.000000;1.391215
9295.000000;1.392020
9294.000000;1.392932
9293.000000;1.393178
9292.000000;1.392699
9291.000000;1.392008
9290.000000;1.391563
9289.000000;1.391451
9288.000000;1.391524
9287.000000;1.391556
9286.000000;1.391326
9285.000000;1.390682
9284.000000;1.389544
9283.000000;1.387868
9282.000000;1.385809
9281.000000;1.383987
9280.000000;1.383339
9279.000000;1.384368
9278.000000;1.386535
9277.000000;1.388494
9276.000000;1.388999
9275.000000;1.387696
9274.000000;1.385312
9273.000000;1.383200
9272.000000;1.382408
9271.000000;1.382905
9270.000000;1.383756
9269.000000;1.384182
9268.000000;1.384207
9267.000000;1.384123
9266.000000;1.383717
9265.000000;1.382543
9264.000000;1.380767
9263.000000;1.379209
9262.000000;1.378531
9261.000000;1.378699
9260.000000;1.379223
9259.000000;1.379615
9258.000000;1.379617
9257.000000;1.379288
9256.000000;1.378902
9255.000000;1.378522
9254.000000;1.377779
9253.000000;1.376386
9252.000000;1.374777
9251.000000;1.373736
9250.000000;1.373375
9249.000000;1.372995
9248.000000;1.372094
9247.000000;1.371014
9246.000000;1.370274
9245.000000;1.369753
9244.000000;1.369018
9243.000000;1.368134
9242.000000;1.367623
9241.000000;1.367687
9240.000000;1.368013
9239.000000;1.368380
9238.000000;1.368989
9237.000000;1.369924
9236.000000;1.370631
9235.000000;1.370340
9234.000000;1.369022
9233.000000;1.367595
9232.000000;1.366974
9231.000000;1.367072
9230.000000;1.366934
9229.000000;1.365908
9228.000000;1.364460
9227.000000;1.363608
9226.000000;1.363721
9225.000000;1.364152
9224.000000;1.364070
9223.000000;1.363349
9222.000000;1.362496
9221.000000;1.361993
9220.000000;1.361978
9219.000000;1.362397
9218.000000;1.363085
9217.000000;1.363643
9216.000000;1.363477
9215.000000;1.362140
9214.000000;1.359734
9213.000000;1.357090
9212.000000;1.355496
9211.000000;1.355957
9210.000000;1.358311
9209.000000;1.361064
9208.000000;1.362424
9207.000000;1.361772
9206.000000;1.360023
9205.000000;1.358521
9204.000000;1.357865
9203.000000;1.357824
9202.000000;1.357998
9201.000000;1.358152
9200.000000;1.358038
9199.000000;1.357475
9198.000000;1.356698
9197.000000;1.356240
9196.000000;1.356242
9195.000000;1.356124
9194.000000;1.355210
9193.000000;1.353632
9192.000000;1.352338
9191.000000;1.352107
9190.000000;1.352679
9189.000000;1.352961
9188.000000;1.352122
9187.000000;1.350541
9186.000000;1.349583
9185.000000;1.350342
9184.000000;1.352530
9183.000000;1.354690
9182.000000;1.355534
9181.000000;1.354905
9180.000000;1.353436
9179.000000;1.351718
9178.000000;1.350140
9177.000000;1.349153
9176.000000;1.349117
9175.000000;1.349838
9174.000000;1.350628
9173.000000;1.350923
9172.000000;1.350578
9171.000000;1.349667
9170.000000;1.348413
9169.000000;1.347289
9168.000000;1.346677
9167.000000;1.346307
9166.000000;1.345551
9165.000000;1.344434
9164.000000;1.343840
9163.000000;1.344391
9162.000000;1.345662
9161.000000;1.346832
9160.000000;1.347618
9159.000000;1.348030
9158.000000;1.347630
9157.000000;1.345888
9156.000000;1.343228
9155.000000;1.340938
9154.000000;1.339873
9153.000000;1.339740
9152.000000;1.339794
9151.000000;1.339756
9150.000000;1.339749
9149.000000;1.339715
9148.000000;1.339345
9147.000000;1.338499
9146.000000;1.337459
9145.000000;1.336770
9144.000000;1.336851
9143.000000;1.337688
9142.000000;1.338840
9141.000000;1.339754
9140.000000;1.340089
9139.000000;1.339780
9138.000000;1.338882
9137.000000;1.337532
9136.000000;1.335994
9135.000000;1.334553
9134.000000;1.333337
9133.000000;1.332330
9132.000000;1.331529
9131.000000;1.330973
9130.000000;1.330661
9129.000000;1.330545
9128.000000;1.330656
9127.000000;1.331115
9126.000000;1.331958
9125.000000;1.332934
9124.000000;1.333532
9123.000000;1.333344
9122.000000;1.332560
9121.000000;1.332015
9120.000000;1.332488
9119.000000;1.333822
9118.000000;1.334944
9117.000000;1.334994
9116.000000;1.334200
9115.000000;1.333415
9114.000000;1.333105
9113.000000;1.333009
9112.000000;1.332626
9111.000000;1.331742
9110.000000;1.330560
9109.000000;1.329598
9108.000000;1.329440
9107.000000;1.330285
9106.000000;1.331726
9105.000000;1.333131
9104.000000;1.334142
9103.000000;1.334629
9102.000000;1.334371
9101.000000;1.333235
9100.000000;1.331646
9099.000000;1.330401
9098.000000;1.329805
9097.000000;1.329285
9096.000000;1.328001
9095.000000;1.325692
9094.000000;1.322932
9093.000000;1.320767
9092.000000;1.320041
9091.000000;1.320794
9090.000000;1.322217
9089.000000;1.323398
9088.000000;1.324171
9087.000000;1.325101
9086.000000;1.326677
9085.000000;1.328701
9084.000000;1.330354
9083.000000;1.330665
9082.000000;1.329097
9081.000000;1.326050
9080.000000;1.322813
9079.000000;1.320691
9078.000000;1.320024
9077.000000;1.320169
9076.000000;1.320273
9075.000000;1.319889
9074.000000;1.319060
9073.000000;1.318191
9072.000000;1.317808
9071.000000;1.318122
9070.000000;1.318811
9069.000000;1.319491
9068.000000;1.320217
9067.000000;1.321124
9066.000000;1.321765
9065.000000;1.321432
9064.000000;1.320125
9063.000000;1.318579
9062.000000;1.317262
9061.000000;1.316015
9060.000000;1.314869
9059.000000;1.314487
9058.000000;1.315344
9057.000000;1.316967
9056.000000;1.318396
9055.000000;1.319059
9054.000000;1.318818
9053.000000;1.317654
