Criado como novo conjunto de dados;"1909daniel.spp","-4261303.5 Secs"
cm-1;Abs
10000.000000;1.830110
9999.000000;1.829495
9998.000000;1.831550
9997.000000;1.834520
9996.000000;1.835576
9995.000000;1.834029
9994.000000;1.830673
9993.000000;1.827341
9992.000000;1.825110
9991.000000;1.824112
9990.000000;1.823306
9989.000000;1.821576
9988.000000;1.818959
9987.000000;1.816647
9986.000000;1.815390
9985.000000;1.814619
9984.000000;1.813649
9983.000000;1.813065
9982.000000;1.814092
9981.000000;1.816858
9980.000000;1.820023
9979.000000;1.822042
9978.000000;1.822163
9977.000000;1.820345
9976.000000;1.816999
9975.000000;1.813019
9974.000000;1.809541
9973.000000;1.807467
9972.000000;1.807278
9971.000000;1.808904
9970.000000;1.811260
9969.000000;1.812464
9968.000000;1.811545
9967.000000;1.809763
9966.000000;1.809071
9965.000000;1.809419
9964.000000;1.808901
9963.000000;1.806762
9962.000000;1.804699
9961.000000;1.804376
9960.000000;1.805023
9959.000000;1.804632
9958.000000;1.802751
9957.000000;1.800752
9956.000000;1.799777
9955.000000;1.799864
9954.000000;1.800835
9953.000000;1.802550
9952.000000;1.803745
9951.000000;1.802057
9950.000000;1.796718
9949.000000;1.790395
9948.000000;1.786985
9947.000000;1.787891
9946.000000;1.790954
9945.000000;1.792872
9944.000000;1.792399
9943.000000;1.790922
9942.000000;1.790256
9941.000000;1.790579
9940.000000;1.790553
9939.000000;1.789009
9938.000000;1.786194
9937.000000;1.783344
9936.000000;1.781453
9935.000000;1.780784
9934.000000;1.781147
9933.000000;1.781989
9932.000000;1.782198
9931.000000;1.780654
9930.000000;1.777575
9929.000000;1.774924
9928.000000;1.774726
9927.000000;1.776775
9926.000000;1.778453
9925.000000;1.777422
9924.000000;1.774245
9923.000000;1.771519
9922.000000;1.770877
9921.000000;1.771682
9920.000000;1.772246
9919.000000;1.771591
9918.000000;1.769969
9917.000000;1.768363
9916.000000;1.767982
9915.000000;1.769665
9914.000000;1.773043
9913.000000;1.776269
9912.000000;1.777143
9911.000000;1.774863
9910.000000;1.770726
9909.000000;1.767120
9908.000000;1.765697
9907.000000;1.766117
9906.000000;1.766363
9905.000000;1.764718
9904.000000;1.761599
9903.000000;1.759032
9902.000000;1.758361
9901.000000;1.759144
9900.000000;1.760392
9899.000000;1.761954
9898.000000;1.763915
9897.000000;1.765339
9896.000000;1.764952
9895.000000;1.763010
9894.000000;1.761247
9893.000000;1.760751
9892.000000;1.760869
9891.000000;1.760495
9890.000000;1.759627
9889.000000;1.759040
9888.000000;1.758922
9887.000000;1.758446
9886.000000;1.756623
9885.000000;1.753355
9884.000000;1.749682
9883.000000;1.747074
9882.000000;1.746207
9881.000000;1.746279
9880.000000;1.745682
9879.000000;1.743641
9878.000000;1.741268
9877.000000;1.740717
9876.000000;1.743207
9875.000000;1.748043
9874.000000;1.753115
9873.000000;1.755975
9872.000000;1.755133
9871.000000;1.751068
9870.000000;1.745995
9869.000000;1.742312
9868.000000;1.741005
9867.000000;1.741426
9866.000000;1.742260
9865.000000;1.742478
9864.000000;1.741621
9863.000000;1.739780
9862.000000;1.737614
9861.000000;1.736042
9860.000000;1.735480
9859.000000;1.735330
9858.000000;1.734483
9857.000000;1.732641
9856.000000;1.730996
9855.000000;1.731009
9854.000000;1.732646
9853.000000;1.734431
9852.000000;1.735255
9851.000000;1.735398
9850.000000;1.735291
9849.000000;1.734171
9848.000000;1.731008
9847.000000;1.726359
9846.000000;1.722137
9845.000000;1.719542
9844.000000;1.718173
9843.000000;1.717334
9842.000000;1.717278
9841.000000;1.718552
9840.000000;1.720723
9839.000000;1.722468
9838.000000;1.722851
9837.000000;1.721997
9836.000000;1.720608
9835.000000;1.719354
9834.000000;1.718786
9833.000000;1.719385
9832.000000;1.721238
9831.000000;1.723624
9830.000000;1.725169
9829.000000;1.724791
9828.000000;1.722753
9827.000000;1.720475
9826.000000;1.718959
9825.000000;1.717705
9824.000000;1.715679
9823.000000;1.713158
9822.000000;1.711729
9821.000000;1.712165
9820.000000;1.713040
9819.000000;1.712152
9818.000000;1.709045
9817.000000;1.705356
9816.000000;1.702662
9815.000000;1.700922
9814.000000;1.699412
9813.000000;1.698422
9812.000000;1.698985
9811.000000;1.700947
9810.000000;1.702353
9809.000000;1.701497
9808.000000;1.699044
9807.000000;1.697061
9806.000000;1.696251
9805.000000;1.695408
9804.000000;1.693907
9803.000000;1.693239
9802.000000;1.694917
9801.000000;1.697978
9800.000000;1.699922
9799.000000;1.699664
9798.000000;1.698257
9797.000000;1.696774
9796.000000;1.695029
9795.000000;1.692693
9794.000000;1.690391
9793.000000;1.688983
9792.000000;1.688505
9791.000000;1.688410
9790.000000;1.688359
9789.000000;1.688289
9788.000000;1.688172
9787.000000;1.688042
9786.000000;1.687909
9785.000000;1.687417
9784.000000;1.686098
9783.000000;1.684246
9782.000000;1.682926
9781.000000;1.682751
9780.000000;1.683220
9779.000000;1.683597
9778.000000;1.683849
9777.000000;1.684188
9776.000000;1.684178
9775.000000;1.682960
9774.000000;1.680281
9773.000000;1.676965
9772.000000;1.674406
9771.000000;1.673661
9770.000000;1.674617
9769.000000;1.675929
9768.000000;1.676265
9767.000000;1.675716
9766.000000;1.675348
9765.000000;1.675370
9764.000000;1.674622
9763.000000;1.672286
9762.000000;1.669283
9761.000000;1.667257
9760.000000;1.666793
9759.000000;1.667268
9758.000000;1.667824
9757.000000;1.667739
9756.000000;1.666463
9755.000000;1.664214
9754.000000;1.662228
9753.000000;1.661559
9752.000000;1.661735
9751.000000;1.661337
9750.000000;1.659904
9749.000000;1.658384
9748.000000;1.657554
9747.000000;1.657084
9746.000000;1.656419
9745.000000;1.655619
9744.000000;1.654901
9743.000000;1.654032
9742.000000;1.652669
9741.000000;1.650886
9740.000000;1.649034
9739.000000;1.647432
9738.000000;1.646458
9737.000000;1.646417
9736.000000;1.646966
9735.000000;1.647125
9734.000000;1.646343
9733.000000;1.645253
9732.000000;1.645004
9731.000000;1.645943
9730.000000;1.647237
9729.000000;1.647802
9728.000000;1.647360
9727.000000;1.646456
9726.000000;1.645677
9725.000000;1.645061
9724.000000;1.644303
9723.000000;1.643390
9722.000000;1.642813
9721.000000;1.642987
9720.000000;1.643592
9719.000000;1.643692
9718.000000;1.642596
9717.000000;1.640481
9716.000000;1.638267
9715.000000;1.636962
9714.000000;1.636955
9713.000000;1.637777
9712.000000;1.638488
9711.000000;1.638399
9710.000000;1.637562
9709.000000;1.636513
9708.000000;1.635448
9707.000000;1.633926
9706.000000;1.631633
9705.000000;1.629166
9704.000000;1.627625
9703.000000;1.627396
9702.000000;1.627722
9701.000000;1.627753
9700.000000;1.627757
9699.000000;1.628651
9698.000000;1.630353
9697.000000;1.631334
9696.000000;1.630212
9695.000000;1.627428
9694.000000;1.624764
9693.000000;1.623440
9692.000000;1.623291
9691.000000;1.623506
9690.000000;1.623359
9689.000000;1.622255
9688.000000;1.619906
9687.000000;1.616936
9686.000000;1.614982
9685.000000;1.615606
9684.000000;1.618962
9683.000000;1.623435
9682.000000;1.626439
9681.000000;1.625987
9680.000000;1.622239
9679.000000;1.617647
9678.000000;1.614983
9677.000000;1.614933
9676.000000;1.615886
9675.000000;1.616075
9674.000000;1.615362
9673.000000;1.614537
9672.000000;1.613641
9671.000000;1.611927
9670.000000;1.609233
9669.000000;1.606465
9668.000000;1.604627
9667.000000;1.604041
9666.000000;1.604464
9665.000000;1.605396
9664.000000;1.606255
9663.000000;1.606503
9662.000000;1.605811
9661.000000;1.604234
9660.000000;1.602299
9659.000000;1.600811
9658.000000;1.600228
9657.000000;1.600188
9656.000000;1.599925
9655.000000;1.599143
9654.000000;1.598121
9653.000000;1.596967
9652.000000;1.595413
9651.000000;1.593598
9650.000000;1.592298
9649.000000;1.591792
9648.000000;1.591182
9647.000000;1.589622
9646.000000;1.587819
9645.000000;1.587386
9644.000000;1.588765
9643.000000;1.590503
9642.000000;1.590724
9641.000000;1.588926
9640.000000;1.586334
9639.000000;1.584893
9638.000000;1.585760
9637.000000;1.588152
9636.000000;1.589697
9635.000000;1.588632
9634.000000;1.585717
9633.000000;1.583318
9632.000000;1.582778
9631.000000;1.583388
9630.000000;1.583761
9629.000000;1.583363
9628.000000;1.582489
9627.000000;1.581543
9626.000000;1.580824
9625.000000;1.580440
9624.000000;1.579897
9623.000000;1.578300
9622.000000;1.575508
9621.000000;1.572740
9620.000000;1.571497
9619.000000;1.572063
9618.000000;1.573442
9617.000000;1.574556
9616.000000;1.575068
9615.000000;1.575097
9614.000000;1.574621
9613.000000;1.573396
9612.000000;1.571380
9611.000000;1.569115
9610.000000;1.567519
9609.000000;1.567111
9608.000000;1.567487
9607.000000;1.567743
9606.000000;1.567337
9605.000000;1.566333
9604.000000;1.564958
9603.000000;1.563417
9602.000000;1.562213
9601.000000;1.562017
9600.000000;1.562789
9599.000000;1.563491
9598.000000;1.563135
9597.000000;1.561893
9596.000000;1.560781
9595.000000;1.560437
9594.000000;1.560575
9593.000000;1.560541
9592.000000;1.560033
9591.000000;1.559236
9590.000000;1.558457
9589.000000;1.557696
9588.000000;1.556538
9587.000000;1.554659
9586.000000;1.552610
9585.000000;1.551798
9584.000000;1.553216
9583.000000;1.556093
9582.000000;1.558113
9581.000000;1.557435
9580.000000;1.554394
9579.000000;1.550904
9578.000000;1.548452
9577.000000;1.546972
9576.000000;1.545634
9575.000000;1.544241
9574.000000;1.543254
9573.000000;1.542676
9572.000000;1.541842
9571.000000;1.540659
9570.000000;1.540303
9569.000000;1.541915
9568.000000;1.544860
9567.000000;1.547047
9566.000000;1.547027
9565.000000;1.545105
9564.000000;1.542379
9563.000000;1.539571
9562.000000;1.537098
9561.000000;1.535533
9560.000000;1.535343
9559.000000;1.536313
9558.000000;1.537615
9557.000000;1.538419
9556.000000;1.538393
9555.000000;1.537820
9554.000000;1.537371
9553.000000;1.537485
9552.000000;1.537748
9551.000000;1.537198
9550.000000;1.535521
9549.000000;1.533571
9548.000000;1.532374
9547.000000;1.531887
9546.000000;1.531217
9545.000000;1.530034
9544.000000;1.529035
9543.000000;1.528783
9542.000000;1.528797
9541.000000;1.528189
9540.000000;1.526994
9539.000000;1.526381
9538.000000;1.527262
9537.000000;1.528928
9536.000000;1.529486
9535.000000;1.527805
9534.000000;1.524811
9533.000000;1.522516
9532.000000;1.521919
9531.000000;1.522089
9530.000000;1.521312
9529.000000;1.518939
9528.000000;1.515973
9527.000000;1.513913
9526.000000;1.513241
9525.000000;1.513143
9524.000000;1.512672
9523.000000;1.511989
9522.000000;1.512137
9521.000000;1.513595
9520.000000;1.515428
9519.000000;1.516133
9518.000000;1.515076
9517.000000;1.512856
9516.000000;1.510569
9515.000000;1.509104
9514.000000;1.508851
9513.000000;1.509539
9512.000000;1.510401
9511.000000;1.510850
9510.000000;1.510905
9509.000000;1.510691
9508.000000;1.509860
9507.000000;1.508117
9506.000000;1.506101
9505.000000;1.504909
9504.000000;1.504724
9503.000000;1.504676
9502.000000;1.504131
9501.000000;1.503387
9500.000000;1.502819
9499.000000;1.502146
9498.000000;1.501029
9497.000000;1.499771
9496.000000;1.498952
9495.000000;1.498900
9494.000000;1.499938
9493.000000;1.502414
9492.000000;1.505680
9491.000000;1.507634
9490.000000;1.506420
9489.000000;1.502561
9488.000000;1.498385
9487.000000;1.495411
9486.000000;1.493234
9485.000000;1.491116
9484.000000;1.489661
9483.000000;1.490144
9482.000000;1.492520
9481.000000;1.494910
9480.000000;1.495367
9479.000000;1.493909
9478.000000;1.492322
9477.000000;1.491964
9476.000000;1.492239
9475.000000;1.491529
9474.000000;1.489377
9473.000000;1.487131
9472.000000;1.486329
9471.000000;1.487031
9470.000000;1.488073
9469.000000;1.488576
9468.000000;1.488731
9467.000000;1.489122
9466.000000;1.489658
9465.000000;1.489411
9464.000000;1.487568
9463.000000;1.484479
9462.000000;1.481583
9461.000000;1.480085
9460.000000;1.479822
9459.000000;1.479754
9458.000000;1.479530
9457.000000;1.479983
9456.000000;1.481763
9455.000000;1.484038
9454.000000;1.485174
9453.000000;1.484442
9452.000000;1.482469
9451.000000;1.480174
9450.000000;1.478012
9449.000000;1.476292
9448.000000;1.475502
9447.000000;1.475902
9446.000000;1.477011
9445.000000;1.477757
9444.000000;1.477273
9443.000000;1.475659
9442.000000;1.473951
9441.000000;1.473103
9440.000000;1.472964
9439.000000;1.472628
9438.000000;1.471863
9437.000000;1.471577
9436.000000;1.472368
9435.000000;1.473219
9434.000000;1.472446
9433.000000;1.469752
9432.000000;1.466529
9431.000000;1.464142
9430.000000;1.462725
9429.000000;1.461766
9428.000000;1.461144
9427.000000;1.461146
9426.000000;1.461869
9425.000000;1.462910
9424.000000;1.463504
9423.000000;1.462874
9422.000000;1.460812
9421.000000;1.458127
9420.000000;1.456229
9419.000000;1.455998
9418.000000;1.457195
9417.000000;1.458967
9416.000000;1.460678
9415.000000;1.462135
9414.000000;1.463240
9413.000000;1.463755
9412.000000;1.463330
9411.000000;1.461720
9410.000000;1.459182
9409.000000;1.456663
9408.000000;1.455306
9407.000000;1.455539
9406.000000;1.456679
9405.000000;1.457522
9404.000000;1.457332
9403.000000;1.456311
9402.000000;1.455183
9401.000000;1.454417
9400.000000;1.453844
9399.000000;1.453089
9398.000000;1.452289
9397.000000;1.452040
9396.000000;1.452529
9395.000000;1.453058
9394.000000;1.452727
9393.000000;1.451346
9392.000000;1.449322
9391.000000;1.447059
9390.000000;1.445093
9389.000000;1.444368
9388.000000;1.445475
9387.000000;1.447693
9386.000000;1.449540
9385.000000;1.450300
9384.000000;1.450293
9383.000000;1.449613
9382.000000;1.447741
9381.000000;1.444803
9380.000000;1.442124
9379.000000;1.440721
9378.000000;1.439989
9377.000000;1.438693
9376.000000;1.436878
9375.000000;1.435835
9374.000000;1.436243
9373.000000;1.437250
9372.000000;1.437571
9371.000000;1.436834
9370.000000;1.435647
9369.000000;1.434877
9368.000000;1.435074
9367.000000;1.436104
9366.000000;1.437014
9365.000000;1.436676
9364.000000;1.434985
9363.000000;1.433158
9362.000000;1.432467
9361.000000;1.432838
9360.000000;1.433053
9359.000000;1.432331
9358.000000;1.431316
9357.000000;1.431191
9356.000000;1.432090
9355.000000;1.432810
9354.000000;1.432232
9353.000000;1.430634
9352.000000;1.429241
9351.000000;1.428701
9350.000000;1.428528
9349.000000;1.428041
9348.000000;1.427269
9347.000000;1.426592
9346.000000;1.425904
9345.000000;1.424655
9344.000000;1.422667
9343.000000;1.420530
9342.000000;1.419098
9341.000000;1.418790
9340.000000;1.419406
9339.000000;1.420489
9338.000000;1.421780
9337.000000;1.423308
9336.000000;1.424960
9335.000000;1.426043
9334.000000;1.425583
9333.000000;1.423296
9332.000000;1.420062
9331.000000;1.417219
9330.000000;1.415513
9329.000000;1.414851
9328.000000;1.414807
9327.000000;1.415020
9326.000000;1.415138
9325.000000;1.414766
9324.000000;1.413720
9323.000000;1.412257
9322.000000;1.410990
9321.000000;1.410607
9320.000000;1.411471
9319.000000;1.413177
9318.000000;1.414544
9317.000000;1.414385
9316.000000;1.412509
9315.000000;1.409955
9314.000000;1.408129
9313.000000;1.407717
9312.000000;1.408303
9311.000000;1.408892
9310.000000;1.408857
9309.000000;1.408468
9308.000000;1.408376
9307.000000;1.408660
9306.000000;1.408641
9305.000000;1.407771
9304.000000;1.406427
9303.000000;1.405442
9302.000000;1.405022
9301.000000;1.404477
9300.000000;1.403050
9299.000000;1.400757
9298.000000;1.398382
9297.000000;1.396847
9296.000000;1.396572
9295.000000;1.397218
9294.000000;1.398009
9293.000000;1.398454
9292.000000;1.398763
9291.000000;1.399370
9290.000000;1.400115
9289.000000;1.400285
9288.000000;1.399520
9287.000000;1.398281
9286.000000;1.397346
9285.000000;1.397173
9284.000000;1.397673
9283.000000;1.398250
9282.000000;1.398079
9281.000000;1.396790
9280.000000;1.395061
9279.000000;1.394145
9278.000000;1.394566
9277.000000;1.395614
9276.000000;1.396341
9275.000000;1.396598
9274.000000;1.396640
9273.000000;1.396196
9272.000000;1.394668
9271.000000;1.392218
9270.000000;1.389915
9269.000000;1.388631
9268.000000;1.388294
9267.000000;1.388347
9266.000000;1.388446
9265.000000;1.388432
9264.000000;1.388115
9263.000000;1.387581
9262.000000;1.387375
9261.000000;1.387876
9260.000000;1.388648
9259.000000;1.388891
9258.000000;1.388492
9257.000000;1.388132
9256.000000;1.388344
9255.000000;1.388965
9254.000000;1.389611
9253.000000;1.390134
9252.000000;1.390356
9251.000000;1.389820
9250.000000;1.388230
9249.000000;1.385950
9248.000000;1.383698
9247.000000;1.381928
9246.000000;1.380801
9245.000000;1.380499
9244.000000;1.381088
9243.000000;1.382103
9242.000000;1.382710
9241.000000;1.382405
9240.000000;1.381362
9239.000000;1.380091
9238.000000;1.379015
9237.000000;1.378329
9236.000000;1.377987
9235.000000;1.377867
9234.000000;1.378144
9233.000000;1.379293
9232.000000;1.381284
9231.000000;1.382954
9230.000000;1.382877
9229.000000;1.380982
9228.000000;1.378653
9227.000000;1.377099
9226.000000;1.376378
9225.000000;1.376230
9224.000000;1.376917
9223.000000;1.378502
9222.000000;1.379926
9221.000000;1.379841
9220.000000;1.378233
9219.000000;1.376336
9218.000000;1.374984
9217.000000;1.373906
9216.000000;1.372687
9215.000000;1.371562
9214.000000;1.370869
9213.000000;1.370286
9212.000000;1.369157
9211.000000;1.367301
9210.000000;1.365133
9209.000000;1.363282
9208.000000;1.362425
9207.000000;1.363085
9206.000000;1.365075
9205.000000;1.367244
9204.000000;1.368231
9203.000000;1.367662
9202.000000;1.366421
9201.000000;1.365725
9200.000000;1.366156
9199.000000;1.367461
9198.000000;1.368886
9197.000000;1.369603
9196.000000;1.369096
9195.000000;1.367477
9194.000000;1.365483
9193.000000;1.363998
9192.000000;1.363447
9191.000000;1.363639
9190.000000;1.364112
9189.000000;1.364575
9188.000000;1.364980
9187.000000;1.365282
9186.000000;1.365292
9185.000000;1.364758
9184.000000;1.363497
9183.000000;1.361515
9182.000000;1.359186
9181.000000;1.357275
9180.000000;1.356501
9179.000000;1.356879
9178.000000;1.357660
9177.000000;1.358125
9176.000000;1.358304
9175.000000;1.358680
9174.000000;1.359369
9173.000000;1.359974
9172.000000;1.360203
9171.000000;1.360242
9170.000000;1.360355
9169.000000;1.360387
9168.000000;1.359920
9167.000000;1.358809
9166.000000;1.357414
9165.000000;1.356296
9164.000000;1.355699
9163.000000;1.355300
9162.000000;1.354563
9161.000000;1.353400
9160.000000;1.352339
9159.000000;1.351909
9158.000000;1.352030
9157.000000;1.352253
9156.000000;1.352468
9155.000000;1.353001
9154.000000;1.353970
9153.000000;1.354964
9152.000000;1.355470
9151.000000;1.355280
9150.000000;1.354391
9149.000000;1.352895
9148.000000;1.351225
9147.000000;1.350216
9146.000000;1.350472
9145.000000;1.351715
9144.000000;1.353043
9143.000000;1.353791
9142.000000;1.353920
9141.000000;1.353654
9140.000000;1.353081
9139.000000;1.352152
9138.000000;1.350830
9137.000000;1.349162
9136.000000;1.347362
9135.000000;1.345844
9134.000000;1.344969
9133.000000;1.344681
9132.000000;1.344551
9131.000000;1.344280
9130.000000;1.343981
9129.000000;1.343894
9128.000000;1.343951
9127.000000;1.343851
9126.000000;1.343585
9125.000000;1.343647
9124.000000;1.344472
9123.000000;1.345674
9122.000000;1.346196
9121.000000;1.345479
9120.000000;1.344281
9119.000000;1.343896
9118.000000;1.344539
9117.000000;1.344987
9116.000000;1.344133
9115.000000;1.342528
9114.000000;1.341824
9113.000000;1.342797
9112.000000;1.344423
9111.000000;1.345042
9110.000000;1.344152
9109.000000;1.342796
9108.000000;1.342391
9107.000000;1.343416
9106.000000;1.345057
9105.000000;1.345826
9104.000000;1.344668
9103.000000;1.341825
9102.000000;1.338713
9101.000000;1.336832
9100.000000;1.336675
9099.000000;1.337503
9098.000000;1.338093
9097.000000;1.337713
9096.000000;1.336452
9095.000000;1.334882
9094.000000;1.333578
9093.000000;1.332925
9092.000000;1.333134
9091.000000;1.334145
9090.000000;1.335473
9089.000000;1.336429
9088.000000;1.336686
9087.000000;1.336547
9086.000000;1.336455
9085.000000;1.336288
9084.000000;1.335461
9083.000000;1.333875
9082.000000;1.332456
9081.000000;1.332303
9080.000000;1.333367
9079.000000;1.334385
9078.000000;1.334243
9077.000000;1.333061
9076.000000;1.331732
9075.000000;1.330706
9074.000000;1.329683
9073.000000;1.328460
9072.000000;1.327536
9071.000000;1.327631
9070.000000;1.328824
9069.000000;1.330439
9068.000000;1.331652
9067.000000;1.332015
9066.000000;1.331557
9065.000000;1.330673
9064.000000;1.329891
9063.000000;1.329489
9062.000000;1.329257
9061.000000;1.328764
9060.000000;1.327896
9059.000000;1.326979
9058.000000;1.326399
9057.000000;1.326344
9056.000000;1.326940
9055.000000;1.328238
9054.000000;1.329847
9053.000000;1.330845
