Criado como novo conjunto de dados;"1909daniel.spp","-4291545.1 Secs"
cm-1;Abs
10000.000000;1.053194
9999.000000;1.050670
9998.000000;1.048605
9997.000000;1.047292
9996.000000;1.046502
9995.000000;1.045873
9994.000000;1.045115
9993.000000;1.044173
9992.000000;1.043269
9991.000000;1.042753
9990.000000;1.042830
9989.000000;1.043353
9988.000000;1.043816
9987.000000;1.043639
9986.000000;1.042580
9985.000000;1.040901
9984.000000;1.039103
9983.000000;1.037599
9982.000000;1.036607
9981.000000;1.036087
9980.000000;1.035674
9979.000000;1.034956
9978.000000;1.034081
9977.000000;1.033804
9976.000000;1.034542
9975.000000;1.035628
9974.000000;1.035939
9973.000000;1.035120
9972.000000;1.033676
9971.000000;1.032068
9970.000000;1.030381
9969.000000;1.028891
9968.000000;1.028198
9967.000000;1.028453
9966.000000;1.028962
9965.000000;1.028923
9964.000000;1.028311
9963.000000;1.027705
9962.000000;1.027411
9961.000000;1.027070
9960.000000;1.026059
9959.000000;1.024140
9958.000000;1.021769
9957.000000;1.019775
9956.000000;1.018669
9955.000000;1.018289
9954.000000;1.018169
9953.000000;1.018046
9952.000000;1.017826
9951.000000;1.017315
9950.000000;1.016399
9949.000000;1.015370
9948.000000;1.014634
9947.000000;1.014139
9946.000000;1.013520
9945.000000;1.012768
9944.000000;1.012289
9943.000000;1.012278
9942.000000;1.012466
9941.000000;1.012528
9940.000000;1.012344
9939.000000;1.011798
9938.000000;1.010831
9937.000000;1.009759
9936.000000;1.009045
9935.000000;1.008590
9934.000000;1.007714
9933.000000;1.006062
9932.000000;1.004122
9931.000000;1.002623
9930.000000;1.001765
9929.000000;1.001224
9928.000000;1.000560
9927.000000;0.999484
9926.000000;0.998071
9925.000000;0.996883
9924.000000;0.996540
9923.000000;0.996967
9922.000000;0.997371
9921.000000;0.997156
9920.000000;0.996538
9919.000000;0.996084
9918.000000;0.996020
9917.000000;0.996202
9916.000000;0.996335
9915.000000;0.995948
9914.000000;0.994577
9913.000000;0.992396
9912.000000;0.990393
9911.000000;0.989471
9910.000000;0.989528
9909.000000;0.989700
9908.000000;0.989362
9907.000000;0.988546
9906.000000;0.987500
9905.000000;0.986269
9904.000000;0.984832
9903.000000;0.983412
9902.000000;0.982491
9901.000000;0.982474
9900.000000;0.983275
9899.000000;0.984235
9898.000000;0.984593
9897.000000;0.984118
9896.000000;0.983140
9895.000000;0.981993
9894.000000;0.980707
9893.000000;0.979293
9892.000000;0.978050
9891.000000;0.977366
9890.000000;0.977342
9889.000000;0.977697
9888.000000;0.977903
9887.000000;0.977382
9886.000000;0.975880
9885.000000;0.973835
9884.000000;0.972140
9883.000000;0.971275
9882.000000;0.970810
9881.000000;0.969975
9880.000000;0.968621
9879.000000;0.967368
9878.000000;0.966801
9877.000000;0.966788
9876.000000;0.966727
9875.000000;0.966324
9874.000000;0.965840
9873.000000;0.965509
9872.000000;0.965033
9871.000000;0.963989
9870.000000;0.962594
9869.000000;0.961583
9868.000000;0.961215
9867.000000;0.960889
9866.000000;0.960050
9865.000000;0.959052
9864.000000;0.958667
9863.000000;0.958985
9862.000000;0.959314
9861.000000;0.959038
9860.000000;0.958068
9859.000000;0.956541
9858.000000;0.954699
9857.000000;0.953103
9856.000000;0.952377
9855.000000;0.952479
9854.000000;0.952643
9853.000000;0.952261
9852.000000;0.951451
9851.000000;0.950598
9850.000000;0.949763
9849.000000;0.948836
9848.000000;0.947942
9847.000000;0.947297
9846.000000;0.946846
9845.000000;0.946381
9844.000000;0.945890
9843.000000;0.945521
9842.000000;0.945237
9841.000000;0.944774
9840.000000;0.943966
9839.000000;0.942941
9838.000000;0.941928
9837.000000;0.940968
9836.000000;0.939920
9835.000000;0.938744
9834.000000;0.937686
9833.000000;0.937082
9832.000000;0.937003
9831.000000;0.937202
9830.000000;0.937389
9829.000000;0.937386
9828.000000;0.936954
9827.000000;0.935820
9826.000000;0.934113
9825.000000;0.932538
9824.000000;0.931800
9823.000000;0.931916
9822.000000;0.932288
9821.000000;0.932368
9820.000000;0.931969
9819.000000;0.931072
9818.000000;0.929683
9817.000000;0.927962
9816.000000;0.926245
9815.000000;0.924882
9814.000000;0.924123
9813.000000;0.924031
9812.000000;0.924327
9811.000000;0.924465
9810.000000;0.924052
9809.000000;0.923170
9808.000000;0.922129
9807.000000;0.921061
9806.000000;0.919961
9805.000000;0.918917
9804.000000;0.918038
9803.000000;0.917267
9802.000000;0.916511
9801.000000;0.915824
9800.000000;0.915210
9799.000000;0.914477
9798.000000;0.913537
9797.000000;0.912657
9796.000000;0.912121
9795.000000;0.911840
9794.000000;0.911583
9793.000000;0.911316
9792.000000;0.910991
9791.000000;0.910310
9790.000000;0.909158
9789.000000;0.907973
9788.000000;0.907184
9787.000000;0.906519
9786.000000;0.905510
9785.000000;0.904440
9784.000000;0.904053
9783.000000;0.904330
9782.000000;0.904335
9781.000000;0.903496
9780.000000;0.902372
9779.000000;0.901843
9778.000000;0.902074
9777.000000;0.902597
9776.000000;0.902968
9775.000000;0.903002
9774.000000;0.902651
9773.000000;0.901982
9772.000000;0.901178
9771.000000;0.900368
9770.000000;0.899542
9769.000000;0.898673
9768.000000;0.897730
9767.000000;0.896587
9766.000000;0.895136
9765.000000;0.893519
9764.000000;0.892053
9763.000000;0.890942
9762.000000;0.890222
9761.000000;0.889901
9760.000000;0.889862
9759.000000;0.889745
9758.000000;0.889263
9757.000000;0.888570
9756.000000;0.887969
9755.000000;0.887349
9754.000000;0.886342
9753.000000;0.885030
9752.000000;0.884067
9751.000000;0.883956
9750.000000;0.884501
9749.000000;0.884993
9748.000000;0.884718
9747.000000;0.883429
9746.000000;0.881644
9745.000000;0.880371
9744.000000;0.880121
9743.000000;0.880217
9742.000000;0.879502
9741.000000;0.877766
9740.000000;0.876003
9739.000000;0.875214
9738.000000;0.875374
9737.000000;0.875659
9736.000000;0.875309
9735.000000;0.874186
9734.000000;0.872831
9733.000000;0.872072
9732.000000;0.872261
9731.000000;0.872812
9730.000000;0.872763
9729.000000;0.871800
9728.000000;0.870430
9727.000000;0.869167
9726.000000;0.868033
9725.000000;0.866905
9724.000000;0.865879
9723.000000;0.865068
9722.000000;0.864375
9721.000000;0.863669
9720.000000;0.862970
9719.000000;0.862353
9718.000000;0.861846
9717.000000;0.861475
9716.000000;0.861215
9715.000000;0.860932
9714.000000;0.860605
9713.000000;0.860474
9712.000000;0.860636
9711.000000;0.860635
9710.000000;0.859867
9709.000000;0.858369
9708.000000;0.856766
9707.000000;0.855499
9706.000000;0.854553
9705.000000;0.853874
9704.000000;0.853469
9703.000000;0.853057
9702.000000;0.852210
9701.000000;0.851045
9700.000000;0.850269
9699.000000;0.850318
9698.000000;0.850855
9697.000000;0.851286
9696.000000;0.851329
9695.000000;0.850894
9694.000000;0.849904
9693.000000;0.848608
9692.000000;0.847688
9691.000000;0.847616
9690.000000;0.848043
9689.000000;0.848102
9688.000000;0.847243
9687.000000;0.845635
9686.000000;0.843877
9685.000000;0.842461
9684.000000;0.841420
9683.000000;0.840443
9682.000000;0.839383
9681.000000;0.838484
9680.000000;0.837928
9679.000000;0.837370
9678.000000;0.836337
9677.000000;0.834983
9676.000000;0.833943
9675.000000;0.833448
9674.000000;0.833073
9673.000000;0.832435
9672.000000;0.831660
9671.000000;0.830989
9670.000000;0.830359
9669.000000;0.829598
9668.000000;0.828732
9667.000000;0.827925
9666.000000;0.827325
9665.000000;0.827043
9664.000000;0.827038
9663.000000;0.826992
9662.000000;0.826577
9661.000000;0.825868
9660.000000;0.825164
9659.000000;0.824506
9658.000000;0.823802
9657.000000;0.823328
9656.000000;0.823462
9655.000000;0.823858
9654.000000;0.823550
9653.000000;0.822197
9652.000000;0.820651
9651.000000;0.819921
9650.000000;0.820029
9649.000000;0.820233
9648.000000;0.819962
9647.000000;0.819152
9646.000000;0.817984
9645.000000;0.816694
9644.000000;0.815514
9643.000000;0.814498
9642.000000;0.813563
9641.000000;0.812820
9640.000000;0.812581
9639.000000;0.812819
9638.000000;0.812936
9637.000000;0.812352
9636.000000;0.811149
9635.000000;0.809914
9634.000000;0.809160
9633.000000;0.809050
9632.000000;0.809365
9631.000000;0.809520
9630.000000;0.808920
9629.000000;0.807615
9628.000000;0.806401
9627.000000;0.805988
9626.000000;0.806221
9625.000000;0.806348
9624.000000;0.805852
9623.000000;0.804810
9622.000000;0.803598
9621.000000;0.802527
9620.000000;0.801690
9619.000000;0.800948
9618.000000;0.800081
9617.000000;0.799063
9616.000000;0.798121
9615.000000;0.797440
9614.000000;0.796929
9613.000000;0.796363
9612.000000;0.795635
9611.000000;0.794795
9610.000000;0.794028
9609.000000;0.793646
9608.000000;0.793874
9607.000000;0.794495
9606.000000;0.794884
9605.000000;0.794571
9604.000000;0.793687
9603.000000;0.792770
9602.000000;0.792228
9601.000000;0.792091
9600.000000;0.792108
9599.000000;0.791990
9598.000000;0.791615
9597.000000;0.791028
9596.000000;0.790188
9595.000000;0.788851
9594.000000;0.786914
9593.000000;0.784807
9592.000000;0.783239
9591.000000;0.782542
9590.000000;0.782460
9589.000000;0.782566
9588.000000;0.782605
9587.000000;0.782431
9586.000000;0.781958
9585.000000;0.781298
9584.000000;0.780699
9583.000000;0.780238
9582.000000;0.779761
9581.000000;0.779171
9580.000000;0.778545
9579.000000;0.777913
9578.000000;0.777148
9577.000000;0.776190
9576.000000;0.775152
9575.000000;0.774143
9574.000000;0.773210
9573.000000;0.772512
9572.000000;0.772281
9571.000000;0.772486
9570.000000;0.772745
9569.000000;0.772677
9568.000000;0.772165
9567.000000;0.771246
9566.000000;0.770051
9565.000000;0.768939
9564.000000;0.768430
9563.000000;0.768731
9562.000000;0.769458
9561.000000;0.769924
9560.000000;0.769654
9559.000000;0.768644
9558.000000;0.767312
9557.000000;0.766212
9556.000000;0.765614
9555.000000;0.765273
9554.000000;0.764735
9553.000000;0.763849
9552.000000;0.762797
9551.000000;0.761701
9550.000000;0.760506
9549.000000;0.759261
9548.000000;0.758198
9547.000000;0.757466
9546.000000;0.756984
9545.000000;0.756618
9544.000000;0.756274
9543.000000;0.755801
9542.000000;0.755071
9541.000000;0.754204
9540.000000;0.753482
9539.000000;0.752996
9538.000000;0.752625
9537.000000;0.752336
9536.000000;0.752185
9535.000000;0.751979
9534.000000;0.751342
9533.000000;0.750232
9532.000000;0.749069
9531.000000;0.748200
9530.000000;0.747515
9529.000000;0.746766
9528.000000;0.745964
9527.000000;0.745283
9526.000000;0.744779
9525.000000;0.744396
9524.000000;0.744071
9523.000000;0.743687
9522.000000;0.743068
9521.000000;0.742180
9520.000000;0.741232
9519.000000;0.740478
9518.000000;0.740035
9517.000000;0.739943
9516.000000;0.740239
9515.000000;0.740866
9514.000000;0.741622
9513.000000;0.742220
9512.000000;0.742329
9511.000000;0.741662
9510.000000;0.740267
9509.000000;0.738675
9508.000000;0.737459
9507.000000;0.736620
9506.000000;0.735678
9505.000000;0.734370
9504.000000;0.732961
9503.000000;0.731815
9502.000000;0.731027
9501.000000;0.730554
9500.000000;0.730357
9499.000000;0.730221
9498.000000;0.729744
9497.000000;0.728761
9496.000000;0.727619
9495.000000;0.726871
9494.000000;0.726800
9493.000000;0.727315
9492.000000;0.728070
9491.000000;0.728583
9490.000000;0.728475
9489.000000;0.727802
9488.000000;0.727001
9487.000000;0.726374
9486.000000;0.725802
9485.000000;0.725080
9484.000000;0.724285
9483.000000;0.723626
9482.000000;0.723077
9481.000000;0.722437
9480.000000;0.721689
9479.000000;0.721088
9478.000000;0.720819
9477.000000;0.720691
9476.000000;0.720295
9475.000000;0.719431
9474.000000;0.718343
9473.000000;0.717460
9472.000000;0.716945
9471.000000;0.716606
9470.000000;0.716232
9469.000000;0.715799
9468.000000;0.715269
9467.000000;0.714457
9466.000000;0.713331
9465.000000;0.712247
9464.000000;0.711590
9463.000000;0.711324
9462.000000;0.711163
9461.000000;0.711033
9460.000000;0.711022
9459.000000;0.710991
9458.000000;0.710622
9457.000000;0.709897
9456.000000;0.709162
9455.000000;0.708622
9454.000000;0.708089
9453.000000;0.707318
9452.000000;0.706372
9451.000000;0.705557
9450.000000;0.705180
9449.000000;0.705393
9448.000000;0.706038
9447.000000;0.706617
9446.000000;0.706607
9445.000000;0.705866
9444.000000;0.704642
9443.000000;0.703262
9442.000000;0.702034
9441.000000;0.701250
9440.000000;0.700921
9439.000000;0.700595
9438.000000;0.699858
9437.000000;0.698990
9436.000000;0.698677
9435.000000;0.699026
9434.000000;0.699335
9433.000000;0.699021
9432.000000;0.698309
9431.000000;0.697730
9430.000000;0.697309
9429.000000;0.696627
9428.000000;0.695510
9427.000000;0.694297
9426.000000;0.693431
9425.000000;0.693000
9424.000000;0.692678
9423.000000;0.692043
9422.000000;0.691006
9421.000000;0.689965
9420.000000;0.689411
9419.000000;0.689360
9418.000000;0.689329
9417.000000;0.688955
9416.000000;0.688426
9415.000000;0.688158
9414.000000;0.688181
9413.000000;0.688049
9412.000000;0.687346
9411.000000;0.686144
9410.000000;0.684949
9409.000000;0.684252
9408.000000;0.684162
9407.000000;0.684433
9406.000000;0.684748
9405.000000;0.684868
9404.000000;0.684548
9403.000000;0.683590
9402.000000;0.682141
9401.000000;0.680752
9400.000000;0.679905
9399.000000;0.679577
9398.000000;0.679427
9397.000000;0.679254
9396.000000;0.679045
9395.000000;0.678711
9394.000000;0.678123
9393.000000;0.677379
9392.000000;0.676737
9391.000000;0.676265
9390.000000;0.675817
9389.000000;0.675384
9388.000000;0.675198
9387.000000;0.675376
9386.000000;0.675669
9385.000000;0.675669
9384.000000;0.675192
9383.000000;0.674392
9382.000000;0.673599
9381.000000;0.673056
9380.000000;0.672758
9379.000000;0.672523
9378.000000;0.672223
9377.000000;0.671854
9376.000000;0.671408
9375.000000;0.670851
9374.000000;0.670280
9373.000000;0.669870
9372.000000;0.669534
9371.000000;0.668922
9370.000000;0.667960
9369.000000;0.667059
9368.000000;0.666547
9367.000000;0.666166
9366.000000;0.665474
9365.000000;0.664511
9364.000000;0.663686
9363.000000;0.663188
9362.000000;0.662926
9361.000000;0.662848
9360.000000;0.662852
9359.000000;0.662542
9358.000000;0.661629
9357.000000;0.660532
9356.000000;0.659993
9355.000000;0.660027
9354.000000;0.659815
9353.000000;0.658807
9352.000000;0.657451
9351.000000;0.656561
9350.000000;0.656331
9349.000000;0.656305
9348.000000;0.656059
9347.000000;0.655604
9346.000000;0.655213
9345.000000;0.655074
9344.000000;0.655084
9343.000000;0.654940
9342.000000;0.654448
9341.000000;0.653726
9340.000000;0.653006
9339.000000;0.652350
9338.000000;0.651749
9337.000000;0.651398
9336.000000;0.651557
9335.000000;0.652122
9334.000000;0.652576
9333.000000;0.652446
9332.000000;0.651678
9331.000000;0.650585
9330.000000;0.649622
9329.000000;0.649145
9328.000000;0.649171
9327.000000;0.649310
9326.000000;0.649120
9325.000000;0.648512
9324.000000;0.647706
9323.000000;0.646914
9322.000000;0.646281
9321.000000;0.645974
9320.000000;0.645955
9319.000000;0.645764
9318.000000;0.644945
9317.000000;0.643738
9316.000000;0.642966
9315.000000;0.643071
9314.000000;0.643554
9313.000000;0.643519
9312.000000;0.642607
9311.000000;0.641247
9310.000000;0.640136
9309.000000;0.639599
9308.000000;0.639388
9307.000000;0.639009
9306.000000;0.638239
9305.000000;0.637320
9304.000000;0.636668
9303.000000;0.636486
9302.000000;0.636725
9301.000000;0.637192
9300.000000;0.637569
9299.000000;0.637508
9298.000000;0.636932
9297.000000;0.636148
9296.000000;0.635482
9295.000000;0.634926
9294.000000;0.634343
9293.000000;0.633829
9292.000000;0.633584
9291.000000;0.633573
9290.000000;0.633552
9289.000000;0.633366
9288.000000;0.633007
9287.000000;0.632497
9286.000000;0.631927
9285.000000;0.631473
9284.000000;0.631144
9283.000000;0.630682
9282.000000;0.629943
9281.000000;0.629186
9280.000000;0.628737
9279.000000;0.628563
9278.000000;0.628450
9277.000000;0.628361
9276.000000;0.628271
9275.000000;0.627909
9274.000000;0.627133
9273.000000;0.626369
9272.000000;0.626170
9271.000000;0.626441
9270.000000;0.626627
9269.000000;0.626566
9268.000000;0.626610
9267.000000;0.626856
9266.000000;0.626853
9265.000000;0.626243
9264.000000;0.625264
9263.000000;0.624420
9262.000000;0.623968
9261.000000;0.623839
9260.000000;0.623772
9259.000000;0.623397
9258.000000;0.622487
9257.000000;0.621232
9256.000000;0.620077
9255.000000;0.619252
9254.000000;0.618687
9253.000000;0.618359
9252.000000;0.618398
9251.000000;0.618817
9250.000000;0.619401
9249.000000;0.619905
9248.000000;0.620139
9247.000000;0.619877
9246.000000;0.618957
9245.000000;0.617535
9244.000000;0.616045
9243.000000;0.614883
9242.000000;0.614242
9241.000000;0.614108
9240.000000;0.614209
9239.000000;0.614136
9238.000000;0.613789
9237.000000;0.613534
9236.000000;0.613607
9235.000000;0.613618
9234.000000;0.613092
9233.000000;0.612265
9232.000000;0.611795
9231.000000;0.611778
9230.000000;0.611648
9229.000000;0.611071
9228.000000;0.610327
9227.000000;0.609709
9226.000000;0.609122
9225.000000;0.608520
9224.000000;0.608236
9223.000000;0.608547
9222.000000;0.609222
9221.000000;0.609741
9220.000000;0.609752
9219.000000;0.609169
9218.000000;0.608124
9217.000000;0.606988
9216.000000;0.606189
9215.000000;0.605859
9214.000000;0.605797
9213.000000;0.605838
9212.000000;0.606007
9211.000000;0.606269
9210.000000;0.606408
9209.000000;0.606267
9208.000000;0.605892
9207.000000;0.605372
9206.000000;0.604774
9205.000000;0.604259
9204.000000;0.603986
9203.000000;0.603841
9202.000000;0.603505
9201.000000;0.602876
9200.000000;0.602184
9199.000000;0.601699
9198.000000;0.601544
9197.000000;0.601746
9196.000000;0.602165
9195.000000;0.602395
9194.000000;0.602068
9193.000000;0.601295
9192.000000;0.600507
9191.000000;0.599894
9190.000000;0.599350
9189.000000;0.598950
9188.000000;0.598954
9187.000000;0.599230
9186.000000;0.599173
9185.000000;0.598452
9184.000000;0.597466
9183.000000;0.596798
9182.000000;0.596530
9181.000000;0.596367
9180.000000;0.596167
9179.000000;0.596031
9178.000000;0.596022
9177.000000;0.596038
9176.000000;0.595907
9175.000000;0.595446
9174.000000;0.594526
9173.000000;0.593277
9172.000000;0.592156
9171.000000;0.591660
9170.000000;0.591919
9169.000000;0.592563
9168.000000;0.592995
9167.000000;0.592871
9166.000000;0.592388
9165.000000;0.592014
9164.000000;0.591900
9163.000000;0.591720
9162.000000;0.591196
9161.000000;0.590537
9160.000000;0.590120
9159.000000;0.589932
9158.000000;0.589649
9157.000000;0.589154
9156.000000;0.588629
9155.000000;0.588216
9154.000000;0.587910
9153.000000;0.587727
9152.000000;0.587667
9151.000000;0.587556
9150.000000;0.587238
9149.000000;0.586858
9148.000000;0.586646
9147.000000;0.586512
9146.000000;0.586199
9145.000000;0.585749
9144.000000;0.585434
9143.000000;0.585283
9142.000000;0.585079
9141.000000;0.584821
9140.000000;0.584719
9139.000000;0.584722
9138.000000;0.584534
9137.000000;0.584204
9136.000000;0.584188
9135.000000;0.584616
9134.000000;0.584903
9133.000000;0.584425
9132.000000;0.583315
9131.000000;0.582311
9130.000000;0.581976
9129.000000;0.582237
9128.000000;0.582555
9127.000000;0.582395
9126.000000;0.581675
9125.000000;0.580834
9124.000000;0.580390
9123.000000;0.580387
9122.000000;0.580435
9121.000000;0.580224
9120.000000;0.579814
9119.000000;0.579455
9118.000000;0.579351
9117.000000;0.579544
9116.000000;0.579801
9115.000000;0.579640
9114.000000;0.578802
9113.000000;0.577675
9112.000000;0.576970
9111.000000;0.576935
9110.000000;0.577180
9109.000000;0.577275
9108.000000;0.577211
9107.000000;0.577212
9106.000000;0.577392
9105.000000;0.577663
9104.000000;0.577755
9103.000000;0.577314
9102.000000;0.576240
9101.000000;0.574984
9100.000000;0.574193
9099.000000;0.574030
9098.000000;0.574096
9097.000000;0.574023
9096.000000;0.573804
9095.000000;0.573529
9094.000000;0.573180
9093.000000;0.572816
9092.000000;0.572629
9091.000000;0.572647
9090.000000;0.572634
9089.000000;0.572423
9088.000000;0.572127
9087.000000;0.571865
9086.000000;0.571498
9085.000000;0.570829
9084.000000;0.569932
9083.000000;0.569140
9082.000000;0.568779
9081.000000;0.568917
9080.000000;0.569260
9079.000000;0.569332
9078.000000;0.568878
9077.000000;0.568113
9076.000000;0.567451
9075.000000;0.567089
9074.000000;0.566992
9073.000000;0.567121
9072.000000;0.567415
9071.000000;0.567692
9070.000000;0.567864
9069.000000;0.568143
9068.000000;0.568703
9067.000000;0.569219
9066.000000;0.569158
9065.000000;0.568485
9064.000000;0.567698
9063.000000;0.567152
9062.000000;0.566751
9061.000000;0.566374
9060.000000;0.566140
9059.000000;0.566124
9058.000000;0.566134
9057.000000;0.565975
9056.000000;0.565666
9055.000000;0.565294
9054.000000;0.564873
9053.000000;0.564460
