Criado como novo conjunto de dados;"1909daniel.spp","-4291185.1 Secs"
cm-1;Abs
10000.000000;1.106920
9999.000000;1.106095
9998.000000;1.105272
9997.000000;1.104450
9996.000000;1.103629
9995.000000;1.102812
9994.000000;1.101992
9993.000000;1.101181
9992.000000;1.100357
9991.000000;1.099562
9990.000000;1.098716
9989.000000;1.098063
9988.000000;1.097420
9987.000000;1.096370
9986.000000;1.095274
9985.000000;1.094642
9984.000000;1.094462
9983.000000;1.094199
9982.000000;1.093547
9981.000000;1.092714
9980.000000;1.092018
9979.000000;1.091522
9978.000000;1.091139
9977.000000;1.090782
9976.000000;1.090277
9975.000000;1.089427
9974.000000;1.088331
9973.000000;1.087438
9972.000000;1.087055
9971.000000;1.086921
9970.000000;1.086538
9969.000000;1.085834
9968.000000;1.085202
9967.000000;1.084841
9966.000000;1.084365
9965.000000;1.083251
9964.000000;1.081507
9963.000000;1.079645
9962.000000;1.078122
9961.000000;1.077078
9960.000000;1.076565
9959.000000;1.076621
9958.000000;1.076950
9957.000000;1.076874
9956.000000;1.075955
9955.000000;1.074527
9954.000000;1.073295
9953.000000;1.072513
9952.000000;1.071889
9951.000000;1.071181
9950.000000;1.070460
9949.000000;1.069716
9948.000000;1.068696
9947.000000;1.067384
9946.000000;1.066303
9945.000000;1.065976
9944.000000;1.066250
9943.000000;1.066488
9942.000000;1.066331
9941.000000;1.065906
9940.000000;1.065282
9939.000000;1.064178
9938.000000;1.062475
9937.000000;1.060744
9936.000000;1.059900
9935.000000;1.060266
9934.000000;1.061137
9933.000000;1.061380
9932.000000;1.060457
9931.000000;1.058836
9930.000000;1.057448
9929.000000;1.056790
9928.000000;1.056527
9927.000000;1.055894
9926.000000;1.054463
9925.000000;1.052580
9924.000000;1.051057
9923.000000;1.050429
9922.000000;1.050507
9921.000000;1.050659
9920.000000;1.050478
9919.000000;1.050057
9918.000000;1.049658
9917.000000;1.049280
9916.000000;1.048682
9915.000000;1.047728
9914.000000;1.046566
9913.000000;1.045487
9912.000000;1.044655
9911.000000;1.043962
9910.000000;1.043123
9909.000000;1.041996
9908.000000;1.040833
9907.000000;1.040053
9906.000000;1.039752
9905.000000;1.039592
9904.000000;1.039250
9903.000000;1.038723
9902.000000;1.038056
9901.000000;1.037078
9900.000000;1.035713
9899.000000;1.034345
9898.000000;1.033499
9897.000000;1.033219
9896.000000;1.033074
9895.000000;1.032765
9894.000000;1.032399
9893.000000;1.032155
9892.000000;1.031951
9891.000000;1.031538
9890.000000;1.030742
9889.000000;1.029590
9888.000000;1.028349
9887.000000;1.027412
9886.000000;1.026925
9885.000000;1.026587
9884.000000;1.026041
9883.000000;1.025390
9882.000000;1.025024
9881.000000;1.024968
9880.000000;1.024750
9879.000000;1.023977
9878.000000;1.022728
9877.000000;1.021343
9876.000000;1.020102
9875.000000;1.019169
9874.000000;1.018517
9873.000000;1.017862
9872.000000;1.017009
9871.000000;1.016306
9870.000000;1.016375
9869.000000;1.017208
9868.000000;1.017934
9867.000000;1.017734
9866.000000;1.016699
9865.000000;1.015522
9864.000000;1.014665
9863.000000;1.014120
9862.000000;1.013710
9861.000000;1.013201
9860.000000;1.012236
9859.000000;1.010555
9858.000000;1.008370
9857.000000;1.006349
9856.000000;1.005117
9855.000000;1.004779
9854.000000;1.004824
9853.000000;1.004516
9852.000000;1.003544
9851.000000;1.002342
9850.000000;1.001619
9849.000000;1.001566
9848.000000;1.001717
9847.000000;1.001598
9846.000000;1.001198
9845.000000;1.000700
9844.000000;1.000079
9843.000000;0.999174
9842.000000;0.997961
9841.000000;0.996579
9840.000000;0.995271
9839.000000;0.994371
9838.000000;0.994056
9837.000000;0.993984
9836.000000;0.993507
9835.000000;0.992449
9834.000000;0.991347
9833.000000;0.990664
9832.000000;0.990171
9831.000000;0.989445
9830.000000;0.988631
9829.000000;0.988223
9828.000000;0.988293
9827.000000;0.988416
9826.000000;0.988225
9825.000000;0.987612
9824.000000;0.986513
9823.000000;0.985019
9822.000000;0.983712
9821.000000;0.983330
9820.000000;0.983906
9819.000000;0.984563
9818.000000;0.984335
9817.000000;0.982998
9816.000000;0.981019
9815.000000;0.978967
9814.000000;0.977229
9813.000000;0.976072
9812.000000;0.975643
9811.000000;0.975822
9810.000000;0.976145
9809.000000;0.975986
9808.000000;0.975000
9807.000000;0.973465
9806.000000;0.972077
9805.000000;0.971285
9804.000000;0.970914
9803.000000;0.970520
9802.000000;0.969939
9801.000000;0.969320
9800.000000;0.968806
9799.000000;0.968428
9798.000000;0.968192
9797.000000;0.967979
9796.000000;0.967466
9795.000000;0.966473
9794.000000;0.965306
9793.000000;0.964472
9792.000000;0.964070
9791.000000;0.963838
9790.000000;0.963721
9789.000000;0.963903
9788.000000;0.964174
9787.000000;0.963768
9786.000000;0.962237
9785.000000;0.960191
9784.000000;0.958755
9783.000000;0.958429
9782.000000;0.958766
9781.000000;0.959036
9780.000000;0.958837
9779.000000;0.958038
9778.000000;0.956576
9777.000000;0.954626
9776.000000;0.952796
9775.000000;0.951778
9774.000000;0.951683
9773.000000;0.951847
9772.000000;0.951425
9771.000000;0.950166
9770.000000;0.948552
9769.000000;0.947221
9768.000000;0.946408
9767.000000;0.945958
9766.000000;0.945717
9765.000000;0.945670
9764.000000;0.945727
9763.000000;0.945557
9762.000000;0.944792
9761.000000;0.943451
9760.000000;0.942043
9759.000000;0.941149
9758.000000;0.940838
9757.000000;0.940600
9756.000000;0.939955
9755.000000;0.939088
9754.000000;0.938710
9753.000000;0.939262
9752.000000;0.940400
9751.000000;0.941272
9750.000000;0.941170
9749.000000;0.939918
9748.000000;0.937867
9747.000000;0.935696
9746.000000;0.934046
9745.000000;0.933096
9744.000000;0.932521
9743.000000;0.931967
9742.000000;0.931447
9741.000000;0.931144
9740.000000;0.930960
9739.000000;0.930515
9738.000000;0.929562
9737.000000;0.928210
9736.000000;0.926743
9735.000000;0.925441
9734.000000;0.924555
9733.000000;0.924206
9732.000000;0.924223
9731.000000;0.924226
9730.000000;0.923974
9729.000000;0.923518
9728.000000;0.923046
9727.000000;0.922701
9726.000000;0.922547
9725.000000;0.922502
9724.000000;0.922230
9723.000000;0.921301
9722.000000;0.919631
9721.000000;0.917668
9720.000000;0.916065
9719.000000;0.915231
9718.000000;0.915209
9717.000000;0.915762
9716.000000;0.916424
9715.000000;0.916606
9714.000000;0.915943
9713.000000;0.914569
9712.000000;0.912964
9711.000000;0.911523
9710.000000;0.910366
9709.000000;0.909492
9708.000000;0.908939
9707.000000;0.908703
9706.000000;0.908602
9705.000000;0.908306
9704.000000;0.907540
9703.000000;0.906289
9702.000000;0.904863
9701.000000;0.903746
9700.000000;0.903291
9699.000000;0.903486
9698.000000;0.903977
9697.000000;0.904277
9696.000000;0.903987
9695.000000;0.902922
9694.000000;0.901256
9693.000000;0.899562
9692.000000;0.898533
9691.000000;0.898445
9690.000000;0.898868
9689.000000;0.898978
9688.000000;0.898250
9687.000000;0.896862
9686.000000;0.895458
9685.000000;0.894568
9684.000000;0.894231
9683.000000;0.894043
9682.000000;0.893514
9681.000000;0.892473
9680.000000;0.891237
9679.000000;0.890391
9678.000000;0.890310
9677.000000;0.890817
9676.000000;0.891299
9675.000000;0.891158
9674.000000;0.890214
9673.000000;0.888752
9672.000000;0.887259
9671.000000;0.886098
9670.000000;0.885358
9669.000000;0.884966
9668.000000;0.884827
9667.000000;0.884789
9666.000000;0.884521
9665.000000;0.883602
9664.000000;0.881924
9663.000000;0.879960
9662.000000;0.878508
9661.000000;0.878067
9660.000000;0.878442
9659.000000;0.878941
9658.000000;0.878935
9657.000000;0.878263
9656.000000;0.877222
9655.000000;0.876261
9654.000000;0.875655
9653.000000;0.875351
9652.000000;0.875063
9651.000000;0.874546
9650.000000;0.873843
9649.000000;0.873248
9648.000000;0.872962
9647.000000;0.872772
9646.000000;0.872176
9645.000000;0.870876
9644.000000;0.869086
9643.000000;0.867297
9642.000000;0.865837
9641.000000;0.864801
9640.000000;0.864261
9639.000000;0.864292
9638.000000;0.864691
9637.000000;0.864905
9636.000000;0.864433
9635.000000;0.863302
9634.000000;0.862075
9633.000000;0.861384
9632.000000;0.861398
9631.000000;0.861679
9630.000000;0.861531
9629.000000;0.860622
9628.000000;0.859326
9627.000000;0.858354
9626.000000;0.857968
9625.000000;0.857647
9624.000000;0.856622
9623.000000;0.854706
9622.000000;0.852550
9621.000000;0.851137
9620.000000;0.851008
9619.000000;0.851809
9618.000000;0.852501
9617.000000;0.852187
9616.000000;0.850888
9615.000000;0.849482
9614.000000;0.848802
9613.000000;0.848915
9612.000000;0.849302
9611.000000;0.849537
9610.000000;0.849570
9609.000000;0.849473
9608.000000;0.849201
9607.000000;0.848638
9606.000000;0.847718
9605.000000;0.846470
9604.000000;0.845055
9603.000000;0.843766
9602.000000;0.842874
9601.000000;0.842431
9600.000000;0.842266
9599.000000;0.842110
9598.000000;0.841687
9597.000000;0.840793
9596.000000;0.839467
9595.000000;0.838043
9594.000000;0.836917
9593.000000;0.836234
9592.000000;0.835854
9591.000000;0.835526
9590.000000;0.835044
9589.000000;0.834320
9588.000000;0.833479
9587.000000;0.832823
9586.000000;0.832551
9585.000000;0.832506
9584.000000;0.832303
9583.000000;0.831683
9582.000000;0.830676
9581.000000;0.829494
9580.000000;0.828388
9579.000000;0.827541
9578.000000;0.826948
9577.000000;0.826435
9576.000000;0.825903
9575.000000;0.825470
9574.000000;0.825270
9573.000000;0.825168
9572.000000;0.824888
9571.000000;0.824374
9570.000000;0.823833
9569.000000;0.823431
9568.000000;0.823126
9567.000000;0.822825
9566.000000;0.822540
9565.000000;0.822317
9564.000000;0.822108
9563.000000;0.821771
9562.000000;0.821193
9561.000000;0.820410
9560.000000;0.819618
9559.000000;0.818979
9558.000000;0.818415
9557.000000;0.817676
9556.000000;0.816693
9555.000000;0.815701
9554.000000;0.814936
9553.000000;0.814374
9552.000000;0.813904
9551.000000;0.813572
9550.000000;0.813424
9549.000000;0.813252
9548.000000;0.812781
9547.000000;0.812072
9546.000000;0.811464
9545.000000;0.811135
9544.000000;0.810917
9543.000000;0.810524
9542.000000;0.809775
9541.000000;0.808642
9540.000000;0.807323
9539.000000;0.806238
9538.000000;0.805704
9537.000000;0.805597
9536.000000;0.805495
9535.000000;0.805165
9534.000000;0.804681
9533.000000;0.804112
9532.000000;0.803365
9531.000000;0.802409
9530.000000;0.801412
9529.000000;0.800571
9528.000000;0.799950
9527.000000;0.799504
9526.000000;0.799099
9525.000000;0.798515
9524.000000;0.797643
9523.000000;0.796702
9522.000000;0.796019
9521.000000;0.795589
9520.000000;0.795102
9519.000000;0.794468
9518.000000;0.794031
9517.000000;0.794101
9516.000000;0.794464
9515.000000;0.794563
9514.000000;0.794065
9513.000000;0.793110
9512.000000;0.792068
9511.000000;0.791181
9510.000000;0.790393
9509.000000;0.789495
9508.000000;0.788452
9507.000000;0.787531
9506.000000;0.786984
9505.000000;0.786693
9504.000000;0.786334
9503.000000;0.785856
9502.000000;0.785527
9501.000000;0.785439
9500.000000;0.785245
9499.000000;0.784580
9498.000000;0.783567
9497.000000;0.782692
9496.000000;0.782255
9495.000000;0.782100
9494.000000;0.781867
9493.000000;0.781370
9492.000000;0.780696
9491.000000;0.780015
9490.000000;0.779371
9489.000000;0.778708
9488.000000;0.778041
9487.000000;0.777480
9486.000000;0.777047
9485.000000;0.776624
9484.000000;0.776158
9483.000000;0.775762
9482.000000;0.775443
9481.000000;0.774914
9480.000000;0.773923
9479.000000;0.772663
9478.000000;0.771607
9477.000000;0.770984
9476.000000;0.770643
9475.000000;0.770380
9474.000000;0.770104
9473.000000;0.769707
9472.000000;0.769094
9471.000000;0.768392
9470.000000;0.767885
9469.000000;0.767645
9468.000000;0.767418
9467.000000;0.766947
9466.000000;0.766252
9465.000000;0.765553
9464.000000;0.765073
9463.000000;0.764886
9462.000000;0.764785
9461.000000;0.764343
9460.000000;0.763342
9459.000000;0.762120
9458.000000;0.761219
9457.000000;0.760738
9456.000000;0.760339
9455.000000;0.759856
9454.000000;0.759484
9453.000000;0.759292
9452.000000;0.758966
9451.000000;0.758257
9450.000000;0.757349
9449.000000;0.756556
9448.000000;0.755905
9447.000000;0.755283
9446.000000;0.754765
9445.000000;0.754505
9444.000000;0.754470
9443.000000;0.754498
9442.000000;0.754521
9441.000000;0.754500
9440.000000;0.754236
9439.000000;0.753495
9438.000000;0.752337
9437.000000;0.751175
9436.000000;0.750450
9435.000000;0.750262
9434.000000;0.750267
9433.000000;0.749962
9432.000000;0.749132
9431.000000;0.748028
9430.000000;0.747013
9429.000000;0.746167
9428.000000;0.745409
9427.000000;0.744875
9426.000000;0.744822
9425.000000;0.745147
9424.000000;0.745361
9423.000000;0.745131
9422.000000;0.744570
9421.000000;0.743905
9420.000000;0.743200
9419.000000;0.742524
9418.000000;0.742051
9417.000000;0.741784
9416.000000;0.741436
9415.000000;0.740823
9414.000000;0.740111
9413.000000;0.739485
9412.000000;0.738817
9411.000000;0.737944
9410.000000;0.737050
9409.000000;0.736468
9408.000000;0.736272
9407.000000;0.736294
9406.000000;0.736361
9405.000000;0.736268
9404.000000;0.735741
9403.000000;0.734753
9402.000000;0.733767
9401.000000;0.733298
9400.000000;0.733287
9399.000000;0.733185
9398.000000;0.732597
9397.000000;0.731563
9396.000000;0.730313
9395.000000;0.729078
9394.000000;0.728153
9393.000000;0.727773
9392.000000;0.727802
9391.000000;0.727749
9390.000000;0.727243
9389.000000;0.726382
9388.000000;0.725567
9387.000000;0.725103
9386.000000;0.725008
9385.000000;0.725068
9384.000000;0.725027
9383.000000;0.724801
9382.000000;0.724513
9381.000000;0.724314
9380.000000;0.724198
9379.000000;0.724039
9378.000000;0.723736
9377.000000;0.723239
9376.000000;0.722539
9375.000000;0.721733
9374.000000;0.721011
9373.000000;0.720449
9372.000000;0.719906
9371.000000;0.719272
9370.000000;0.718686
9369.000000;0.718331
9368.000000;0.718126
9367.000000;0.717821
9366.000000;0.717344
9365.000000;0.716816
9364.000000;0.716295
9363.000000;0.715717
9362.000000;0.715120
9361.000000;0.714674
9360.000000;0.714410
9359.000000;0.714119
9358.000000;0.713600
9357.000000;0.712881
9356.000000;0.712119
9355.000000;0.711409
9354.000000;0.710772
9353.000000;0.710253
9352.000000;0.709897
9351.000000;0.709668
9350.000000;0.709438
9349.000000;0.709052
9348.000000;0.708419
9347.000000;0.707599
9346.000000;0.706806
9345.000000;0.706275
9344.000000;0.706079
9343.000000;0.706081
9342.000000;0.706042
9341.000000;0.705786
9340.000000;0.705307
9339.000000;0.704794
9338.000000;0.704482
9337.000000;0.704425
9336.000000;0.704426
9335.000000;0.704208
9334.000000;0.703638
9333.000000;0.702794
9332.000000;0.701906
9331.000000;0.701253
9330.000000;0.700988
9329.000000;0.700976
9328.000000;0.700897
9327.000000;0.700565
9326.000000;0.700061
9325.000000;0.699507
9324.000000;0.698886
9323.000000;0.698194
9322.000000;0.697595
9321.000000;0.697226
9320.000000;0.696934
9319.000000;0.696454
9318.000000;0.695805
9317.000000;0.695293
9316.000000;0.695123
9315.000000;0.695146
9314.000000;0.695019
9313.000000;0.694531
9312.000000;0.693793
9311.000000;0.693206
9310.000000;0.693114
9309.000000;0.693326
9308.000000;0.693104
9307.000000;0.691912
9306.000000;0.690136
9305.000000;0.688787
9304.000000;0.688446
9303.000000;0.688756
9302.000000;0.689001
9301.000000;0.688850
9300.000000;0.688381
9299.000000;0.687675
9298.000000;0.686752
9297.000000;0.685812
9296.000000;0.685209
9295.000000;0.685115
9294.000000;0.685368
9293.000000;0.685683
9292.000000;0.685858
9291.000000;0.685764
9290.000000;0.685284
9289.000000;0.684383
9288.000000;0.683215
9287.000000;0.682117
9286.000000;0.681465
9285.000000;0.681471
9284.000000;0.681995
9283.000000;0.682542
9282.000000;0.682579
9281.000000;0.681956
9280.000000;0.681022
9279.000000;0.680290
9278.000000;0.679990
9277.000000;0.679929
9276.000000;0.679738
9275.000000;0.679224
9274.000000;0.678520
9273.000000;0.677936
9272.000000;0.677647
9271.000000;0.677540
9270.000000;0.677401
9269.000000;0.677223
9268.000000;0.677207
9267.000000;0.677403
9266.000000;0.677469
9265.000000;0.676968
9264.000000;0.675888
9263.000000;0.674708
9262.000000;0.673924
9261.000000;0.673625
9260.000000;0.673570
9259.000000;0.673514
9258.000000;0.673321
9257.000000;0.672877
9256.000000;0.672131
9255.000000;0.671269
9254.000000;0.670693
9253.000000;0.670686
9252.000000;0.671113
9251.000000;0.671511
9250.000000;0.671491
9249.000000;0.671036
9248.000000;0.670428
9247.000000;0.669924
9246.000000;0.669544
9245.000000;0.669146
9244.000000;0.668639
9243.000000;0.668042
9242.000000;0.667335
9241.000000;0.666410
9240.000000;0.665288
9239.000000;0.664308
9238.000000;0.663948
9237.000000;0.664365
9236.000000;0.665164
9235.000000;0.665682
9234.000000;0.665513
9233.000000;0.664744
9232.000000;0.663737
9231.000000;0.662763
9230.000000;0.661865
9229.000000;0.661032
9228.000000;0.660393
9227.000000;0.660132
9226.000000;0.660225
9225.000000;0.660371
9224.000000;0.660241
9223.000000;0.659795
9222.000000;0.659304
9221.000000;0.659100
9220.000000;0.659319
9219.000000;0.659805
9218.000000;0.660204
9217.000000;0.660190
9216.000000;0.659690
9215.000000;0.658888
9214.000000;0.658000
9213.000000;0.657102
9212.000000;0.656223
9211.000000;0.655524
9210.000000;0.655224
9209.000000;0.655349
9208.000000;0.655598
9207.000000;0.655535
9206.000000;0.654942
9205.000000;0.654028
9204.000000;0.653293
9203.000000;0.653073
9202.000000;0.653217
9201.000000;0.653279
9200.000000;0.653067
9199.000000;0.652837
9198.000000;0.652839
9197.000000;0.652856
9196.000000;0.652417
9195.000000;0.651432
9194.000000;0.650370
9193.000000;0.649767
9192.000000;0.649722
9191.000000;0.649923
9190.000000;0.650058
9189.000000;0.650098
9188.000000;0.650186
9187.000000;0.650359
9186.000000;0.650422
9185.000000;0.650146
9184.000000;0.649560
9183.000000;0.648943
9182.000000;0.648481
9181.000000;0.648102
9180.000000;0.647701
9179.000000;0.647365
9178.000000;0.647171
9177.000000;0.646911
9176.000000;0.646296
9175.000000;0.645383
9174.000000;0.644546
9173.000000;0.644033
9172.000000;0.643788
9171.000000;0.643727
9170.000000;0.643890
9169.000000;0.644204
9168.000000;0.644358
9167.000000;0.644116
9166.000000;0.643597
9165.000000;0.643048
9164.000000;0.642475
9163.000000;0.641717
9162.000000;0.640806
9161.000000;0.640022
9160.000000;0.639562
9159.000000;0.639331
9158.000000;0.639120
9157.000000;0.638886
9156.000000;0.638744
9155.000000;0.638748
9154.000000;0.638774
9153.000000;0.638635
9152.000000;0.638264
9151.000000;0.637755
9150.000000;0.637269
9149.000000;0.636949
9148.000000;0.636879
9147.000000;0.637003
9146.000000;0.637067
9145.000000;0.636775
9144.000000;0.636098
9143.000000;0.635323
9142.000000;0.634719
9141.000000;0.634271
9140.000000;0.633845
9139.000000;0.633487
9138.000000;0.633346
9137.000000;0.633395
9136.000000;0.633441
9135.000000;0.633382
9134.000000;0.633244
9133.000000;0.632973
9132.000000;0.632461
9131.000000;0.631854
9130.000000;0.631567
9129.000000;0.631806
9128.000000;0.632225
9127.000000;0.632264
9126.000000;0.631755
9125.000000;0.631056
9124.000000;0.630612
9123.000000;0.630530
9122.000000;0.630555
9121.000000;0.630400
9120.000000;0.630038
9119.000000;0.629719
9118.000000;0.629687
9117.000000;0.629899
9116.000000;0.630059
9115.000000;0.629935
9114.000000;0.629556
9113.000000;0.629111
9112.000000;0.628741
9111.000000;0.628465
9110.000000;0.628204
9109.000000;0.627833
9108.000000;0.627293
9107.000000;0.626725
9106.000000;0.626399
9105.000000;0.626426
9104.000000;0.626594
9103.000000;0.626569
9102.000000;0.626270
9101.000000;0.625951
9100.000000;0.625886
9099.000000;0.626031
9098.000000;0.626035
9097.000000;0.625632
9096.000000;0.624955
9095.000000;0.624428
9094.000000;0.624315
9093.000000;0.624456
9092.000000;0.624446
9091.000000;0.624010
9090.000000;0.623170
9089.000000;0.622172
9088.000000;0.621353
9087.000000;0.620973
9086.000000;0.621016
9085.000000;0.621155
9084.000000;0.621028
9083.000000;0.620564
9082.000000;0.620005
9081.000000;0.619647
9080.000000;0.619626
9079.000000;0.619844
9078.000000;0.619979
9077.000000;0.619661
9076.000000;0.618802
9075.000000;0.617738
9074.000000;0.616939
9073.000000;0.616659
9072.000000;0.616950
9071.000000;0.617814
9070.000000;0.619051
9069.000000;0.620083
9068.000000;0.620314
9067.000000;0.619724
9066.000000;0.618831
9065.000000;0.618020
9064.000000;0.617205
9063.000000;0.616241
9062.000000;0.615364
9061.000000;0.614961
9060.000000;0.615094
9059.000000;0.615462
9058.000000;0.615748
9057.000000;0.615823
9056.000000;0.615700
9055.000000;0.615452
9054.000000;0.615161
9053.000000;0.614849
