Criado como novo conjunto de dados;"1909daniel.spp","-4291725.1 Secs"
cm-1;Abs
10000.000000;1.110163
9999.000000;1.110215
9998.000000;1.110253
9997.000000;1.110325
9996.000000;1.110163
9995.000000;1.109390
9994.000000;1.108061
9993.000000;1.106513
9992.000000;1.105200
9991.000000;1.104442
9990.000000;1.104187
9989.000000;1.104145
9988.000000;1.104073
9987.000000;1.103750
9986.000000;1.102887
9985.000000;1.101469
9984.000000;1.100047
9983.000000;1.099230
9982.000000;1.098933
9981.000000;1.098510
9980.000000;1.097566
9979.000000;1.096257
9978.000000;1.094921
9977.000000;1.093888
9976.000000;1.093532
9975.000000;1.093954
9974.000000;1.094567
9973.000000;1.094492
9972.000000;1.093451
9971.000000;1.091930
9970.000000;1.090518
9969.000000;1.089514
9968.000000;1.089082
9967.000000;1.089227
9966.000000;1.089593
9965.000000;1.089740
9964.000000;1.089629
9963.000000;1.089428
9962.000000;1.088914
9961.000000;1.087655
9960.000000;1.085825
9959.000000;1.084229
9958.000000;1.083329
9957.000000;1.082695
9956.000000;1.081628
9955.000000;1.080019
9954.000000;1.078444
9953.000000;1.077621
9952.000000;1.077753
9951.000000;1.078229
9950.000000;1.078062
9949.000000;1.076920
9948.000000;1.075509
9947.000000;1.074623
9946.000000;1.074137
9945.000000;1.073437
9944.000000;1.072514
9943.000000;1.071906
9942.000000;1.071680
9941.000000;1.071301
9940.000000;1.070570
9939.000000;1.069924
9938.000000;1.069596
9937.000000;1.069168
9936.000000;1.068287
9935.000000;1.067257
9934.000000;1.066563
9933.000000;1.066251
9932.000000;1.066084
9931.000000;1.065939
9930.000000;1.065788
9929.000000;1.065548
9928.000000;1.065168
9927.000000;1.064659
9926.000000;1.063976
9925.000000;1.063139
9924.000000;1.062461
9923.000000;1.062276
9922.000000;1.062377
9921.000000;1.062082
9920.000000;1.060960
9919.000000;1.059219
9918.000000;1.057377
9917.000000;1.055877
9916.000000;1.054984
9915.000000;1.054590
9914.000000;1.054107
9913.000000;1.053007
9912.000000;1.051511
9911.000000;1.050346
9910.000000;1.049807
9909.000000;1.049550
9908.000000;1.049297
9907.000000;1.049153
9906.000000;1.049075
9905.000000;1.048659
9904.000000;1.047736
9903.000000;1.046732
9902.000000;1.046081
9901.000000;1.045642
9900.000000;1.044949
9899.000000;1.043798
9898.000000;1.042415
9897.000000;1.041252
9896.000000;1.040730
9895.000000;1.040850
9894.000000;1.040975
9893.000000;1.040375
9892.000000;1.039107
9891.000000;1.037952
9890.000000;1.037348
9889.000000;1.036845
9888.000000;1.035860
9887.000000;1.034539
9886.000000;1.033507
9885.000000;1.033082
9884.000000;1.033057
9883.000000;1.033047
9882.000000;1.032777
9881.000000;1.032140
9880.000000;1.031226
9879.000000;1.030253
9878.000000;1.029396
9877.000000;1.028717
9876.000000;1.028288
9875.000000;1.028174
9874.000000;1.028276
9873.000000;1.028362
9872.000000;1.028269
9871.000000;1.027927
9870.000000;1.027252
9869.000000;1.026245
9868.000000;1.025126
9867.000000;1.024091
9866.000000;1.023012
9865.000000;1.021702
9864.000000;1.020393
9863.000000;1.019542
9862.000000;1.019187
9861.000000;1.018912
9860.000000;1.018489
9859.000000;1.018075
9858.000000;1.017676
9857.000000;1.016891
9856.000000;1.015415
9855.000000;1.013475
9854.000000;1.011574
9853.000000;1.010073
9852.000000;1.009108
9851.000000;1.008553
9850.000000;1.007953
9849.000000;1.006929
9848.000000;1.005831
9847.000000;1.005527
9846.000000;1.006286
9845.000000;1.007244
9844.000000;1.007301
9843.000000;1.006277
9842.000000;1.004864
9841.000000;1.003717
9840.000000;1.002987
9839.000000;1.002513
9838.000000;1.002011
9837.000000;1.001171
9836.000000;0.999923
9835.000000;0.998638
9834.000000;0.997796
9833.000000;0.997452
9832.000000;0.997225
9831.000000;0.996804
9830.000000;0.996263
9829.000000;0.995848
9828.000000;0.995637
9827.000000;0.995503
9826.000000;0.995332
9825.000000;0.995160
9824.000000;0.995063
9823.000000;0.994927
9822.000000;0.994428
9821.000000;0.993351
9820.000000;0.991889
9819.000000;0.990485
9818.000000;0.989376
9817.000000;0.988429
9816.000000;0.987465
9815.000000;0.986592
9814.000000;0.986076
9813.000000;0.985913
9812.000000;0.985682
9811.000000;0.984926
9810.000000;0.983689
9809.000000;0.982574
9808.000000;0.982130
9807.000000;0.982203
9806.000000;0.982069
9805.000000;0.981280
9804.000000;0.980142
9803.000000;0.979202
9802.000000;0.978542
9801.000000;0.977837
9800.000000;0.976942
9799.000000;0.976071
9798.000000;0.975464
9797.000000;0.975168
9796.000000;0.975110
9795.000000;0.975100
9794.000000;0.974763
9793.000000;0.973788
9792.000000;0.972378
9791.000000;0.971206
9790.000000;0.970802
9789.000000;0.971058
9788.000000;0.971382
9787.000000;0.971188
9786.000000;0.970251
9785.000000;0.968756
9784.000000;0.967145
9783.000000;0.965868
9782.000000;0.965162
9781.000000;0.965004
9780.000000;0.965209
9779.000000;0.965523
9778.000000;0.965685
9777.000000;0.965453
9776.000000;0.964630
9775.000000;0.963151
9774.000000;0.961310
9773.000000;0.959773
9772.000000;0.959051
9771.000000;0.958877
9770.000000;0.958414
9769.000000;0.957258
9768.000000;0.955972
9767.000000;0.955363
9766.000000;0.955487
9765.000000;0.955678
9764.000000;0.955375
9763.000000;0.954566
9762.000000;0.953503
9761.000000;0.952398
9760.000000;0.951464
9759.000000;0.950921
9758.000000;0.950794
9757.000000;0.950809
9756.000000;0.950546
9755.000000;0.949711
9754.000000;0.948365
9753.000000;0.946985
9752.000000;0.946120
9751.000000;0.945824
9750.000000;0.945523
9749.000000;0.944638
9748.000000;0.943197
9747.000000;0.941647
9746.000000;0.940272
9745.000000;0.939091
9744.000000;0.938182
9743.000000;0.937677
9742.000000;0.937396
9741.000000;0.936876
9740.000000;0.935949
9739.000000;0.935041
9738.000000;0.934717
9737.000000;0.935030
9736.000000;0.935462
9735.000000;0.935477
9734.000000;0.935027
9733.000000;0.934449
9732.000000;0.933950
9731.000000;0.933369
9730.000000;0.932492
9729.000000;0.931404
9728.000000;0.930300
9727.000000;0.929099
9726.000000;0.927637
9725.000000;0.926188
9724.000000;0.925366
9723.000000;0.925350
9722.000000;0.925610
9721.000000;0.925598
9720.000000;0.925333
9719.000000;0.925024
9718.000000;0.924521
9717.000000;0.923591
9716.000000;0.922487
9715.000000;0.921744
9714.000000;0.921474
9713.000000;0.921261
9712.000000;0.920741
9711.000000;0.919950
9710.000000;0.919115
9709.000000;0.918343
9708.000000;0.917536
9707.000000;0.916480
9706.000000;0.915058
9705.000000;0.913524
9704.000000;0.912427
9703.000000;0.912074
9702.000000;0.912176
9701.000000;0.912197
9700.000000;0.911930
9699.000000;0.911566
9698.000000;0.911328
9697.000000;0.911232
9696.000000;0.911085
9695.000000;0.910560
9694.000000;0.909449
9693.000000;0.908008
9692.000000;0.906845
9691.000000;0.906285
9690.000000;0.906063
9689.000000;0.905799
9688.000000;0.905451
9687.000000;0.905035
9686.000000;0.904284
9685.000000;0.903028
9684.000000;0.901674
9683.000000;0.900817
9682.000000;0.900507
9681.000000;0.900288
9680.000000;0.899854
9679.000000;0.899248
9678.000000;0.898488
9677.000000;0.897463
9676.000000;0.896250
9675.000000;0.895156
9674.000000;0.894372
9673.000000;0.893848
9672.000000;0.893475
9671.000000;0.893155
9670.000000;0.892731
9669.000000;0.892143
9668.000000;0.891598
9667.000000;0.891289
9666.000000;0.891003
9665.000000;0.890338
9664.000000;0.889270
9663.000000;0.888205
9662.000000;0.887510
9661.000000;0.887231
9660.000000;0.887211
9659.000000;0.887157
9658.000000;0.886674
9657.000000;0.885614
9656.000000;0.884374
9655.000000;0.883485
9654.000000;0.882939
9653.000000;0.882291
9652.000000;0.881425
9651.000000;0.880773
9650.000000;0.880591
9649.000000;0.880458
9648.000000;0.879794
9647.000000;0.878651
9646.000000;0.877668
9645.000000;0.877313
9644.000000;0.877401
9643.000000;0.877320
9642.000000;0.876595
9641.000000;0.875238
9640.000000;0.873675
9639.000000;0.872412
9638.000000;0.871730
9637.000000;0.871596
9636.000000;0.871730
9635.000000;0.871718
9634.000000;0.871237
9633.000000;0.870302
9632.000000;0.869286
9631.000000;0.868597
9630.000000;0.868346
9629.000000;0.868310
9628.000000;0.868102
9627.000000;0.867410
9626.000000;0.866240
9625.000000;0.864929
9624.000000;0.863784
9623.000000;0.862756
9622.000000;0.861683
9621.000000;0.860784
9620.000000;0.860520
9619.000000;0.860877
9618.000000;0.861204
9617.000000;0.860950
9616.000000;0.860205
9615.000000;0.859309
9614.000000;0.858348
9613.000000;0.857360
9612.000000;0.856601
9611.000000;0.856176
9610.000000;0.855710
9609.000000;0.854877
9608.000000;0.854007
9607.000000;0.853675
9606.000000;0.853838
9605.000000;0.853894
9604.000000;0.853499
9603.000000;0.852840
9602.000000;0.852154
9601.000000;0.851488
9600.000000;0.850956
9599.000000;0.850725
9598.000000;0.850620
9597.000000;0.850166
9596.000000;0.849173
9595.000000;0.847947
9594.000000;0.846815
9593.000000;0.845780
9592.000000;0.844741
9591.000000;0.843752
9590.000000;0.842906
9589.000000;0.842216
9588.000000;0.841742
9587.000000;0.841580
9586.000000;0.841624
9585.000000;0.841570
9584.000000;0.841265
9583.000000;0.840825
9582.000000;0.840276
9581.000000;0.839360
9580.000000;0.837906
9579.000000;0.836231
9578.000000;0.834889
9577.000000;0.834131
9576.000000;0.833794
9575.000000;0.833643
9574.000000;0.833580
9573.000000;0.833504
9572.000000;0.833197
9571.000000;0.832525
9570.000000;0.831658
9569.000000;0.830951
9568.000000;0.830584
9567.000000;0.830429
9566.000000;0.830298
9565.000000;0.830148
9564.000000;0.829953
9563.000000;0.829548
9562.000000;0.828821
9561.000000;0.827981
9560.000000;0.827362
9559.000000;0.826973
9558.000000;0.826474
9557.000000;0.825634
9556.000000;0.824584
9555.000000;0.823618
9554.000000;0.822959
9553.000000;0.822708
9552.000000;0.822728
9551.000000;0.822511
9550.000000;0.821537
9549.000000;0.819955
9548.000000;0.818622
9547.000000;0.818264
9546.000000;0.818785
9545.000000;0.819460
9544.000000;0.819560
9543.000000;0.818717
9542.000000;0.817059
9541.000000;0.815248
9540.000000;0.814080
9539.000000;0.813735
9538.000000;0.813611
9537.000000;0.813089
9536.000000;0.812258
9535.000000;0.811638
9534.000000;0.811437
9533.000000;0.811390
9532.000000;0.811117
9531.000000;0.810386
9530.000000;0.809175
9529.000000;0.807748
9528.000000;0.806540
9527.000000;0.805745
9526.000000;0.805180
9525.000000;0.804688
9524.000000;0.804401
9523.000000;0.804360
9522.000000;0.804189
9521.000000;0.803525
9520.000000;0.802569
9519.000000;0.801838
9518.000000;0.801513
9517.000000;0.801405
9516.000000;0.801461
9515.000000;0.801847
9514.000000;0.802519
9513.000000;0.803042
9512.000000;0.802911
9511.000000;0.801929
9510.000000;0.800321
9509.000000;0.798653
9508.000000;0.797481
9507.000000;0.796876
9506.000000;0.796337
9505.000000;0.795400
9504.000000;0.794191
9503.000000;0.793202
9502.000000;0.792686
9501.000000;0.792504
9500.000000;0.792375
9499.000000;0.792016
9498.000000;0.791230
9497.000000;0.790177
9496.000000;0.789412
9495.000000;0.789290
9494.000000;0.789442
9493.000000;0.789177
9492.000000;0.788337
9491.000000;0.787404
9490.000000;0.786800
9489.000000;0.786435
9488.000000;0.785982
9487.000000;0.785272
9486.000000;0.784356
9485.000000;0.783404
9484.000000;0.782632
9483.000000;0.782141
9482.000000;0.781774
9481.000000;0.781257
9480.000000;0.780519
9479.000000;0.779780
9478.000000;0.779323
9477.000000;0.779226
9476.000000;0.779264
9475.000000;0.779020
9474.000000;0.778243
9473.000000;0.777176
9472.000000;0.776368
9471.000000;0.776056
9470.000000;0.775907
9469.000000;0.775493
9468.000000;0.774790
9467.000000;0.774057
9466.000000;0.773477
9465.000000;0.773150
9464.000000;0.773163
9463.000000;0.773366
9462.000000;0.773295
9461.000000;0.772636
9460.000000;0.771611
9459.000000;0.770625
9458.000000;0.769734
9457.000000;0.768820
9456.000000;0.768085
9455.000000;0.767887
9454.000000;0.768144
9453.000000;0.768304
9452.000000;0.767972
9451.000000;0.767238
9450.000000;0.766346
9449.000000;0.765368
9448.000000;0.764309
9447.000000;0.763299
9446.000000;0.762553
9445.000000;0.762226
9444.000000;0.762323
9443.000000;0.762668
9442.000000;0.762982
9441.000000;0.763057
9440.000000;0.762827
9439.000000;0.762237
9438.000000;0.761278
9437.000000;0.760211
9436.000000;0.759511
9435.000000;0.759365
9434.000000;0.759442
9433.000000;0.759332
9432.000000;0.758933
9431.000000;0.758213
9430.000000;0.756963
9429.000000;0.755209
9428.000000;0.753623
9427.000000;0.752987
9426.000000;0.753332
9425.000000;0.753952
9424.000000;0.754198
9423.000000;0.753882
9422.000000;0.753047
9421.000000;0.751832
9420.000000;0.750604
9419.000000;0.749769
9418.000000;0.749355
9417.000000;0.749087
9416.000000;0.748865
9415.000000;0.748824
9414.000000;0.748886
9413.000000;0.748676
9412.000000;0.747988
9411.000000;0.747027
9410.000000;0.746053
9409.000000;0.745097
9408.000000;0.744171
9407.000000;0.743498
9406.000000;0.743317
9405.000000;0.743578
9404.000000;0.743956
9403.000000;0.744079
9402.000000;0.743747
9401.000000;0.743041
9400.000000;0.742230
9399.000000;0.741461
9398.000000;0.740600
9397.000000;0.739529
9396.000000;0.738476
9395.000000;0.737816
9394.000000;0.737599
9393.000000;0.737504
9392.000000;0.737253
9391.000000;0.736815
9390.000000;0.736227
9389.000000;0.735523
9388.000000;0.734904
9387.000000;0.734693
9386.000000;0.734977
9385.000000;0.735438
9384.000000;0.735616
9383.000000;0.735254
9382.000000;0.734371
9381.000000;0.733189
9380.000000;0.732017
9379.000000;0.731073
9378.000000;0.730367
9377.000000;0.729817
9376.000000;0.729444
9375.000000;0.729281
9374.000000;0.729179
9373.000000;0.728910
9372.000000;0.728472
9371.000000;0.728069
9370.000000;0.727791
9369.000000;0.727507
9368.000000;0.727111
9367.000000;0.726650
9366.000000;0.726152
9365.000000;0.725519
9364.000000;0.724707
9363.000000;0.723862
9362.000000;0.723180
9361.000000;0.722697
9360.000000;0.722304
9359.000000;0.721916
9358.000000;0.721588
9357.000000;0.721466
9356.000000;0.721592
9355.000000;0.721731
9354.000000;0.721491
9353.000000;0.720694
9352.000000;0.719578
9351.000000;0.718523
9350.000000;0.717661
9349.000000;0.716873
9348.000000;0.716100
9347.000000;0.715458
9346.000000;0.715079
9345.000000;0.714972
9344.000000;0.715014
9343.000000;0.714977
9342.000000;0.714626
9341.000000;0.713949
9340.000000;0.713255
9339.000000;0.712897
9338.000000;0.712926
9337.000000;0.713132
9336.000000;0.713317
9335.000000;0.713358
9334.000000;0.713055
9333.000000;0.712213
9332.000000;0.710954
9331.000000;0.709793
9330.000000;0.709233
9329.000000;0.709316
9328.000000;0.709596
9327.000000;0.709553
9326.000000;0.709035
9325.000000;0.708337
9324.000000;0.707831
9323.000000;0.707544
9322.000000;0.707187
9321.000000;0.706593
9320.000000;0.705967
9319.000000;0.705612
9318.000000;0.705572
9317.000000;0.705679
9316.000000;0.705812
9315.000000;0.705896
9314.000000;0.705738
9313.000000;0.705113
9312.000000;0.704049
9311.000000;0.702877
9310.000000;0.701941
9309.000000;0.701301
9308.000000;0.700757
9307.000000;0.700125
9306.000000;0.699461
9305.000000;0.699030
9304.000000;0.698979
9303.000000;0.699095
9302.000000;0.698994
9301.000000;0.698540
9300.000000;0.697904
9299.000000;0.697220
9298.000000;0.696450
9297.000000;0.695650
9296.000000;0.695089
9295.000000;0.694890
9294.000000;0.694769
9293.000000;0.694379
9292.000000;0.693789
9291.000000;0.693358
9290.000000;0.693214
9289.000000;0.693119
9288.000000;0.692830
9287.000000;0.692379
9286.000000;0.692005
9285.000000;0.691938
9284.000000;0.692238
9283.000000;0.692657
9282.000000;0.692694
9281.000000;0.691965
9280.000000;0.690596
9279.000000;0.689192
9278.000000;0.688373
9277.000000;0.688334
9276.000000;0.688752
9275.000000;0.689050
9274.000000;0.688840
9273.000000;0.688198
9272.000000;0.687460
9271.000000;0.686752
9270.000000;0.685917
9269.000000;0.684951
9268.000000;0.684197
9267.000000;0.683904
9266.000000;0.683819
9265.000000;0.683534
9264.000000;0.683093
9263.000000;0.682881
9262.000000;0.682976
9261.000000;0.682973
9260.000000;0.682573
9259.000000;0.682009
9258.000000;0.681687
9257.000000;0.681572
9256.000000;0.681198
9255.000000;0.680269
9254.000000;0.679081
9253.000000;0.678249
9252.000000;0.678079
9251.000000;0.678310
9250.000000;0.678501
9249.000000;0.678545
9248.000000;0.678621
9247.000000;0.678711
9246.000000;0.678441
9245.000000;0.677564
9244.000000;0.676411
9243.000000;0.675608
9242.000000;0.675387
9241.000000;0.675356
9240.000000;0.674988
9239.000000;0.674225
9238.000000;0.673535
9237.000000;0.673408
9236.000000;0.673847
9235.000000;0.674386
9234.000000;0.674579
9233.000000;0.674355
9232.000000;0.673871
9231.000000;0.673179
9230.000000;0.672275
9229.000000;0.671347
9228.000000;0.670662
9227.000000;0.670204
9226.000000;0.669687
9225.000000;0.668986
9224.000000;0.668283
9223.000000;0.667710
9222.000000;0.667164
9221.000000;0.666628
9220.000000;0.666365
9219.000000;0.666565
9218.000000;0.667000
9217.000000;0.667279
9216.000000;0.667281
9215.000000;0.667105
9214.000000;0.666771
9213.000000;0.666249
9212.000000;0.665683
9211.000000;0.665290
9210.000000;0.665071
9209.000000;0.664818
9208.000000;0.664404
9207.000000;0.663894
9206.000000;0.663402
9205.000000;0.663010
9204.000000;0.662787
9203.000000;0.662742
9202.000000;0.662761
9201.000000;0.662700
9200.000000;0.662530
9199.000000;0.662310
9198.000000;0.662092
9197.000000;0.661897
9196.000000;0.661691
9195.000000;0.661344
9194.000000;0.660736
9193.000000;0.659996
9192.000000;0.659444
9191.000000;0.659197
9190.000000;0.659030
9189.000000;0.658754
9188.000000;0.658540
9187.000000;0.658628
9186.000000;0.658892
9185.000000;0.658954
9184.000000;0.658650
9183.000000;0.658153
9182.000000;0.657691
9181.000000;0.657361
9180.000000;0.657173
9179.000000;0.657041
9178.000000;0.656737
9177.000000;0.656066
9176.000000;0.655143
9175.000000;0.654311
9174.000000;0.653793
9173.000000;0.653530
9172.000000;0.653375
9171.000000;0.653263
9170.000000;0.653140
9169.000000;0.652874
9168.000000;0.652382
9167.000000;0.651787
9166.000000;0.651356
9165.000000;0.651236
9164.000000;0.651270
9163.000000;0.651114
9162.000000;0.650592
9161.000000;0.649884
9160.000000;0.649333
9159.000000;0.649072
9158.000000;0.648947
9157.000000;0.648749
9156.000000;0.648395
9155.000000;0.647921
9154.000000;0.647445
9153.000000;0.647149
9152.000000;0.647115
9151.000000;0.647136
9150.000000;0.646895
9149.000000;0.646369
9148.000000;0.645884
9147.000000;0.645699
9146.000000;0.645736
9145.000000;0.645782
9144.000000;0.645736
9143.000000;0.645548
9142.000000;0.645156
9141.000000;0.644679
9140.000000;0.644454
9139.000000;0.644652
9138.000000;0.644982
9137.000000;0.645000
9136.000000;0.644602
9135.000000;0.644009
9134.000000;0.643370
9133.000000;0.642662
9132.000000;0.641950
9131.000000;0.641515
9130.000000;0.641594
9129.000000;0.642079
9128.000000;0.642513
9127.000000;0.642415
9126.000000;0.641675
9125.000000;0.640677
9124.000000;0.639973
9123.000000;0.639789
9122.000000;0.639915
9121.000000;0.640060
9120.000000;0.640157
9119.000000;0.640279
9118.000000;0.640427
9117.000000;0.640504
9116.000000;0.640383
9115.000000;0.639952
9114.000000;0.639235
9113.000000;0.638531
9112.000000;0.638238
9111.000000;0.638394
9110.000000;0.638543
9109.000000;0.638201
9108.000000;0.637380
9107.000000;0.636538
9106.000000;0.636098
9105.000000;0.636081
9104.000000;0.636094
9103.000000;0.635657
9102.000000;0.634699
9101.000000;0.633776
9100.000000;0.633576
9099.000000;0.634129
9098.000000;0.634736
9097.000000;0.634789
9096.000000;0.634420
9095.000000;0.634160
9094.000000;0.634211
9093.000000;0.634317
9092.000000;0.634164
9091.000000;0.633637
9090.000000;0.632778
9089.000000;0.631761
9088.000000;0.630879
9087.000000;0.630346
9086.000000;0.630130
9085.000000;0.630066
9084.000000;0.630057
9083.000000;0.630065
9082.000000;0.630017
9081.000000;0.629894
9080.000000;0.629780
9079.000000;0.629685
9078.000000;0.629417
9077.000000;0.628840
9076.000000;0.628136
9075.000000;0.627618
9074.000000;0.627374
9073.000000;0.627312
9072.000000;0.627477
9071.000000;0.628021
9070.000000;0.628827
9069.000000;0.629417
9068.000000;0.629376
9067.000000;0.628755
9066.000000;0.627964
9065.000000;0.627310
9064.000000;0.626708
9063.000000;0.625862
9062.000000;0.624696
9061.000000;0.623557
9060.000000;0.622925
9059.000000;0.622954
9058.000000;0.623404
9057.000000;0.623948
9056.000000;0.624380
9055.000000;0.624530
9054.000000;0.624254
9053.000000;0.623657
