Criado como novo conjunto de dados;"1909daniel.spp","-4210901.2 Secs"
cm-1;Abs
10000.000000;1.164468
9999.000000;1.164205
9998.000000;1.163659
9997.000000;1.162350
9996.000000;1.160600
9995.000000;1.159077
9994.000000;1.157956
9993.000000;1.157028
9992.000000;1.156255
9991.000000;1.155932
9990.000000;1.156190
9989.000000;1.156650
9988.000000;1.156640
9987.000000;1.155745
9986.000000;1.154170
9985.000000;1.152641
9984.000000;1.151856
9983.000000;1.151858
9982.000000;1.151958
9981.000000;1.151432
9980.000000;1.150267
9979.000000;1.149067
9978.000000;1.148313
9977.000000;1.147898
9976.000000;1.147374
9975.000000;1.146448
9974.000000;1.145194
9973.000000;1.143944
9972.000000;1.143072
9971.000000;1.142703
9970.000000;1.142517
9969.000000;1.141975
9968.000000;1.140857
9967.000000;1.139494
9966.000000;1.138402
9965.000000;1.137791
9964.000000;1.137473
9963.000000;1.137109
9962.000000;1.136453
9961.000000;1.135459
9960.000000;1.134312
9959.000000;1.133341
9958.000000;1.132778
9957.000000;1.132523
9956.000000;1.132177
9955.000000;1.131366
9954.000000;1.130128
9953.000000;1.128974
9952.000000;1.128476
9951.000000;1.128699
9950.000000;1.129081
9949.000000;1.128928
9948.000000;1.127939
9947.000000;1.126293
9946.000000;1.124437
9945.000000;1.122932
9944.000000;1.122224
9943.000000;1.122218
9942.000000;1.122195
9941.000000;1.121518
9940.000000;1.120381
9939.000000;1.119556
9938.000000;1.119418
9937.000000;1.119538
9936.000000;1.119278
9935.000000;1.118457
9934.000000;1.117298
9933.000000;1.116036
9932.000000;1.114815
9931.000000;1.113753
9930.000000;1.112879
9929.000000;1.112070
9928.000000;1.111225
9927.000000;1.110465
9926.000000;1.110109
9925.000000;1.110389
9924.000000;1.111094
9923.000000;1.111456
9922.000000;1.110644
9921.000000;1.108593
9920.000000;1.106224
9919.000000;1.104557
9918.000000;1.103722
9917.000000;1.103138
9916.000000;1.102503
9915.000000;1.102081
9914.000000;1.101980
9913.000000;1.101726
9912.000000;1.100856
9911.000000;1.099594
9910.000000;1.098607
9909.000000;1.098299
9908.000000;1.098547
9907.000000;1.098844
9906.000000;1.098508
9905.000000;1.097091
9904.000000;1.094927
9903.000000;1.093042
9902.000000;1.092149
9901.000000;1.091850
9900.000000;1.091177
9899.000000;1.089849
9898.000000;1.088563
9897.000000;1.088008
9896.000000;1.088010
9895.000000;1.087833
9894.000000;1.087068
9893.000000;1.085977
9892.000000;1.085063
9891.000000;1.084496
9890.000000;1.084009
9889.000000;1.083246
9888.000000;1.082086
9887.000000;1.080659
9886.000000;1.079203
9885.000000;1.077985
9884.000000;1.077227
9883.000000;1.076938
9882.000000;1.076819
9881.000000;1.076502
9880.000000;1.075917
9879.000000;1.075265
9878.000000;1.074647
9877.000000;1.073925
9876.000000;1.073025
9875.000000;1.072176
9874.000000;1.071684
9873.000000;1.071533
9872.000000;1.071357
9871.000000;1.070773
9870.000000;1.069736
9869.000000;1.068613
9868.000000;1.067929
9867.000000;1.067933
9866.000000;1.068376
9865.000000;1.068766
9864.000000;1.068841
9863.000000;1.068697
9862.000000;1.068445
9861.000000;1.067954
9860.000000;1.067015
9859.000000;1.065649
9858.000000;1.064115
9857.000000;1.062715
9856.000000;1.061671
9855.000000;1.061113
9854.000000;1.061057
9853.000000;1.061281
9852.000000;1.061274
9851.000000;1.060451
9850.000000;1.058649
9849.000000;1.056406
9848.000000;1.054505
9847.000000;1.053129
9846.000000;1.051730
9845.000000;1.049911
9844.000000;1.048165
9843.000000;1.047379
9842.000000;1.047766
9841.000000;1.048650
9840.000000;1.049233
9839.000000;1.049183
9838.000000;1.048520
9837.000000;1.047420
9836.000000;1.046237
9835.000000;1.045339
9834.000000;1.044727
9833.000000;1.044020
9832.000000;1.042921
9831.000000;1.041461
9830.000000;1.039811
9829.000000;1.038200
9828.000000;1.037034
9827.000000;1.036672
9826.000000;1.036956
9825.000000;1.037318
9824.000000;1.037464
9823.000000;1.037602
9822.000000;1.037818
9821.000000;1.037725
9820.000000;1.037044
9819.000000;1.036122
9818.000000;1.035443
9817.000000;1.034942
9816.000000;1.034246
9815.000000;1.033403
9814.000000;1.032862
9813.000000;1.032808
9812.000000;1.032920
9811.000000;1.032760
9810.000000;1.032058
9809.000000;1.030669
9808.000000;1.028631
9807.000000;1.026372
9806.000000;1.024560
9805.000000;1.023595
9804.000000;1.023317
9803.000000;1.023225
9802.000000;1.022897
9801.000000;1.022306
9800.000000;1.021814
9799.000000;1.021778
9798.000000;1.021979
9797.000000;1.021620
9796.000000;1.020150
9795.000000;1.018048
9794.000000;1.016435
9793.000000;1.015901
9792.000000;1.015985
9791.000000;1.015862
9790.000000;1.015274
9789.000000;1.014591
9788.000000;1.014166
9787.000000;1.013909
9786.000000;1.013517
9785.000000;1.012914
9784.000000;1.012291
9783.000000;1.011707
9782.000000;1.010814
9781.000000;1.009179
9780.000000;1.006893
9779.000000;1.004684
9778.000000;1.003296
9777.000000;1.002861
9776.000000;1.002946
9775.000000;1.003113
9774.000000;1.003245
9773.000000;1.003359
9772.000000;1.003319
9771.000000;1.002860
9770.000000;1.001832
9769.000000;1.000360
9768.000000;0.998793
9767.000000;0.997489
9766.000000;0.996632
9765.000000;0.996183
9764.000000;0.995963
9763.000000;0.995781
9762.000000;0.995506
9761.000000;0.995034
9760.000000;0.994208
9759.000000;0.992879
9758.000000;0.991132
9757.000000;0.989453
9756.000000;0.988463
9755.000000;0.988374
9754.000000;0.988764
9753.000000;0.988988
9752.000000;0.988712
9751.000000;0.987961
9750.000000;0.986876
9749.000000;0.985682
9748.000000;0.984793
9747.000000;0.984549
9746.000000;0.984773
9745.000000;0.984866
9744.000000;0.984446
9743.000000;0.983694
9742.000000;0.982956
9741.000000;0.982256
9740.000000;0.981355
9739.000000;0.980149
9738.000000;0.978790
9737.000000;0.977518
9736.000000;0.976482
9735.000000;0.975696
9734.000000;0.975031
9733.000000;0.974247
9732.000000;0.973134
9731.000000;0.971671
9730.000000;0.970134
9729.000000;0.969068
9728.000000;0.968946
9727.000000;0.969662
9726.000000;0.970476
9725.000000;0.970716
9724.000000;0.970448
9723.000000;0.970161
9722.000000;0.969864
9721.000000;0.968986
9720.000000;0.967295
9719.000000;0.965461
9718.000000;0.964393
9717.000000;0.964312
9716.000000;0.964753
9715.000000;0.965214
9714.000000;0.965432
9713.000000;0.965164
9712.000000;0.964166
9711.000000;0.962541
9710.000000;0.960830
9709.000000;0.959548
9708.000000;0.958661
9707.000000;0.957646
9706.000000;0.956149
9705.000000;0.954559
9704.000000;0.953800
9703.000000;0.954343
9702.000000;0.955477
9701.000000;0.955843
9700.000000;0.954828
9699.000000;0.953179
9698.000000;0.952081
9697.000000;0.951882
9696.000000;0.951935
9695.000000;0.951445
9694.000000;0.950183
9693.000000;0.948491
9692.000000;0.946932
9691.000000;0.945946
9690.000000;0.945589
9689.000000;0.945438
9688.000000;0.944908
9687.000000;0.943742
9686.000000;0.942197
9685.000000;0.940782
9684.000000;0.939871
9683.000000;0.939467
9682.000000;0.939220
9681.000000;0.938719
9680.000000;0.937905
9679.000000;0.937189
9678.000000;0.937025
9677.000000;0.937343
9676.000000;0.937530
9675.000000;0.937028
9674.000000;0.935899
9673.000000;0.934753
9672.000000;0.934131
9671.000000;0.934006
9670.000000;0.933910
9669.000000;0.933498
9668.000000;0.932902
9667.000000;0.932439
9666.000000;0.932070
9665.000000;0.931349
9664.000000;0.929960
9663.000000;0.928150
9662.000000;0.926546
9661.000000;0.925610
9660.000000;0.925335
9659.000000;0.925359
9658.000000;0.925278
9657.000000;0.924909
9656.000000;0.924340
9655.000000;0.923706
9654.000000;0.922933
9653.000000;0.921808
9652.000000;0.920359
9651.000000;0.918989
9650.000000;0.918104
9649.000000;0.917649
9648.000000;0.917150
9647.000000;0.916251
9646.000000;0.915101
9645.000000;0.914165
9644.000000;0.913710
9643.000000;0.913540
9642.000000;0.913271
9641.000000;0.912775
9640.000000;0.912257
9639.000000;0.911907
9638.000000;0.911657
9637.000000;0.911328
9636.000000;0.910825
9635.000000;0.910042
9634.000000;0.908819
9633.000000;0.907269
9632.000000;0.905959
9631.000000;0.905395
9630.000000;0.905364
9629.000000;0.905147
9628.000000;0.904416
9627.000000;0.903560
9626.000000;0.903019
9625.000000;0.902690
9624.000000;0.902223
9623.000000;0.901582
9622.000000;0.901005
9621.000000;0.900622
9620.000000;0.900372
9619.000000;0.900145
9618.000000;0.899759
9617.000000;0.898918
9616.000000;0.897515
9615.000000;0.895912
9614.000000;0.894672
9613.000000;0.894005
9612.000000;0.893677
9611.000000;0.893435
9610.000000;0.893250
9609.000000;0.893105
9608.000000;0.892762
9607.000000;0.891937
9606.000000;0.890681
9605.000000;0.889477
9604.000000;0.888877
9603.000000;0.888982
9602.000000;0.889292
9601.000000;0.889144
9600.000000;0.888329
9599.000000;0.887190
9598.000000;0.886128
9597.000000;0.885184
9596.000000;0.884148
9595.000000;0.882910
9594.000000;0.881620
9593.000000;0.880596
9592.000000;0.880099
9591.000000;0.880110
9590.000000;0.880288
9589.000000;0.880291
9588.000000;0.880119
9587.000000;0.879901
9586.000000;0.879395
9585.000000;0.878077
9584.000000;0.875915
9583.000000;0.873665
9582.000000;0.872128
9581.000000;0.871377
9580.000000;0.871023
9579.000000;0.870875
9578.000000;0.870903
9577.000000;0.870774
9576.000000;0.870054
9575.000000;0.868891
9574.000000;0.868000
9573.000000;0.867787
9572.000000;0.867908
9571.000000;0.867855
9570.000000;0.867585
9569.000000;0.867301
9568.000000;0.866926
9567.000000;0.866201
9566.000000;0.865192
9565.000000;0.864346
9564.000000;0.864003
9563.000000;0.864073
9562.000000;0.864193
9561.000000;0.864036
9560.000000;0.863456
9559.000000;0.862469
9558.000000;0.861233
9557.000000;0.860004
9556.000000;0.859024
9555.000000;0.858382
9554.000000;0.857917
9553.000000;0.857287
9552.000000;0.856239
9551.000000;0.854897
9550.000000;0.853750
9549.000000;0.853272
9548.000000;0.853541
9547.000000;0.854196
9546.000000;0.854711
9545.000000;0.854653
9544.000000;0.853791
9543.000000;0.852159
9542.000000;0.850110
9541.000000;0.848219
9540.000000;0.846994
9539.000000;0.846578
9538.000000;0.846683
9537.000000;0.846792
9536.000000;0.846494
9535.000000;0.845728
9534.000000;0.844768
9533.000000;0.843943
9532.000000;0.843354
9531.000000;0.842863
9530.000000;0.842360
9529.000000;0.841908
9528.000000;0.841544
9527.000000;0.841070
9526.000000;0.840256
9525.000000;0.839266
9524.000000;0.838603
9523.000000;0.838479
9522.000000;0.838430
9521.000000;0.837811
9520.000000;0.836609
9519.000000;0.835458
9518.000000;0.834835
9517.000000;0.834531
9516.000000;0.834104
9515.000000;0.833595
9514.000000;0.833473
9513.000000;0.833903
9512.000000;0.834357
9511.000000;0.834099
9510.000000;0.832943
9509.000000;0.831408
9508.000000;0.830137
9507.000000;0.829304
9506.000000;0.828644
9505.000000;0.827896
9504.000000;0.827062
9503.000000;0.826275
9502.000000;0.825593
9501.000000;0.824996
9500.000000;0.824453
9499.000000;0.823880
9498.000000;0.823136
9497.000000;0.822208
9496.000000;0.821318
9495.000000;0.820700
9494.000000;0.820322
9493.000000;0.819972
9492.000000;0.819549
9491.000000;0.819123
9490.000000;0.818735
9489.000000;0.818340
9488.000000;0.817940
9487.000000;0.817544
9486.000000;0.817001
9485.000000;0.816109
9484.000000;0.814942
9483.000000;0.813832
9482.000000;0.812942
9481.000000;0.812121
9480.000000;0.811319
9479.000000;0.810835
9478.000000;0.810887
9477.000000;0.811141
9476.000000;0.811018
9475.000000;0.810375
9474.000000;0.809563
9473.000000;0.808858
9472.000000;0.808167
9471.000000;0.807357
9470.000000;0.806547
9469.000000;0.805906
9468.000000;0.805365
9467.000000;0.804737
9466.000000;0.803991
9465.000000;0.803271
9464.000000;0.802695
9463.000000;0.802278
9462.000000;0.801986
9461.000000;0.801742
9460.000000;0.801401
9459.000000;0.800862
9458.000000;0.800230
9457.000000;0.799764
9456.000000;0.799616
9455.000000;0.799645
9454.000000;0.799532
9453.000000;0.799062
9452.000000;0.798241
9451.000000;0.797196
9450.000000;0.796032
9449.000000;0.794864
9448.000000;0.793918
9447.000000;0.793443
9446.000000;0.793429
9445.000000;0.793476
9444.000000;0.793087
9443.000000;0.792147
9442.000000;0.791048
9441.000000;0.790289
9440.000000;0.790030
9439.000000;0.790047
9438.000000;0.790025
9437.000000;0.789791
9436.000000;0.789335
9435.000000;0.788770
9434.000000;0.788305
9433.000000;0.788123
9432.000000;0.788137
9431.000000;0.787898
9430.000000;0.786903
9429.000000;0.785106
9428.000000;0.783109
9427.000000;0.781764
9426.000000;0.781521
9425.000000;0.782117
9424.000000;0.782817
9423.000000;0.782956
9422.000000;0.782348
9421.000000;0.781307
9420.000000;0.780316
9419.000000;0.779625
9418.000000;0.779118
9417.000000;0.778560
9416.000000;0.777930
9415.000000;0.777427
9414.000000;0.777140
9413.000000;0.776862
9412.000000;0.776360
9411.000000;0.775744
9410.000000;0.775342
9409.000000;0.775201
9408.000000;0.774935
9407.000000;0.774230
9406.000000;0.773318
9405.000000;0.772676
9404.000000;0.772355
9403.000000;0.771931
9402.000000;0.771191
9401.000000;0.770492
9400.000000;0.770174
9399.000000;0.769891
9398.000000;0.768929
9397.000000;0.767172
9396.000000;0.765366
9395.000000;0.764318
9394.000000;0.764129
9393.000000;0.764303
9392.000000;0.764312
9391.000000;0.763915
9390.000000;0.763204
9389.000000;0.762591
9388.000000;0.762554
9387.000000;0.763108
9386.000000;0.763629
9385.000000;0.763470
9384.000000;0.762679
9383.000000;0.761841
9382.000000;0.761286
9381.000000;0.760808
9380.000000;0.760176
9379.000000;0.759538
9378.000000;0.759099
9377.000000;0.758704
9376.000000;0.758036
9375.000000;0.757134
9374.000000;0.756422
9373.000000;0.756202
9372.000000;0.756266
9371.000000;0.756070
9370.000000;0.755246
9369.000000;0.753938
9368.000000;0.752692
9367.000000;0.752009
9366.000000;0.751970
9365.000000;0.752247
9364.000000;0.752435
9363.000000;0.752300
9362.000000;0.751746
9361.000000;0.750729
9360.000000;0.749364
9359.000000;0.748037
9358.000000;0.747235
9357.000000;0.747163
9356.000000;0.747521
9355.000000;0.747696
9354.000000;0.747243
9353.000000;0.746252
9352.000000;0.745247
9351.000000;0.744682
9350.000000;0.744525
9349.000000;0.744372
9348.000000;0.743948
9347.000000;0.743360
9346.000000;0.742823
9345.000000;0.742355
9344.000000;0.741853
9343.000000;0.741340
9342.000000;0.740950
9341.000000;0.740706
9340.000000;0.740500
9339.000000;0.740304
9338.000000;0.740241
9337.000000;0.740357
9336.000000;0.740427
9335.000000;0.740097
9334.000000;0.739214
9333.000000;0.737999
9332.000000;0.736884
9331.000000;0.736159
9330.000000;0.735735
9329.000000;0.735254
9328.000000;0.734506
9327.000000;0.733697
9326.000000;0.733218
9325.000000;0.733169
9324.000000;0.733228
9323.000000;0.733045
9322.000000;0.732614
9321.000000;0.732143
9320.000000;0.731633
9319.000000;0.730789
9318.000000;0.729409
9317.000000;0.727772
9316.000000;0.726522
9315.000000;0.726114
9314.000000;0.726368
9313.000000;0.726600
9312.000000;0.726270
9311.000000;0.725463
9310.000000;0.724661
9309.000000;0.724079
9308.000000;0.723435
9307.000000;0.722451
9306.000000;0.721348
9305.000000;0.720608
9304.000000;0.720382
9303.000000;0.720387
9302.000000;0.720354
9301.000000;0.720276
9300.000000;0.720170
9299.000000;0.719926
9298.000000;0.719581
9297.000000;0.719449
9296.000000;0.719706
9295.000000;0.719990
9294.000000;0.719730
9293.000000;0.718839
9292.000000;0.717800
9291.000000;0.717040
9290.000000;0.716492
9289.000000;0.715887
9288.000000;0.715251
9287.000000;0.714940
9286.000000;0.715224
9285.000000;0.715964
9284.000000;0.716673
9283.000000;0.716867
9282.000000;0.716362
9281.000000;0.715309
9280.000000;0.713995
9279.000000;0.712682
9278.000000;0.711618
9277.000000;0.711036
9276.000000;0.710949
9275.000000;0.711019
9274.000000;0.710829
9273.000000;0.710325
9272.000000;0.709848
9271.000000;0.709642
9270.000000;0.709537
9269.000000;0.709220
9268.000000;0.708626
9267.000000;0.707888
9266.000000;0.707053
9265.000000;0.706094
9264.000000;0.705163
9263.000000;0.704559
9262.000000;0.704362
9261.000000;0.704279
9260.000000;0.703965
9259.000000;0.703381
9258.000000;0.702731
9257.000000;0.702133
9256.000000;0.701571
9255.000000;0.701143
9254.000000;0.701098
9253.000000;0.701435
9252.000000;0.701639
9251.000000;0.701138
9250.000000;0.700038
9249.000000;0.699131
9248.000000;0.699021
9247.000000;0.699445
9246.000000;0.699614
9245.000000;0.699072
9244.000000;0.698048
9243.000000;0.697041
9242.000000;0.696331
9241.000000;0.695901
9240.000000;0.695597
9239.000000;0.695309
9238.000000;0.695102
9237.000000;0.695157
9236.000000;0.695446
9235.000000;0.695562
9234.000000;0.695103
9233.000000;0.694214
9232.000000;0.693450
9231.000000;0.693101
9230.000000;0.692911
9229.000000;0.692542
9228.000000;0.691971
9227.000000;0.691296
9226.000000;0.690473
9225.000000;0.689540
9224.000000;0.688858
9223.000000;0.688790
9222.000000;0.689209
9221.000000;0.689610
9220.000000;0.689670
9219.000000;0.689483
9218.000000;0.689285
9217.000000;0.689184
9216.000000;0.689132
9215.000000;0.688953
9214.000000;0.688402
9213.000000;0.687387
9212.000000;0.686184
9211.000000;0.685277
9210.000000;0.684932
9209.000000;0.685013
9208.000000;0.685181
9207.000000;0.685179
9206.000000;0.684951
9205.000000;0.684621
9204.000000;0.684392
9203.000000;0.684343
9202.000000;0.684313
9201.000000;0.684053
9200.000000;0.683520
9199.000000;0.682925
9198.000000;0.682484
9197.000000;0.682183
9196.000000;0.681828
9195.000000;0.681268
9194.000000;0.680553
9193.000000;0.679895
9192.000000;0.679474
9191.000000;0.679248
9190.000000;0.678978
9189.000000;0.678490
9188.000000;0.677865
9187.000000;0.677357
9186.000000;0.677141
9185.000000;0.677171
9184.000000;0.677212
9183.000000;0.677006
9182.000000;0.676494
9181.000000;0.675908
9180.000000;0.675542
9179.000000;0.675386
9178.000000;0.675095
9177.000000;0.674416
9176.000000;0.673517
9175.000000;0.672795
9174.000000;0.672483
9173.000000;0.672538
9172.000000;0.672804
9171.000000;0.673099
9170.000000;0.673236
9169.000000;0.673107
9168.000000;0.672744
9167.000000;0.672196
9166.000000;0.671454
9165.000000;0.670593
9164.000000;0.669875
9163.000000;0.669502
9162.000000;0.669369
9161.000000;0.669241
9160.000000;0.669096
9159.000000;0.669090
9158.000000;0.669209
9157.000000;0.669211
9156.000000;0.668912
9155.000000;0.668353
9154.000000;0.667679
9153.000000;0.667019
9152.000000;0.666488
9151.000000;0.666125
9150.000000;0.665807
9149.000000;0.665410
9148.000000;0.665019
9147.000000;0.664818
9146.000000;0.664739
9145.000000;0.664472
9144.000000;0.663866
9143.000000;0.663125
9142.000000;0.662544
9141.000000;0.662234
9140.000000;0.662176
9139.000000;0.662313
9138.000000;0.662471
9137.000000;0.662376
9136.000000;0.661897
9135.000000;0.661170
9134.000000;0.660394
9133.000000;0.659671
9132.000000;0.659113
9131.000000;0.658895
9130.000000;0.659007
9129.000000;0.659093
9128.000000;0.658762
9127.000000;0.658021
9126.000000;0.657276
9125.000000;0.656941
9124.000000;0.657140
9123.000000;0.657655
9122.000000;0.658048
9121.000000;0.657910
9120.000000;0.657184
9119.000000;0.656248
9118.000000;0.655587
9117.000000;0.655393
9116.000000;0.655520
9115.000000;0.655733
9114.000000;0.655866
9113.000000;0.655832
9112.000000;0.655630
9111.000000;0.655320
9110.000000;0.654918
9109.000000;0.654364
9108.000000;0.653736
9107.000000;0.653341
9106.000000;0.653381
9105.000000;0.653596
9104.000000;0.653451
9103.000000;0.652743
9102.000000;0.651812
9101.000000;0.651128
9100.000000;0.650840
9099.000000;0.650798
9098.000000;0.650814
9097.000000;0.650735
9096.000000;0.650418
9095.000000;0.649818
9094.000000;0.649120
9093.000000;0.648618
9092.000000;0.648435
9091.000000;0.648386
9090.000000;0.648148
9089.000000;0.647566
9088.000000;0.646844
9087.000000;0.646401
9086.000000;0.646458
9085.000000;0.646736
9084.000000;0.646694
9083.000000;0.646126
9082.000000;0.645417
9081.000000;0.645092
9080.000000;0.645209
9079.000000;0.645334
9078.000000;0.645054
9077.000000;0.644360
9076.000000;0.643542
9075.000000;0.642885
9074.000000;0.642524
9073.000000;0.642433
9072.000000;0.642459
9071.000000;0.642425
9070.000000;0.642315
9069.000000;0.642315
9068.000000;0.642602
9067.000000;0.643096
9066.000000;0.643457
9065.000000;0.643319
9064.000000;0.642563
9063.000000;0.641434
9062.000000;0.640402
9061.000000;0.639836
9060.000000;0.639730
9059.000000;0.639782
9058.000000;0.639752
9057.000000;0.639673
9056.000000;0.639647
9055.000000;0.639555
9054.000000;0.639122
9053.000000;0.638286
