Criado como novo conjunto de dados;"1909daniel.spp","-4290285.3 Secs"
cm-1;Abs
10000.000000;1.183092
9999.000000;1.182392
9998.000000;1.181300
9997.000000;1.180040
9996.000000;1.178912
9995.000000;1.177971
9994.000000;1.177268
9993.000000;1.176826
9992.000000;1.176665
9991.000000;1.176641
9990.000000;1.176425
9989.000000;1.175594
9988.000000;1.173997
9987.000000;1.172026
9986.000000;1.170401
9985.000000;1.169609
9984.000000;1.169651
9983.000000;1.170209
9982.000000;1.170772
9981.000000;1.170696
9980.000000;1.169631
9979.000000;1.168049
9978.000000;1.166924
9977.000000;1.166701
9976.000000;1.166845
9975.000000;1.166586
9974.000000;1.165767
9973.000000;1.164739
9972.000000;1.163759
9971.000000;1.162849
9970.000000;1.162014
9969.000000;1.161263
9968.000000;1.160514
9967.000000;1.159683
9966.000000;1.158765
9965.000000;1.157723
9964.000000;1.156500
9963.000000;1.155303
9962.000000;1.154624
9961.000000;1.154734
9960.000000;1.155309
9959.000000;1.155715
9958.000000;1.155539
9957.000000;1.154739
9956.000000;1.153478
9955.000000;1.151992
9954.000000;1.150518
9953.000000;1.149206
9952.000000;1.148173
9951.000000;1.147573
9950.000000;1.147377
9949.000000;1.147154
9948.000000;1.146419
9947.000000;1.145249
9946.000000;1.144210
9945.000000;1.143604
9944.000000;1.143183
9943.000000;1.142727
9942.000000;1.142442
9941.000000;1.142468
9940.000000;1.142404
9939.000000;1.141724
9938.000000;1.140487
9937.000000;1.139251
9936.000000;1.138444
9935.000000;1.138040
9934.000000;1.137734
9933.000000;1.137182
9932.000000;1.136261
9931.000000;1.135276
9930.000000;1.134740
9929.000000;1.134739
9928.000000;1.134684
9927.000000;1.133936
9926.000000;1.132512
9925.000000;1.130945
9924.000000;1.129652
9923.000000;1.128694
9922.000000;1.127968
9921.000000;1.127326
9920.000000;1.126588
9919.000000;1.125710
9918.000000;1.124890
9917.000000;1.124319
9916.000000;1.123905
9915.000000;1.123413
9914.000000;1.122782
9913.000000;1.122065
9912.000000;1.121135
9911.000000;1.119710
9910.000000;1.117781
9909.000000;1.115827
9908.000000;1.114511
9907.000000;1.114175
9906.000000;1.114619
9905.000000;1.115320
9904.000000;1.115805
9903.000000;1.115834
9902.000000;1.115308
9901.000000;1.114242
9900.000000;1.112927
9899.000000;1.111900
9898.000000;1.111502
9897.000000;1.111535
9896.000000;1.111550
9895.000000;1.111312
9894.000000;1.110761
9893.000000;1.109747
9892.000000;1.108248
9891.000000;1.106733
9890.000000;1.105832
9889.000000;1.105559
9888.000000;1.105281
9887.000000;1.104539
9886.000000;1.103489
9885.000000;1.102444
9884.000000;1.101473
9883.000000;1.100618
9882.000000;1.100086
9881.000000;1.099933
9880.000000;1.099871
9879.000000;1.099620
9878.000000;1.099165
9877.000000;1.098504
9876.000000;1.097509
9875.000000;1.096273
9874.000000;1.095225
9873.000000;1.094591
9872.000000;1.094036
9871.000000;1.093185
9870.000000;1.092225
9869.000000;1.091615
9868.000000;1.091428
9867.000000;1.091321
9866.000000;1.090994
9865.000000;1.090352
9864.000000;1.089376
9863.000000;1.088207
9862.000000;1.087266
9861.000000;1.086878
9860.000000;1.086791
9859.000000;1.086394
9858.000000;1.085448
9857.000000;1.084316
9856.000000;1.083419
9855.000000;1.082730
9854.000000;1.081936
9853.000000;1.080915
9852.000000;1.079888
9851.000000;1.079150
9850.000000;1.078763
9849.000000;1.078512
9848.000000;1.078095
9847.000000;1.077322
9846.000000;1.076191
9845.000000;1.074897
9844.000000;1.073817
9843.000000;1.073328
9842.000000;1.073457
9841.000000;1.073718
9840.000000;1.073459
9839.000000;1.072414
9838.000000;1.070840
9837.000000;1.069205
9836.000000;1.067856
9835.000000;1.066939
9834.000000;1.066426
9833.000000;1.066229
9832.000000;1.066388
9831.000000;1.067046
9830.000000;1.068042
9829.000000;1.068668
9828.000000;1.068135
9827.000000;1.066340
9826.000000;1.063954
9825.000000;1.061837
9824.000000;1.060562
9823.000000;1.060247
9822.000000;1.060394
9821.000000;1.060000
9820.000000;1.058378
9819.000000;1.056043
9818.000000;1.054382
9817.000000;1.054271
9816.000000;1.055271
9815.000000;1.056270
9814.000000;1.056584
9813.000000;1.056289
9812.000000;1.055800
9811.000000;1.055381
9810.000000;1.054903
9809.000000;1.053962
9808.000000;1.052386
9807.000000;1.050626
9806.000000;1.049349
9805.000000;1.048627
9804.000000;1.047884
9803.000000;1.046733
9802.000000;1.045459
9801.000000;1.044513
9800.000000;1.043962
9799.000000;1.043661
9798.000000;1.043534
9797.000000;1.043373
9796.000000;1.042742
9795.000000;1.041523
9794.000000;1.040322
9793.000000;1.039893
9792.000000;1.040272
9791.000000;1.040769
9790.000000;1.040720
9789.000000;1.039974
9788.000000;1.038770
9787.000000;1.037455
9786.000000;1.036312
9785.000000;1.035421
9784.000000;1.034689
9783.000000;1.034058
9782.000000;1.033581
9781.000000;1.033187
9780.000000;1.032599
9779.000000;1.031721
9778.000000;1.030878
9777.000000;1.030403
9776.000000;1.030133
9775.000000;1.029627
9774.000000;1.028781
9773.000000;1.027917
9772.000000;1.027292
9771.000000;1.026819
9770.000000;1.026309
9769.000000;1.025698
9768.000000;1.024942
9767.000000;1.023911
9766.000000;1.022581
9765.000000;1.021243
9764.000000;1.020337
9763.000000;1.020021
9762.000000;1.019972
9761.000000;1.019709
9760.000000;1.019105
9759.000000;1.018473
9758.000000;1.018080
9757.000000;1.017765
9756.000000;1.017202
9755.000000;1.016401
9754.000000;1.015662
9753.000000;1.015095
9752.000000;1.014517
9751.000000;1.013843
9750.000000;1.013213
9749.000000;1.012627
9748.000000;1.011753
9747.000000;1.010344
9746.000000;1.008642
9745.000000;1.007189
9744.000000;1.006372
9743.000000;1.006234
9742.000000;1.006489
9741.000000;1.006634
9740.000000;1.006300
9739.000000;1.005674
9738.000000;1.005353
9737.000000;1.005570
9736.000000;1.005786
9735.000000;1.005280
9734.000000;1.003975
9733.000000;1.002407
9732.000000;1.001036
9731.000000;0.999923
9730.000000;0.998990
9729.000000;0.998200
9728.000000;0.997417
9727.000000;0.996366
9726.000000;0.994938
9725.000000;0.993448
9724.000000;0.992478
9723.000000;0.992417
9722.000000;0.993102
9721.000000;0.993824
9720.000000;0.993778
9719.000000;0.992671
9718.000000;0.991003
9717.000000;0.989692
9716.000000;0.989337
9715.000000;0.989724
9714.000000;0.990027
9713.000000;0.989529
9712.000000;0.988235
9711.000000;0.986779
9710.000000;0.985780
9709.000000;0.985363
9708.000000;0.985272
9707.000000;0.985220
9706.000000;0.984959
9705.000000;0.984214
9704.000000;0.982884
9703.000000;0.981290
9702.000000;0.979980
9701.000000;0.979265
9700.000000;0.979077
9699.000000;0.979206
9698.000000;0.979403
9697.000000;0.979330
9696.000000;0.978730
9695.000000;0.977745
9694.000000;0.976807
9693.000000;0.976154
9692.000000;0.975653
9691.000000;0.975121
9690.000000;0.974529
9689.000000;0.973826
9688.000000;0.972881
9687.000000;0.971759
9686.000000;0.970824
9685.000000;0.970347
9684.000000;0.970196
9683.000000;0.970040
9682.000000;0.969692
9681.000000;0.969140
9680.000000;0.968413
9679.000000;0.967576
9678.000000;0.966711
9677.000000;0.965779
9676.000000;0.964646
9675.000000;0.963380
9674.000000;0.962328
9673.000000;0.961741
9672.000000;0.961419
9671.000000;0.960906
9670.000000;0.959990
9669.000000;0.958906
9668.000000;0.958076
9667.000000;0.957716
9666.000000;0.957609
9665.000000;0.957270
9664.000000;0.956424
9663.000000;0.955311
9662.000000;0.954390
9661.000000;0.953754
9660.000000;0.953096
9659.000000;0.952286
9658.000000;0.951652
9657.000000;0.951508
9656.000000;0.951665
9655.000000;0.951630
9654.000000;0.951128
9653.000000;0.950196
9652.000000;0.948929
9651.000000;0.947460
9650.000000;0.946165
9649.000000;0.945520
9648.000000;0.945593
9647.000000;0.945831
9646.000000;0.945519
9645.000000;0.944451
9644.000000;0.943057
9643.000000;0.941925
9642.000000;0.941298
9641.000000;0.941053
9640.000000;0.941001
9639.000000;0.941002
9638.000000;0.940793
9637.000000;0.939989
9636.000000;0.938471
9635.000000;0.936682
9634.000000;0.935310
9633.000000;0.934676
9632.000000;0.934571
9631.000000;0.934625
9630.000000;0.934619
9629.000000;0.934443
9628.000000;0.933991
9627.000000;0.933225
9626.000000;0.932259
9625.000000;0.931296
9624.000000;0.930515
9623.000000;0.929977
9622.000000;0.929528
9621.000000;0.928874
9620.000000;0.927930
9619.000000;0.927044
9618.000000;0.926629
9617.000000;0.926610
9616.000000;0.926474
9615.000000;0.925911
9614.000000;0.925156
9613.000000;0.924580
9612.000000;0.924145
9611.000000;0.923433
9610.000000;0.922105
9609.000000;0.920271
9608.000000;0.918523
9607.000000;0.917597
9606.000000;0.917773
9605.000000;0.918508
9604.000000;0.918818
9603.000000;0.918205
9602.000000;0.917107
9601.000000;0.916347
9600.000000;0.916278
9599.000000;0.916571
9598.000000;0.916656
9597.000000;0.916192
9596.000000;0.915218
9595.000000;0.914052
9594.000000;0.913073
9593.000000;0.912477
9592.000000;0.912126
9591.000000;0.911667
9590.000000;0.910830
9589.000000;0.909672
9588.000000;0.908533
9587.000000;0.907684
9586.000000;0.907030
9585.000000;0.906275
9584.000000;0.905412
9583.000000;0.904828
9582.000000;0.904773
9581.000000;0.904885
9580.000000;0.904525
9579.000000;0.903524
9578.000000;0.902346
9577.000000;0.901499
9576.000000;0.901067
9575.000000;0.900830
9574.000000;0.900622
9573.000000;0.900431
9572.000000;0.900288
9571.000000;0.900170
9570.000000;0.899945
9569.000000;0.899421
9568.000000;0.898526
9567.000000;0.897443
9566.000000;0.896425
9565.000000;0.895516
9564.000000;0.894567
9563.000000;0.893510
9562.000000;0.892468
9561.000000;0.891615
9560.000000;0.891054
9559.000000;0.890816
9558.000000;0.890801
9557.000000;0.890758
9556.000000;0.890457
9555.000000;0.889908
9554.000000;0.889247
9553.000000;0.888473
9552.000000;0.887489
9551.000000;0.886393
9550.000000;0.885505
9549.000000;0.885067
9548.000000;0.885037
9547.000000;0.885165
9546.000000;0.885153
9545.000000;0.884768
9544.000000;0.883977
9543.000000;0.882954
9542.000000;0.881835
9541.000000;0.880574
9540.000000;0.879217
9539.000000;0.878132
9538.000000;0.877658
9537.000000;0.877593
9536.000000;0.877385
9535.000000;0.876813
9534.000000;0.876196
9533.000000;0.875876
9532.000000;0.875839
9531.000000;0.875883
9530.000000;0.875836
9529.000000;0.875510
9528.000000;0.874775
9527.000000;0.873849
9526.000000;0.873242
9525.000000;0.873155
9524.000000;0.873144
9523.000000;0.872599
9522.000000;0.871445
9521.000000;0.870173
9520.000000;0.869291
9519.000000;0.868882
9518.000000;0.868629
9517.000000;0.868182
9516.000000;0.867544
9515.000000;0.867128
9514.000000;0.867263
9513.000000;0.867632
9512.000000;0.867417
9511.000000;0.866143
9510.000000;0.864234
9509.000000;0.862580
9508.000000;0.861660
9507.000000;0.861240
9506.000000;0.860822
9505.000000;0.860235
9504.000000;0.859777
9503.000000;0.859833
9502.000000;0.860381
9501.000000;0.860878
9500.000000;0.860684
9499.000000;0.859638
9498.000000;0.858161
9497.000000;0.856834
9496.000000;0.855924
9495.000000;0.855289
9494.000000;0.854617
9493.000000;0.853747
9492.000000;0.852838
9491.000000;0.852217
9490.000000;0.852035
9489.000000;0.852129
9488.000000;0.852237
9487.000000;0.852236
9486.000000;0.852039
9485.000000;0.851465
9484.000000;0.850412
9483.000000;0.849107
9482.000000;0.847951
9481.000000;0.847164
9480.000000;0.846726
9479.000000;0.846579
9478.000000;0.846618
9477.000000;0.846566
9476.000000;0.846162
9475.000000;0.845509
9474.000000;0.844991
9473.000000;0.844769
9472.000000;0.844549
9471.000000;0.843903
9470.000000;0.842682
9469.000000;0.841091
9468.000000;0.839525
9467.000000;0.838339
9466.000000;0.837674
9465.000000;0.837442
9464.000000;0.837496
9463.000000;0.837706
9462.000000;0.837782
9461.000000;0.837289
9460.000000;0.836123
9459.000000;0.834812
9458.000000;0.834013
9457.000000;0.833803
9456.000000;0.833778
9455.000000;0.833697
9454.000000;0.833604
9453.000000;0.833373
9452.000000;0.832649
9451.000000;0.831427
9450.000000;0.830247
9449.000000;0.829592
9448.000000;0.829409
9447.000000;0.829354
9446.000000;0.829192
9445.000000;0.828741
9444.000000;0.827777
9443.000000;0.826377
9442.000000;0.825128
9441.000000;0.824648
9440.000000;0.824905
9439.000000;0.825229
9438.000000;0.825012
9437.000000;0.824263
9436.000000;0.823473
9435.000000;0.823058
9434.000000;0.822971
9433.000000;0.822816
9432.000000;0.822285
9431.000000;0.821420
9430.000000;0.820434
9429.000000;0.819459
9428.000000;0.818636
9427.000000;0.818249
9426.000000;0.818451
9425.000000;0.818895
9424.000000;0.818978
9423.000000;0.818516
9422.000000;0.817868
9421.000000;0.817338
9420.000000;0.816743
9419.000000;0.815733
9418.000000;0.814323
9417.000000;0.812936
9416.000000;0.812040
9415.000000;0.811793
9414.000000;0.811892
9413.000000;0.811742
9412.000000;0.810987
9411.000000;0.809913
9410.000000;0.809137
9409.000000;0.808895
9408.000000;0.808890
9407.000000;0.808847
9406.000000;0.808812
9405.000000;0.808792
9404.000000;0.808495
9403.000000;0.807735
9402.000000;0.806799
9401.000000;0.806083
9400.000000;0.805552
9399.000000;0.804891
9398.000000;0.804044
9397.000000;0.803286
9396.000000;0.802789
9395.000000;0.802424
9394.000000;0.802020
9393.000000;0.801578
9392.000000;0.801135
9391.000000;0.800581
9390.000000;0.799745
9389.000000;0.798652
9388.000000;0.797633
9387.000000;0.797102
9386.000000;0.797165
9385.000000;0.797461
9384.000000;0.797495
9383.000000;0.797126
9382.000000;0.796635
9381.000000;0.796304
9380.000000;0.796091
9379.000000;0.795788
9378.000000;0.795347
9377.000000;0.794909
9376.000000;0.794565
9375.000000;0.794227
9374.000000;0.793726
9373.000000;0.793002
9372.000000;0.792200
9371.000000;0.791544
9370.000000;0.791085
9369.000000;0.790607
9368.000000;0.789896
9367.000000;0.789052
9366.000000;0.788389
9365.000000;0.788049
9364.000000;0.787880
9363.000000;0.787704
9362.000000;0.787479
9361.000000;0.787162
9360.000000;0.786616
9359.000000;0.785813
9358.000000;0.784998
9357.000000;0.784484
9356.000000;0.784310
9355.000000;0.784204
9354.000000;0.783870
9353.000000;0.783246
9352.000000;0.782496
9351.000000;0.781771
9350.000000;0.781005
9349.000000;0.780006
9348.000000;0.778794
9347.000000;0.777738
9346.000000;0.777213
9345.000000;0.777205
9344.000000;0.777393
9343.000000;0.777541
9342.000000;0.777613
9341.000000;0.777564
9340.000000;0.777279
9339.000000;0.776817
9338.000000;0.776481
9337.000000;0.776504
9336.000000;0.776757
9335.000000;0.776819
9334.000000;0.776272
9333.000000;0.774992
9332.000000;0.773313
9331.000000;0.771927
9330.000000;0.771406
9329.000000;0.771715
9328.000000;0.772277
9327.000000;0.772510
9326.000000;0.772220
9325.000000;0.771505
9324.000000;0.770531
9323.000000;0.769474
9322.000000;0.768520
9321.000000;0.767801
9320.000000;0.767369
9319.000000;0.767230
9318.000000;0.767296
9317.000000;0.767316
9316.000000;0.767045
9315.000000;0.766505
9314.000000;0.765918
9313.000000;0.765368
9312.000000;0.764717
9311.000000;0.763926
9310.000000;0.763232
9309.000000;0.762882
9308.000000;0.762801
9307.000000;0.762659
9306.000000;0.762210
9305.000000;0.761520
9304.000000;0.760915
9303.000000;0.760710
9302.000000;0.760899
9301.000000;0.761113
9300.000000;0.760958
9299.000000;0.760380
9298.000000;0.759633
9297.000000;0.758974
9296.000000;0.758524
9295.000000;0.758293
9294.000000;0.758129
9293.000000;0.757725
9292.000000;0.756963
9291.000000;0.756207
9290.000000;0.755943
9289.000000;0.756125
9288.000000;0.756206
9287.000000;0.755893
9286.000000;0.755527
9285.000000;0.755508
9284.000000;0.755660
9283.000000;0.755455
9282.000000;0.754671
9281.000000;0.753583
9280.000000;0.752608
9279.000000;0.752000
9278.000000;0.751788
9277.000000;0.751778
9276.000000;0.751608
9275.000000;0.751005
9274.000000;0.750050
9273.000000;0.749128
9272.000000;0.748573
9271.000000;0.748378
9270.000000;0.748244
9269.000000;0.747913
9268.000000;0.747451
9267.000000;0.747151
9266.000000;0.747144
9265.000000;0.747221
9264.000000;0.747172
9263.000000;0.747149
9262.000000;0.747429
9261.000000;0.747874
9260.000000;0.747945
9259.000000;0.747325
9258.000000;0.746252
9257.000000;0.745102
9256.000000;0.743915
9255.000000;0.742588
9254.000000;0.741316
9253.000000;0.740509
9252.000000;0.740335
9251.000000;0.740557
9250.000000;0.740860
9249.000000;0.741125
9248.000000;0.741361
9247.000000;0.741473
9246.000000;0.741218
9245.000000;0.740403
9244.000000;0.739112
9243.000000;0.737731
9242.000000;0.736667
9241.000000;0.736036
9240.000000;0.735666
9239.000000;0.735414
9238.000000;0.735350
9237.000000;0.735578
9236.000000;0.735950
9235.000000;0.736086
9234.000000;0.735707
9233.000000;0.734905
9232.000000;0.734063
9231.000000;0.733504
9230.000000;0.733223
9229.000000;0.732977
9228.000000;0.732585
9227.000000;0.732068
9226.000000;0.731512
9225.000000;0.730952
9224.000000;0.730477
9223.000000;0.730290
9222.000000;0.730472
9221.000000;0.730780
9220.000000;0.730821
9219.000000;0.730428
9218.000000;0.729727
9217.000000;0.728915
9216.000000;0.728140
9215.000000;0.727547
9214.000000;0.727208
9213.000000;0.726999
9212.000000;0.726735
9211.000000;0.726449
9210.000000;0.726356
9209.000000;0.726530
9208.000000;0.726793
9207.000000;0.726954
9206.000000;0.726987
9205.000000;0.726893
9204.000000;0.726600
9203.000000;0.726087
9202.000000;0.725492
9201.000000;0.724987
9200.000000;0.724622
9199.000000;0.724360
9198.000000;0.724175
9197.000000;0.724016
9196.000000;0.723749
9195.000000;0.723240
9194.000000;0.722496
9193.000000;0.721696
9192.000000;0.721076
9191.000000;0.720747
9190.000000;0.720601
9189.000000;0.720442
9188.000000;0.720232
9187.000000;0.720119
9186.000000;0.720149
9185.000000;0.720087
9184.000000;0.719652
9183.000000;0.718859
9182.000000;0.717988
9181.000000;0.717264
9180.000000;0.716772
9179.000000;0.716578
9178.000000;0.716711
9177.000000;0.716976
9176.000000;0.717022
9175.000000;0.716692
9174.000000;0.716168
9173.000000;0.715745
9172.000000;0.715565
9171.000000;0.715595
9170.000000;0.715672
9169.000000;0.715529
9168.000000;0.714944
9167.000000;0.713991
9166.000000;0.713056
9165.000000;0.712503
9164.000000;0.712316
9163.000000;0.712106
9162.000000;0.711471
9161.000000;0.710383
9160.000000;0.709246
9159.000000;0.708527
9158.000000;0.708304
9157.000000;0.708255
9156.000000;0.708117
9155.000000;0.708003
9154.000000;0.708130
9153.000000;0.708400
9152.000000;0.708449
9151.000000;0.708079
9150.000000;0.707451
9149.000000;0.706876
9148.000000;0.706563
9147.000000;0.706528
9146.000000;0.706570
9145.000000;0.706385
9144.000000;0.705873
9143.000000;0.705293
9142.000000;0.704998
9141.000000;0.705057
9140.000000;0.705282
9139.000000;0.705505
9138.000000;0.705610
9137.000000;0.705415
9136.000000;0.704823
9135.000000;0.704065
9134.000000;0.703520
9133.000000;0.703263
9132.000000;0.703054
9131.000000;0.702784
9130.000000;0.702646
9129.000000;0.702775
9128.000000;0.702974
9127.000000;0.702950
9126.000000;0.702678
9125.000000;0.702401
9124.000000;0.702352
9123.000000;0.702524
9122.000000;0.702626
9121.000000;0.702283
9120.000000;0.701408
9119.000000;0.700386
9118.000000;0.699712
9117.000000;0.699486
9116.000000;0.699418
9115.000000;0.699297
9114.000000;0.699211
9113.000000;0.699275
9112.000000;0.699404
9111.000000;0.699461
9110.000000;0.699426
9109.000000;0.699317
9108.000000;0.699117
9107.000000;0.698896
9106.000000;0.698833
9105.000000;0.698936
9104.000000;0.698854
9103.000000;0.698149
9102.000000;0.696801
9101.000000;0.695365
9100.000000;0.694577
9099.000000;0.694747
9098.000000;0.695478
9097.000000;0.696018
9096.000000;0.695934
9095.000000;0.695403
9094.000000;0.694843
9093.000000;0.694423
9092.000000;0.694058
9091.000000;0.693683
9090.000000;0.693286
9089.000000;0.692764
9088.000000;0.692058
9087.000000;0.691390
9086.000000;0.691103
9085.000000;0.691189
9084.000000;0.691221
9083.000000;0.690853
9082.000000;0.690216
9081.000000;0.689720
9080.000000;0.689578
9079.000000;0.689612
9078.000000;0.689477
9077.000000;0.689044
9076.000000;0.688562
9075.000000;0.688372
9074.000000;0.688444
9073.000000;0.688361
9072.000000;0.687908
9071.000000;0.687446
9070.000000;0.687467
9069.000000;0.687935
9068.000000;0.688370
9067.000000;0.688470
9066.000000;0.688314
9065.000000;0.687994
9064.000000;0.687422
9063.000000;0.686583
9062.000000;0.685674
9061.000000;0.684899
9060.000000;0.684346
9059.000000;0.684117
9058.000000;0.684294
9057.000000;0.684700
9056.000000;0.684909
9055.000000;0.684629
9054.000000;0.683937
9053.000000;0.683145
