Criado como novo conjunto de dados;"1909daniel.spp","-4274444.3 Secs"
cm-1;Abs
10000.000000;1.358031
9999.000000;1.357714
9998.000000;1.357562
9997.000000;1.357364
9996.000000;1.356974
9995.000000;1.356552
9994.000000;1.356215
9993.000000;1.355821
9992.000000;1.355086
9991.000000;1.353953
9990.000000;1.352572
9989.000000;1.351063
9988.000000;1.349440
9987.000000;1.347735
9986.000000;1.346043
9985.000000;1.344541
9984.000000;1.343565
9983.000000;1.343487
9982.000000;1.344241
9981.000000;1.345086
9980.000000;1.345194
9979.000000;1.344437
9978.000000;1.343280
9977.000000;1.342047
9976.000000;1.340660
9975.000000;1.339121
9974.000000;1.337879
9973.000000;1.337468
9972.000000;1.337965
9971.000000;1.338944
9970.000000;1.339838
9969.000000;1.340251
9968.000000;1.340065
9967.000000;1.339377
9966.000000;1.338343
9965.000000;1.337126
9964.000000;1.336028
9963.000000;1.335490
9962.000000;1.335670
9961.000000;1.336023
9960.000000;1.335631
9959.000000;1.334085
9958.000000;1.331850
9957.000000;1.329655
9956.000000;1.327756
9955.000000;1.325970
9954.000000;1.324237
9953.000000;1.322867
9952.000000;1.322234
9951.000000;1.322395
9950.000000;1.323042
9949.000000;1.323780
9948.000000;1.324330
9947.000000;1.324423
9946.000000;1.323650
9945.000000;1.321754
9944.000000;1.319176
9943.000000;1.317002
9942.000000;1.316025
9941.000000;1.316016
9940.000000;1.316185
9939.000000;1.316158
9938.000000;1.316065
9937.000000;1.315799
9936.000000;1.314849
9935.000000;1.313071
9934.000000;1.311094
9933.000000;1.309675
9932.000000;1.309013
9931.000000;1.308892
9930.000000;1.309041
9929.000000;1.309075
9928.000000;1.308536
9927.000000;1.307473
9926.000000;1.306666
9925.000000;1.306721
9924.000000;1.307082
9923.000000;1.306466
9922.000000;1.304333
9921.000000;1.301479
9920.000000;1.299175
9919.000000;1.298133
9918.000000;1.298310
9917.000000;1.299219
9916.000000;1.300210
9915.000000;1.300707
9914.000000;1.300451
9913.000000;1.299498
9912.000000;1.298009
9911.000000;1.296220
9910.000000;1.294601
9909.000000;1.293703
9908.000000;1.293654
9907.000000;1.293874
9906.000000;1.293426
9905.000000;1.291738
9904.000000;1.289105
9903.000000;1.286579
9902.000000;1.285211
9901.000000;1.285133
9900.000000;1.285458
9899.000000;1.285375
9898.000000;1.285230
9897.000000;1.286115
9896.000000;1.288293
9895.000000;1.290497
9894.000000;1.291074
9893.000000;1.289584
9892.000000;1.286922
9891.000000;1.284162
9890.000000;1.281821
9889.000000;1.280110
9888.000000;1.279237
9887.000000;1.279167
9886.000000;1.279409
9885.000000;1.279389
9884.000000;1.279004
9883.000000;1.278568
9882.000000;1.278253
9881.000000;1.277799
9880.000000;1.276865
9879.000000;1.275518
9878.000000;1.274270
9877.000000;1.273674
9876.000000;1.273885
9875.000000;1.274454
9874.000000;1.274454
9873.000000;1.273114
9872.000000;1.270667
9871.000000;1.268457
9870.000000;1.267763
9869.000000;1.268398
9868.000000;1.268785
9867.000000;1.267645
9866.000000;1.265353
9865.000000;1.263298
9864.000000;1.262282
9863.000000;1.262026
9862.000000;1.262033
9861.000000;1.262269
9860.000000;1.262775
9859.000000;1.263154
9858.000000;1.262868
9857.000000;1.261895
9856.000000;1.260703
9855.000000;1.259619
9854.000000;1.258470
9853.000000;1.256898
9852.000000;1.254895
9851.000000;1.252961
9850.000000;1.251783
9849.000000;1.251754
9848.000000;1.252727
9847.000000;1.254125
9846.000000;1.255212
9845.000000;1.255326
9844.000000;1.254157
9843.000000;1.252058
9842.000000;1.249982
9841.000000;1.248779
9840.000000;1.248439
9839.000000;1.248179
9838.000000;1.247358
9837.000000;1.246093
9836.000000;1.244899
9835.000000;1.244033
9834.000000;1.243395
9833.000000;1.242833
9832.000000;1.242281
9831.000000;1.241697
9830.000000;1.241134
9829.000000;1.240854
9828.000000;1.241056
9827.000000;1.241485
9826.000000;1.241544
9825.000000;1.240910
9824.000000;1.239859
9823.000000;1.238830
9822.000000;1.237834
9821.000000;1.236555
9820.000000;1.234956
9819.000000;1.233512
9818.000000;1.232747
9817.000000;1.232671
9816.000000;1.232805
9815.000000;1.232692
9814.000000;1.232229
9813.000000;1.231518
9812.000000;1.230647
9811.000000;1.229710
9810.000000;1.228890
9809.000000;1.228284
9808.000000;1.227711
9807.000000;1.226901
9806.000000;1.225875
9805.000000;1.224969
9804.000000;1.224454
9803.000000;1.224296
9802.000000;1.224286
9801.000000;1.224220
9800.000000;1.223873
9799.000000;1.222981
9798.000000;1.221447
9797.000000;1.219517
9796.000000;1.217664
9795.000000;1.216319
9794.000000;1.215725
9793.000000;1.215857
9792.000000;1.216342
9791.000000;1.216619
9790.000000;1.216346
9789.000000;1.215561
9788.000000;1.214379
9787.000000;1.212764
9786.000000;1.210851
9785.000000;1.209269
9784.000000;1.208662
9783.000000;1.208891
9782.000000;1.209130
9781.000000;1.208903
9780.000000;1.208641
9779.000000;1.208941
9778.000000;1.209590
9777.000000;1.209729
9776.000000;1.208829
9775.000000;1.207146
9774.000000;1.205264
9773.000000;1.203576
9772.000000;1.202268
9771.000000;1.201455
9770.000000;1.201080
9769.000000;1.200816
9768.000000;1.200278
9767.000000;1.199343
9766.000000;1.198216
9765.000000;1.197242
9764.000000;1.196680
9763.000000;1.196491
9762.000000;1.196287
9761.000000;1.195647
9760.000000;1.194665
9759.000000;1.194037
9758.000000;1.194331
9757.000000;1.195173
9756.000000;1.195374
9755.000000;1.194021
9754.000000;1.191323
9753.000000;1.188349
9752.000000;1.186086
9751.000000;1.184864
9750.000000;1.184477
9749.000000;1.184583
9748.000000;1.184942
9747.000000;1.185358
9746.000000;1.185500
9745.000000;1.184931
9744.000000;1.183481
9743.000000;1.181631
9742.000000;1.180284
9741.000000;1.179953
9740.000000;1.180246
9739.000000;1.180348
9738.000000;1.179940
9737.000000;1.179408
9736.000000;1.179153
9735.000000;1.179027
9734.000000;1.178597
9733.000000;1.177731
9732.000000;1.176719
9731.000000;1.175950
9730.000000;1.175675
9729.000000;1.175883
9728.000000;1.176134
9727.000000;1.175615
9726.000000;1.173787
9725.000000;1.171099
9724.000000;1.168779
9723.000000;1.167761
9722.000000;1.167935
9721.000000;1.168498
9720.000000;1.168811
9719.000000;1.168728
9718.000000;1.168319
9717.000000;1.167640
9716.000000;1.166813
9715.000000;1.166064
9714.000000;1.165518
9713.000000;1.165061
9712.000000;1.164418
9711.000000;1.163362
9710.000000;1.161931
9709.000000;1.160527
9708.000000;1.159669
9707.000000;1.159438
9706.000000;1.159235
9705.000000;1.158362
9704.000000;1.156928
9703.000000;1.155862
9702.000000;1.155853
9701.000000;1.156527
9700.000000;1.156879
9699.000000;1.156383
9698.000000;1.155365
9697.000000;1.154380
9696.000000;1.153583
9695.000000;1.152788
9694.000000;1.151857
9693.000000;1.150877
9692.000000;1.150033
9691.000000;1.149419
9690.000000;1.148930
9689.000000;1.148343
9688.000000;1.147572
9687.000000;1.146787
9686.000000;1.146165
9685.000000;1.145573
9684.000000;1.144720
9683.000000;1.143652
9682.000000;1.142849
9681.000000;1.142680
9680.000000;1.142917
9679.000000;1.142947
9678.000000;1.142382
9677.000000;1.141331
9676.000000;1.140138
9675.000000;1.139058
9674.000000;1.138181
9673.000000;1.137530
9672.000000;1.137091
9671.000000;1.136765
9670.000000;1.136352
9669.000000;1.135695
9668.000000;1.134910
9667.000000;1.134383
9666.000000;1.134357
9665.000000;1.134491
9664.000000;1.134045
9663.000000;1.132637
9662.000000;1.130729
9661.000000;1.129229
9660.000000;1.128677
9659.000000;1.128874
9658.000000;1.129159
9657.000000;1.128912
9656.000000;1.127911
9655.000000;1.126450
9654.000000;1.125132
9653.000000;1.124371
9652.000000;1.124046
9651.000000;1.123679
9650.000000;1.122914
9649.000000;1.121743
9648.000000;1.120370
9647.000000;1.119036
9646.000000;1.117997
9645.000000;1.117445
9644.000000;1.117349
9643.000000;1.117430
9642.000000;1.117346
9641.000000;1.116898
9640.000000;1.116133
9639.000000;1.115348
9638.000000;1.114909
9637.000000;1.114896
9636.000000;1.114963
9635.000000;1.114705
9634.000000;1.114106
9633.000000;1.113462
9632.000000;1.112889
9631.000000;1.112182
9630.000000;1.111251
9629.000000;1.110425
9628.000000;1.110053
9627.000000;1.109946
9626.000000;1.109499
9625.000000;1.108417
9624.000000;1.107063
9623.000000;1.105968
9622.000000;1.105140
9621.000000;1.104112
9620.000000;1.102730
9619.000000;1.101620
9618.000000;1.101558
9617.000000;1.102419
9616.000000;1.103142
9615.000000;1.102864
9614.000000;1.101822
9613.000000;1.100845
9612.000000;1.100205
9611.000000;1.099478
9610.000000;1.098440
9609.000000;1.097516
9608.000000;1.097113
9607.000000;1.096963
9606.000000;1.096442
9605.000000;1.095267
9604.000000;1.093603
9603.000000;1.091748
9602.000000;1.090065
9601.000000;1.089039
9600.000000;1.088993
9599.000000;1.089716
9598.000000;1.090598
9597.000000;1.091147
9596.000000;1.091228
9595.000000;1.090905
9594.000000;1.090294
9593.000000;1.089548
9592.000000;1.088746
9591.000000;1.087820
9590.000000;1.086754
9589.000000;1.085777
9588.000000;1.085128
9587.000000;1.084708
9586.000000;1.084188
9585.000000;1.083461
9584.000000;1.082680
9583.000000;1.081871
9582.000000;1.080810
9581.000000;1.079389
9580.000000;1.077863
9579.000000;1.076623
9578.000000;1.075880
9577.000000;1.075660
9576.000000;1.075881
9575.000000;1.076294
9574.000000;1.076475
9573.000000;1.076034
9572.000000;1.074841
9571.000000;1.073117
9570.000000;1.071384
9569.000000;1.070244
9568.000000;1.069911
9567.000000;1.069953
9566.000000;1.069731
9565.000000;1.069134
9564.000000;1.068642
9563.000000;1.068631
9562.000000;1.068936
9561.000000;1.069147
9560.000000;1.069003
9559.000000;1.068294
9558.000000;1.066804
9557.000000;1.064740
9556.000000;1.062927
9555.000000;1.062177
9554.000000;1.062564
9553.000000;1.063533
9552.000000;1.064517
9551.000000;1.065112
9550.000000;1.064899
9549.000000;1.063692
9548.000000;1.062017
9547.000000;1.060861
9546.000000;1.060739
9545.000000;1.061189
9544.000000;1.061275
9543.000000;1.060333
9542.000000;1.058242
9541.000000;1.055401
9540.000000;1.052664
9539.000000;1.050987
9538.000000;1.050760
9537.000000;1.051501
9536.000000;1.052341
9535.000000;1.052743
9534.000000;1.052638
9533.000000;1.052092
9532.000000;1.051124
9531.000000;1.049850
9530.000000;1.048558
9529.000000;1.047538
9528.000000;1.046879
9527.000000;1.046444
9526.000000;1.046041
9525.000000;1.045622
9524.000000;1.045318
9523.000000;1.045203
9522.000000;1.045065
9521.000000;1.044511
9520.000000;1.043397
9519.000000;1.042066
9518.000000;1.041117
9517.000000;1.040959
9516.000000;1.041546
9515.000000;1.042404
9514.000000;1.042877
9513.000000;1.042524
9512.000000;1.041380
9511.000000;1.039807
9510.000000;1.038134
9509.000000;1.036547
9508.000000;1.035289
9507.000000;1.034677
9506.000000;1.034778
9505.000000;1.035232
9504.000000;1.035520
9503.000000;1.035322
9502.000000;1.034578
9501.000000;1.033400
9500.000000;1.032101
9499.000000;1.031138
9498.000000;1.030807
9497.000000;1.030995
9496.000000;1.031295
9495.000000;1.031328
9494.000000;1.030923
9493.000000;1.030168
9492.000000;1.029372
9491.000000;1.028774
9490.000000;1.028165
9489.000000;1.027039
9488.000000;1.025352
9487.000000;1.023903
9486.000000;1.023580
9485.000000;1.024292
9484.000000;1.024975
9483.000000;1.024651
9482.000000;1.023271
9481.000000;1.021534
9480.000000;1.020220
9479.000000;1.019701
9478.000000;1.019756
9477.000000;1.019686
9476.000000;1.018917
9475.000000;1.017631
9474.000000;1.016586
9473.000000;1.016205
9472.000000;1.016063
9471.000000;1.015476
9470.000000;1.014363
9469.000000;1.013245
9468.000000;1.012539
9467.000000;1.012140
9466.000000;1.011717
9465.000000;1.011227
9464.000000;1.011000
9463.000000;1.011361
9462.000000;1.012155
9461.000000;1.012684
9460.000000;1.012228
9459.000000;1.010754
9458.000000;1.009012
9457.000000;1.007880
9456.000000;1.007672
9455.000000;1.008096
9454.000000;1.008641
9453.000000;1.008862
9452.000000;1.008477
9451.000000;1.007544
9450.000000;1.006559
9449.000000;1.006111
9448.000000;1.006274
9447.000000;1.006487
9446.000000;1.006135
9445.000000;1.005151
9444.000000;1.003931
9443.000000;1.002827
9442.000000;1.001917
9441.000000;1.001194
9440.000000;1.000711
9439.000000;1.000383
9438.000000;0.999863
9437.000000;0.998880
9436.000000;0.997695
9435.000000;0.996979
9434.000000;0.997080
9433.000000;0.997563
9432.000000;0.997609
9431.000000;0.996810
9430.000000;0.995440
9429.000000;0.994043
9428.000000;0.992943
9427.000000;0.992167
9426.000000;0.991613
9425.000000;0.991237
9424.000000;0.991112
9423.000000;0.991306
9422.000000;0.991633
9421.000000;0.991635
9420.000000;0.991042
9419.000000;0.990148
9418.000000;0.989457
9417.000000;0.989006
9416.000000;0.988399
9415.000000;0.987520
9414.000000;0.986755
9413.000000;0.986345
9412.000000;0.985960
9411.000000;0.985278
9410.000000;0.984626
9409.000000;0.984568
9408.000000;0.985057
9407.000000;0.985489
9406.000000;0.985525
9405.000000;0.985362
9404.000000;0.985144
9403.000000;0.984588
9402.000000;0.983427
9401.000000;0.981901
9400.000000;0.980536
9399.000000;0.979604
9398.000000;0.979005
9397.000000;0.978545
9396.000000;0.978108
9395.000000;0.977630
9394.000000;0.977078
9393.000000;0.976512
9392.000000;0.976081
9391.000000;0.975893
9390.000000;0.975855
9389.000000;0.975634
9388.000000;0.974910
9387.000000;0.973754
9386.000000;0.972696
9385.000000;0.972244
9384.000000;0.972374
9383.000000;0.972621
9382.000000;0.972612
9381.000000;0.972364
9380.000000;0.972062
9379.000000;0.971762
9378.000000;0.971395
9377.000000;0.970921
9376.000000;0.970400
9375.000000;0.969968
9374.000000;0.969706
9373.000000;0.969460
9372.000000;0.968858
9371.000000;0.967700
9370.000000;0.966292
9369.000000;0.965177
9368.000000;0.964551
9367.000000;0.964172
9366.000000;0.963811
9365.000000;0.963515
9364.000000;0.963345
9363.000000;0.963198
9362.000000;0.963000
9361.000000;0.962803
9360.000000;0.962514
9359.000000;0.961852
9358.000000;0.960805
9357.000000;0.959886
9356.000000;0.959603
9355.000000;0.959826
9354.000000;0.959951
9353.000000;0.959558
9352.000000;0.958685
9351.000000;0.957574
9350.000000;0.956504
9349.000000;0.955770
9348.000000;0.955505
9347.000000;0.955461
9346.000000;0.955202
9345.000000;0.954543
9344.000000;0.953638
9343.000000;0.952706
9342.000000;0.951893
9341.000000;0.951343
9340.000000;0.951097
9339.000000;0.950923
9338.000000;0.950545
9337.000000;0.950065
9336.000000;0.949821
9335.000000;0.949775
9334.000000;0.949406
9333.000000;0.948414
9332.000000;0.947241
9331.000000;0.946599
9330.000000;0.946658
9329.000000;0.946981
9328.000000;0.947147
9327.000000;0.947085
9326.000000;0.946839
9325.000000;0.946362
9324.000000;0.945664
9323.000000;0.944946
9322.000000;0.944459
9321.000000;0.944331
9320.000000;0.944553
9319.000000;0.944970
9318.000000;0.945208
9317.000000;0.944804
9316.000000;0.943592
9315.000000;0.941903
9314.000000;0.940259
9313.000000;0.938940
9312.000000;0.938000
9311.000000;0.937552
9310.000000;0.937698
9309.000000;0.938100
9308.000000;0.937957
9307.000000;0.936744
9306.000000;0.934912
9305.000000;0.933609
9304.000000;0.933620
9303.000000;0.934676
9302.000000;0.935804
9301.000000;0.936205
9300.000000;0.935767
9299.000000;0.934926
9298.000000;0.934170
9297.000000;0.933654
9296.000000;0.933204
9295.000000;0.932660
9294.000000;0.932154
9293.000000;0.931923
9292.000000;0.931890
9291.000000;0.931648
9290.000000;0.930939
9289.000000;0.929944
9288.000000;0.928980
9287.000000;0.928147
9286.000000;0.927454
9285.000000;0.927088
9284.000000;0.927243
9283.000000;0.927745
9282.000000;0.928161
9281.000000;0.928269
9280.000000;0.928196
9279.000000;0.928109
9278.000000;0.927990
9277.000000;0.927789
9276.000000;0.927524
9275.000000;0.927151
9274.000000;0.926529
9273.000000;0.925614
9272.000000;0.924540
9271.000000;0.923423
9270.000000;0.922287
9269.000000;0.921249
9268.000000;0.920583
9267.000000;0.920424
9266.000000;0.920570
9265.000000;0.920675
9264.000000;0.920562
9263.000000;0.920253
9262.000000;0.919839
9261.000000;0.919435
9260.000000;0.919158
9259.000000;0.919006
9258.000000;0.918826
9257.000000;0.918481
9256.000000;0.917940
9255.000000;0.917165
9254.000000;0.916080
9253.000000;0.914800
9252.000000;0.913722
9251.000000;0.913224
9250.000000;0.913366
9249.000000;0.913984
9248.000000;0.914895
9247.000000;0.915786
9246.000000;0.916084
9245.000000;0.915314
9244.000000;0.913695
9243.000000;0.912134
9242.000000;0.911466
9241.000000;0.911723
9240.000000;0.912190
9239.000000;0.912141
9238.000000;0.911523
9237.000000;0.910963
9236.000000;0.911007
9235.000000;0.911392
9234.000000;0.911249
9233.000000;0.910119
9232.000000;0.908537
9231.000000;0.907416
9230.000000;0.907069
9229.000000;0.907130
9228.000000;0.907231
9227.000000;0.907328
9226.000000;0.907396
9225.000000;0.907262
9224.000000;0.906868
9223.000000;0.906370
9222.000000;0.905835
9221.000000;0.905125
9220.000000;0.904244
9219.000000;0.903498
9218.000000;0.903068
9217.000000;0.902706
9216.000000;0.902100
9215.000000;0.901368
9214.000000;0.900868
9213.000000;0.900666
9212.000000;0.900498
9211.000000;0.900236
9210.000000;0.900065
9209.000000;0.900126
9208.000000;0.900243
9207.000000;0.900145
9206.000000;0.899784
9205.000000;0.899343
9204.000000;0.899003
9203.000000;0.898812
9202.000000;0.898699
9201.000000;0.898558
9200.000000;0.898357
9199.000000;0.898176
9198.000000;0.898082
9197.000000;0.897952
9196.000000;0.897518
9195.000000;0.896653
9194.000000;0.895562
9193.000000;0.894624
9192.000000;0.894034
9191.000000;0.893655
9190.000000;0.893231
9189.000000;0.892729
9188.000000;0.892393
9187.000000;0.892428
9186.000000;0.892701
9185.000000;0.892851
9184.000000;0.892696
9183.000000;0.892427
9182.000000;0.892345
9181.000000;0.892487
9180.000000;0.892609
9179.000000;0.892463
9178.000000;0.892020
9177.000000;0.891457
9176.000000;0.891002
9175.000000;0.890752
9174.000000;0.890574
9173.000000;0.890199
9172.000000;0.889522
9171.000000;0.888788
9170.000000;0.888378
9169.000000;0.888406
9168.000000;0.888611
9167.000000;0.888651
9166.000000;0.888397
9165.000000;0.887913
9164.000000;0.887286
9163.000000;0.886586
9162.000000;0.885943
9161.000000;0.885531
9160.000000;0.885376
9159.000000;0.885259
9158.000000;0.884912
9157.000000;0.884338
9156.000000;0.883832
9155.000000;0.883606
9154.000000;0.883485
9153.000000;0.883118
9152.000000;0.882458
9151.000000;0.881830
9150.000000;0.881492
9149.000000;0.881317
9148.000000;0.881048
9147.000000;0.880705
9146.000000;0.880550
9145.000000;0.880710
9144.000000;0.881015
9143.000000;0.881185
9142.000000;0.881047
9141.000000;0.880583
9140.000000;0.879923
9139.000000;0.879324
9138.000000;0.879000
9137.000000;0.878930
9136.000000;0.878885
9135.000000;0.878673
9134.000000;0.878294
9133.000000;0.877879
9132.000000;0.877599
9131.000000;0.877583
9130.000000;0.877789
9129.000000;0.877937
9128.000000;0.877728
9127.000000;0.877167
9126.000000;0.876540
9125.000000;0.876041
9124.000000;0.875567
9123.000000;0.874947
9122.000000;0.874259
9121.000000;0.873764
9120.000000;0.873608
9119.000000;0.873695
9118.000000;0.873812
9117.000000;0.873821
9116.000000;0.873719
9115.000000;0.873596
9114.000000;0.873520
9113.000000;0.873441
9112.000000;0.873230
9111.000000;0.872817
9110.000000;0.872296
9109.000000;0.871883
9108.000000;0.871796
9107.000000;0.872120
9106.000000;0.872685
9105.000000;0.873050
9104.000000;0.872741
9103.000000;0.871654
9102.000000;0.870239
9101.000000;0.869232
9100.000000;0.869097
9099.000000;0.869628
9098.000000;0.870109
9097.000000;0.869921
9096.000000;0.869068
9095.000000;0.868081
9094.000000;0.867417
9093.000000;0.867061
9092.000000;0.866705
9091.000000;0.866119
9090.000000;0.865212
9089.000000;0.863966
9088.000000;0.862627
9087.000000;0.861842
9086.000000;0.862179
9085.000000;0.863427
9084.000000;0.864656
9083.000000;0.865131
9082.000000;0.864932
9081.000000;0.864536
9080.000000;0.864110
9079.000000;0.863505
9078.000000;0.862715
9077.000000;0.861976
9076.000000;0.861456
9075.000000;0.861124
9074.000000;0.860939
9073.000000;0.860969
9072.000000;0.861269
9071.000000;0.861781
9070.000000;0.862336
9069.000000;0.862684
9068.000000;0.862584
9067.000000;0.862018
9066.000000;0.861284
9065.000000;0.860729
9064.000000;0.860423
9063.000000;0.860208
9062.000000;0.859996
9061.000000;0.859808
9060.000000;0.859586
9059.000000;0.859198
9058.000000;0.858680
9057.000000;0.858251
9056.000000;0.858029
9055.000000;0.857890
9054.000000;0.857706
9053.000000;0.857546
