Criado como novo conjunto de dados;"1909daniel.spp","-4274624.2 Secs"
cm-1;Abs
10000.000000;1.327403
9999.000000;1.325977
9998.000000;1.323930
9997.000000;1.322299
9996.000000;1.321886
9995.000000;1.322316
9994.000000;1.322437
9993.000000;1.321614
9992.000000;1.320314
9991.000000;1.319396
9990.000000;1.319153
9989.000000;1.319149
9988.000000;1.318757
9987.000000;1.317672
9986.000000;1.316090
9985.000000;1.314558
9984.000000;1.313556
9983.000000;1.313128
9982.000000;1.312903
9981.000000;1.312432
9980.000000;1.311538
9979.000000;1.310473
9978.000000;1.309812
9977.000000;1.309977
9976.000000;1.310686
9975.000000;1.311028
9974.000000;1.310365
9973.000000;1.308964
9972.000000;1.307508
9971.000000;1.306294
9970.000000;1.305314
9969.000000;1.304853
9968.000000;1.305350
9967.000000;1.306564
9966.000000;1.307431
9965.000000;1.307068
9964.000000;1.305591
9963.000000;1.303759
9962.000000;1.302156
9961.000000;1.300940
9960.000000;1.300051
9959.000000;1.299360
9958.000000;1.298806
9957.000000;1.298581
9956.000000;1.298967
9955.000000;1.299815
9954.000000;1.300453
9953.000000;1.300349
9952.000000;1.299682
9951.000000;1.299023
9950.000000;1.298601
9949.000000;1.298142
9948.000000;1.297270
9947.000000;1.295814
9946.000000;1.293851
9945.000000;1.291713
9944.000000;1.289909
9943.000000;1.288829
9942.000000;1.288503
9941.000000;1.288672
9940.000000;1.288879
9939.000000;1.288513
9938.000000;1.287248
9937.000000;1.285690
9936.000000;1.285128
9935.000000;1.286031
9934.000000;1.287051
9933.000000;1.286201
9932.000000;1.283103
9931.000000;1.279431
9930.000000;1.277024
9929.000000;1.276227
9928.000000;1.276236
9927.000000;1.276334
9926.000000;1.276294
9925.000000;1.276036
9924.000000;1.275565
9923.000000;1.275147
9922.000000;1.275053
9921.000000;1.275105
9920.000000;1.274824
9919.000000;1.273939
9918.000000;1.272491
9917.000000;1.270649
9916.000000;1.268846
9915.000000;1.267894
9914.000000;1.268358
9913.000000;1.269691
9912.000000;1.270489
9911.000000;1.269864
9910.000000;1.268275
9909.000000;1.266793
9908.000000;1.265948
9907.000000;1.265543
9906.000000;1.265175
9905.000000;1.264508
9904.000000;1.263307
9903.000000;1.261670
9902.000000;1.260158
9901.000000;1.259298
9900.000000;1.258986
9899.000000;1.258678
9898.000000;1.258128
9897.000000;1.257579
9896.000000;1.257227
9895.000000;1.256846
9894.000000;1.256114
9893.000000;1.255040
9892.000000;1.253923
9891.000000;1.253030
9890.000000;1.252435
9889.000000;1.252044
9888.000000;1.251666
9887.000000;1.251181
9886.000000;1.250716
9885.000000;1.250504
9884.000000;1.250542
9883.000000;1.250516
9882.000000;1.250068
9881.000000;1.249007
9880.000000;1.247280
9879.000000;1.245075
9878.000000;1.243043
9877.000000;1.242084
9876.000000;1.242594
9875.000000;1.243982
9874.000000;1.245111
9873.000000;1.245153
9872.000000;1.243987
9871.000000;1.242002
9870.000000;1.239819
9869.000000;1.238084
9868.000000;1.237146
9867.000000;1.236798
9866.000000;1.236491
9865.000000;1.235868
9864.000000;1.234986
9863.000000;1.234057
9862.000000;1.233142
9861.000000;1.232188
9860.000000;1.231205
9859.000000;1.230287
9858.000000;1.229537
9857.000000;1.229055
9856.000000;1.228902
9855.000000;1.228959
9854.000000;1.228840
9853.000000;1.228184
9852.000000;1.227123
9851.000000;1.226317
9850.000000;1.226322
9849.000000;1.226911
9848.000000;1.227157
9847.000000;1.226272
9846.000000;1.224323
9845.000000;1.222092
9844.000000;1.220388
9843.000000;1.219519
9842.000000;1.219246
9841.000000;1.219065
9840.000000;1.218609
9839.000000;1.217888
9838.000000;1.217106
9837.000000;1.216275
9836.000000;1.215236
9835.000000;1.214135
9834.000000;1.213554
9833.000000;1.213813
9832.000000;1.214406
9831.000000;1.214553
9830.000000;1.214173
9829.000000;1.213795
9828.000000;1.213528
9827.000000;1.212774
9826.000000;1.211171
9825.000000;1.209266
9824.000000;1.207904
9823.000000;1.207343
9822.000000;1.207299
9821.000000;1.207455
9820.000000;1.207463
9819.000000;1.206776
9818.000000;1.205128
9817.000000;1.203197
9816.000000;1.202207
9815.000000;1.202680
9814.000000;1.203860
9813.000000;1.204443
9812.000000;1.203700
9811.000000;1.201867
9810.000000;1.199717
9809.000000;1.197976
9808.000000;1.196982
9807.000000;1.196632
9806.000000;1.196555
9805.000000;1.196402
9804.000000;1.196064
9803.000000;1.195667
9802.000000;1.195326
9801.000000;1.194908
9800.000000;1.194115
9799.000000;1.192881
9798.000000;1.191548
9797.000000;1.190507
9796.000000;1.189780
9795.000000;1.189187
9794.000000;1.188785
9793.000000;1.188775
9792.000000;1.188941
9791.000000;1.188659
9790.000000;1.187650
9789.000000;1.186343
9788.000000;1.185230
9787.000000;1.184247
9786.000000;1.183165
9785.000000;1.182232
9784.000000;1.181847
9783.000000;1.181762
9782.000000;1.181262
9781.000000;1.180202
9780.000000;1.179312
9779.000000;1.179253
9778.000000;1.179759
9777.000000;1.179963
9776.000000;1.179304
9775.000000;1.177894
9774.000000;1.176193
9773.000000;1.174640
9772.000000;1.173516
9771.000000;1.172861
9770.000000;1.172411
9769.000000;1.171739
9768.000000;1.170568
9767.000000;1.168979
9766.000000;1.167328
9765.000000;1.166008
9764.000000;1.165286
9763.000000;1.165267
9762.000000;1.165843
9761.000000;1.166570
9760.000000;1.166738
9759.000000;1.165907
9758.000000;1.164445
9757.000000;1.163260
9756.000000;1.162843
9755.000000;1.162742
9754.000000;1.162170
9753.000000;1.160944
9752.000000;1.159557
9751.000000;1.158432
9750.000000;1.157447
9749.000000;1.156235
9748.000000;1.154755
9747.000000;1.153465
9746.000000;1.152986
9745.000000;1.153586
9744.000000;1.154874
9743.000000;1.155956
9742.000000;1.156011
9741.000000;1.154815
9740.000000;1.152811
9739.000000;1.150793
9738.000000;1.149432
9737.000000;1.148843
9736.000000;1.148538
9735.000000;1.148015
9734.000000;1.147439
9733.000000;1.147393
9732.000000;1.147855
9731.000000;1.147935
9730.000000;1.147007
9729.000000;1.145722
9728.000000;1.145293
9727.000000;1.145947
9726.000000;1.146633
9725.000000;1.146287
9724.000000;1.144837
9723.000000;1.142850
9722.000000;1.140707
9721.000000;1.138516
9720.000000;1.136538
9719.000000;1.135244
9718.000000;1.134928
9717.000000;1.135385
9716.000000;1.136015
9715.000000;1.136252
9714.000000;1.135945
9713.000000;1.135323
9712.000000;1.134612
9711.000000;1.133807
9710.000000;1.132871
9709.000000;1.131881
9708.000000;1.130805
9707.000000;1.129375
9706.000000;1.127563
9705.000000;1.125994
9704.000000;1.125437
9703.000000;1.125842
9702.000000;1.126282
9701.000000;1.125979
9700.000000;1.125127
9699.000000;1.124501
9698.000000;1.124528
9697.000000;1.124910
9696.000000;1.125035
9695.000000;1.124604
9694.000000;1.123855
9693.000000;1.123204
9692.000000;1.122703
9691.000000;1.122042
9690.000000;1.121061
9689.000000;1.119986
9688.000000;1.118971
9687.000000;1.117816
9686.000000;1.116495
9685.000000;1.115582
9684.000000;1.115527
9683.000000;1.115715
9682.000000;1.114985
9681.000000;1.113160
9680.000000;1.111374
9679.000000;1.110653
9678.000000;1.110823
9677.000000;1.111094
9676.000000;1.111147
9675.000000;1.111200
9674.000000;1.111353
9673.000000;1.111386
9672.000000;1.111051
9671.000000;1.110192
9670.000000;1.108735
9669.000000;1.106900
9668.000000;1.105268
9667.000000;1.104292
9666.000000;1.103800
9665.000000;1.103236
9664.000000;1.102326
9663.000000;1.101269
9662.000000;1.100403
9661.000000;1.099971
9660.000000;1.100140
9659.000000;1.100910
9658.000000;1.101939
9657.000000;1.102649
9656.000000;1.102594
9655.000000;1.101697
9654.000000;1.100180
9653.000000;1.098421
9652.000000;1.096853
9651.000000;1.095822
9650.000000;1.095371
9649.000000;1.095172
9648.000000;1.094724
9647.000000;1.093726
9646.000000;1.092282
9645.000000;1.090724
9644.000000;1.089223
9643.000000;1.087722
9642.000000;1.086303
9641.000000;1.085377
9640.000000;1.085261
9639.000000;1.085656
9638.000000;1.085876
9637.000000;1.085553
9636.000000;1.084881
9635.000000;1.084178
9634.000000;1.083585
9633.000000;1.083218
9632.000000;1.083190
9631.000000;1.083285
9630.000000;1.082927
9629.000000;1.081749
9628.000000;1.080031
9627.000000;1.078473
9626.000000;1.077670
9625.000000;1.077786
9624.000000;1.078389
9623.000000;1.078496
9622.000000;1.077235
9621.000000;1.074799
9620.000000;1.072448
9619.000000;1.071262
9618.000000;1.071133
9617.000000;1.071197
9616.000000;1.070939
9615.000000;1.070512
9614.000000;1.070183
9613.000000;1.069983
9612.000000;1.069897
9611.000000;1.069962
9610.000000;1.070042
9609.000000;1.069757
9608.000000;1.068799
9607.000000;1.067237
9606.000000;1.065414
9605.000000;1.063683
9604.000000;1.062277
9603.000000;1.061357
9602.000000;1.061083
9601.000000;1.061509
9600.000000;1.062334
9599.000000;1.062861
9598.000000;1.062477
9597.000000;1.061291
9596.000000;1.060068
9595.000000;1.059431
9594.000000;1.059304
9593.000000;1.059222
9592.000000;1.058899
9591.000000;1.058311
9590.000000;1.057471
9589.000000;1.056438
9588.000000;1.055455
9587.000000;1.054776
9586.000000;1.054375
9585.000000;1.053983
9584.000000;1.053384
9583.000000;1.052535
9582.000000;1.051525
9581.000000;1.050563
9580.000000;1.049887
9579.000000;1.049489
9578.000000;1.049034
9577.000000;1.048281
9576.000000;1.047483
9575.000000;1.047108
9574.000000;1.047195
9573.000000;1.047261
9572.000000;1.046892
9571.000000;1.046177
9570.000000;1.045475
9569.000000;1.044923
9568.000000;1.044327
9567.000000;1.043472
9566.000000;1.042458
9565.000000;1.041640
9564.000000;1.041214
9563.000000;1.040919
9562.000000;1.040303
9561.000000;1.039346
9560.000000;1.038573
9559.000000;1.038371
9558.000000;1.038383
9557.000000;1.037847
9556.000000;1.036515
9555.000000;1.034963
9554.000000;1.033918
9553.000000;1.033479
9552.000000;1.033135
9551.000000;1.032455
9550.000000;1.031600
9549.000000;1.031096
9548.000000;1.031157
9547.000000;1.031376
9546.000000;1.031191
9545.000000;1.030547
9544.000000;1.029919
9543.000000;1.029707
9542.000000;1.029841
9541.000000;1.030007
9540.000000;1.030012
9539.000000;1.029786
9538.000000;1.029237
9537.000000;1.028290
9536.000000;1.026992
9535.000000;1.025456
9534.000000;1.023833
9533.000000;1.022375
9532.000000;1.021341
9531.000000;1.020694
9530.000000;1.020106
9529.000000;1.019414
9528.000000;1.018827
9527.000000;1.018504
9526.000000;1.018165
9525.000000;1.017429
9524.000000;1.016397
9523.000000;1.015542
9522.000000;1.015088
9521.000000;1.014809
9520.000000;1.014386
9519.000000;1.013709
9518.000000;1.012878
9517.000000;1.012185
9516.000000;1.012021
9515.000000;1.012524
9514.000000;1.013279
9513.000000;1.013607
9512.000000;1.013185
9511.000000;1.012207
9510.000000;1.010991
9509.000000;1.009695
9508.000000;1.008412
9507.000000;1.007244
9506.000000;1.006199
9505.000000;1.005225
9504.000000;1.004410
9503.000000;1.003955
9502.000000;1.003879
9501.000000;1.003931
9500.000000;1.003860
9499.000000;1.003651
9498.000000;1.003435
9497.000000;1.003324
9496.000000;1.003345
9495.000000;1.003386
9494.000000;1.003199
9493.000000;1.002596
9492.000000;1.001658
9491.000000;1.000605
9490.000000;0.999504
9489.000000;0.998331
9488.000000;0.997244
9487.000000;0.996500
9486.000000;0.996020
9485.000000;0.995381
9484.000000;0.994370
9483.000000;0.993304
9482.000000;0.992593
9481.000000;0.992218
9480.000000;0.991881
9479.000000;0.991530
9478.000000;0.991440
9477.000000;0.991759
9476.000000;0.992183
9475.000000;0.992192
9474.000000;0.991559
9473.000000;0.990554
9472.000000;0.989645
9471.000000;0.989006
9470.000000;0.988364
9469.000000;0.987358
9468.000000;0.985999
9467.000000;0.984674
9466.000000;0.983765
9465.000000;0.983363
9464.000000;0.983294
9463.000000;0.983240
9462.000000;0.982913
9461.000000;0.982326
9460.000000;0.981882
9459.000000;0.981938
9458.000000;0.982258
9457.000000;0.982203
9456.000000;0.981561
9455.000000;0.980841
9454.000000;0.980514
9453.000000;0.980294
9452.000000;0.979537
9451.000000;0.978196
9450.000000;0.976974
9449.000000;0.976493
9448.000000;0.976657
9447.000000;0.976911
9446.000000;0.976842
9445.000000;0.976350
9444.000000;0.975470
9443.000000;0.974306
9442.000000;0.973069
9441.000000;0.971980
9440.000000;0.971077
9439.000000;0.970230
9438.000000;0.969388
9437.000000;0.968696
9436.000000;0.968309
9435.000000;0.968142
9434.000000;0.967941
9433.000000;0.967589
9432.000000;0.967198
9431.000000;0.966810
9430.000000;0.966159
9429.000000;0.964961
9428.000000;0.963444
9427.000000;0.962383
9426.000000;0.962417
9425.000000;0.963409
9424.000000;0.964558
9423.000000;0.965102
9422.000000;0.964817
9421.000000;0.963946
9420.000000;0.962855
9419.000000;0.961811
9418.000000;0.960934
9417.000000;0.960246
9416.000000;0.959726
9415.000000;0.959357
9414.000000;0.959112
9413.000000;0.958924
9412.000000;0.958709
9411.000000;0.958412
9410.000000;0.957995
9409.000000;0.957424
9408.000000;0.956754
9407.000000;0.956162
9406.000000;0.955802
9405.000000;0.955588
9404.000000;0.955258
9403.000000;0.954685
9402.000000;0.954031
9401.000000;0.953515
9400.000000;0.953125
9399.000000;0.952658
9398.000000;0.951997
9397.000000;0.951216
9396.000000;0.950423
9395.000000;0.949635
9394.000000;0.948809
9393.000000;0.947899
9392.000000;0.946857
9391.000000;0.945700
9390.000000;0.944640
9389.000000;0.944012
9388.000000;0.943919
9387.000000;0.944046
9386.000000;0.943994
9385.000000;0.943793
9384.000000;0.943907
9383.000000;0.944608
9382.000000;0.945469
9381.000000;0.945652
9380.000000;0.944717
9379.000000;0.943038
9378.000000;0.941385
9377.000000;0.940222
9376.000000;0.939515
9375.000000;0.939050
9374.000000;0.938705
9373.000000;0.938393
9372.000000;0.937970
9371.000000;0.937383
9370.000000;0.936827
9369.000000;0.936571
9368.000000;0.936623
9367.000000;0.936686
9366.000000;0.936464
9365.000000;0.935922
9364.000000;0.935233
9363.000000;0.934594
9362.000000;0.934119
9361.000000;0.933778
9360.000000;0.933363
9359.000000;0.932652
9358.000000;0.931719
9357.000000;0.930969
9356.000000;0.930716
9355.000000;0.930761
9354.000000;0.930583
9353.000000;0.929935
9352.000000;0.929086
9351.000000;0.928422
9350.000000;0.927988
9349.000000;0.927565
9348.000000;0.927072
9347.000000;0.926683
9346.000000;0.926512
9345.000000;0.926343
9344.000000;0.925833
9343.000000;0.924955
9342.000000;0.924121
9341.000000;0.923815
9340.000000;0.924113
9339.000000;0.924592
9338.000000;0.924697
9337.000000;0.924189
9336.000000;0.923279
9335.000000;0.922370
9334.000000;0.921668
9333.000000;0.921038
9332.000000;0.920264
9331.000000;0.919443
9330.000000;0.919004
9329.000000;0.919248
9328.000000;0.919929
9327.000000;0.920431
9326.000000;0.920322
9325.000000;0.919646
9324.000000;0.918728
9323.000000;0.917874
9322.000000;0.917235
9321.000000;0.916748
9320.000000;0.916120
9319.000000;0.915068
9318.000000;0.913723
9317.000000;0.912640
9316.000000;0.912283
9315.000000;0.912533
9314.000000;0.912809
9313.000000;0.912599
9312.000000;0.911836
9311.000000;0.910871
9310.000000;0.910183
9309.000000;0.909975
9308.000000;0.909942
9307.000000;0.909581
9306.000000;0.908808
9305.000000;0.908113
9304.000000;0.907942
9303.000000;0.908113
9302.000000;0.908064
9301.000000;0.907524
9300.000000;0.906698
9299.000000;0.905910
9298.000000;0.905368
9297.000000;0.905193
9296.000000;0.905357
9295.000000;0.905523
9294.000000;0.905238
9293.000000;0.904372
9292.000000;0.903212
9291.000000;0.902155
9290.000000;0.901476
9289.000000;0.901317
9288.000000;0.901573
9287.000000;0.901775
9286.000000;0.901442
9285.000000;0.900681
9284.000000;0.900137
9283.000000;0.900192
9282.000000;0.900472
9281.000000;0.900347
9280.000000;0.899684
9279.000000;0.898901
9278.000000;0.898389
9277.000000;0.898143
9276.000000;0.897886
9275.000000;0.897400
9274.000000;0.896722
9273.000000;0.896130
9272.000000;0.895880
9271.000000;0.895915
9270.000000;0.895918
9269.000000;0.895681
9268.000000;0.895271
9267.000000;0.894788
9266.000000;0.894202
9265.000000;0.893555
9264.000000;0.893093
9263.000000;0.892947
9262.000000;0.892819
9261.000000;0.892274
9260.000000;0.891311
9259.000000;0.890372
9258.000000;0.889788
9257.000000;0.889423
9256.000000;0.888940
9255.000000;0.888271
9254.000000;0.887692
9253.000000;0.887495
9252.000000;0.887641
9251.000000;0.887749
9250.000000;0.887466
9249.000000;0.886849
9248.000000;0.886313
9247.000000;0.886149
9246.000000;0.886187
9245.000000;0.886052
9244.000000;0.885674
9243.000000;0.885373
9242.000000;0.885397
9241.000000;0.885535
9240.000000;0.885299
9239.000000;0.884479
9238.000000;0.883440
9237.000000;0.882796
9236.000000;0.882786
9235.000000;0.883028
9234.000000;0.882950
9233.000000;0.882390
9232.000000;0.881644
9231.000000;0.880962
9230.000000;0.880240
9229.000000;0.879325
9228.000000;0.878395
9227.000000;0.877783
9226.000000;0.877508
9225.000000;0.877231
9224.000000;0.876705
9223.000000;0.876068
9222.000000;0.875645
9221.000000;0.875628
9220.000000;0.876011
9219.000000;0.876694
9218.000000;0.877468
9217.000000;0.877984
9216.000000;0.877920
9215.000000;0.877266
9214.000000;0.876386
9213.000000;0.875729
9212.000000;0.875448
9211.000000;0.875279
9210.000000;0.874817
9209.000000;0.873920
9208.000000;0.872855
9207.000000;0.872052
9206.000000;0.871764
9205.000000;0.871939
9204.000000;0.872329
9203.000000;0.872637
9202.000000;0.872620
9201.000000;0.872210
9200.000000;0.871609
9199.000000;0.871184
9198.000000;0.871153
9197.000000;0.871344
9196.000000;0.871352
9195.000000;0.870955
9194.000000;0.870285
9193.000000;0.869589
9192.000000;0.868942
9191.000000;0.868287
9190.000000;0.867640
9189.000000;0.867091
9188.000000;0.866649
9187.000000;0.866275
9186.000000;0.866062
9185.000000;0.866137
9184.000000;0.866331
9183.000000;0.866198
9182.000000;0.865524
9181.000000;0.864655
9180.000000;0.864075
9179.000000;0.863813
9178.000000;0.863505
9177.000000;0.862968
9176.000000;0.862402
9175.000000;0.862018
9174.000000;0.861773
9173.000000;0.861580
9172.000000;0.861568
9171.000000;0.861895
9170.000000;0.862402
9169.000000;0.862628
9168.000000;0.862250
9167.000000;0.861434
9166.000000;0.860718
9165.000000;0.860493
9164.000000;0.860554
9163.000000;0.860249
9162.000000;0.859158
9161.000000;0.857589
9160.000000;0.856299
9159.000000;0.855796
9158.000000;0.856031
9157.000000;0.856642
9156.000000;0.857238
9155.000000;0.857463
9154.000000;0.857097
9153.000000;0.856252
9152.000000;0.855314
9151.000000;0.854579
9150.000000;0.854046
9149.000000;0.853609
9148.000000;0.853268
9147.000000;0.853040
9146.000000;0.852844
9145.000000;0.852607
9144.000000;0.852385
9143.000000;0.852229
9142.000000;0.852035
9141.000000;0.851663
9140.000000;0.851145
9139.000000;0.850658
9138.000000;0.850383
9137.000000;0.850444
9136.000000;0.850857
9135.000000;0.851404
9134.000000;0.851640
9133.000000;0.851207
9132.000000;0.850198
9131.000000;0.849151
9130.000000;0.848633
9129.000000;0.848793
9128.000000;0.849262
9127.000000;0.849468
9126.000000;0.849110
9125.000000;0.848371
9124.000000;0.847640
9123.000000;0.847112
9122.000000;0.846777
9121.000000;0.846708
9120.000000;0.847077
9119.000000;0.847803
9118.000000;0.848418
9117.000000;0.848485
9116.000000;0.847997
9115.000000;0.847229
9114.000000;0.846355
9113.000000;0.845429
9112.000000;0.844593
9111.000000;0.844054
9110.000000;0.843878
9109.000000;0.843996
9108.000000;0.844372
9107.000000;0.844980
9106.000000;0.845583
9105.000000;0.845739
9104.000000;0.845161
9103.000000;0.844023
9102.000000;0.842860
9101.000000;0.842168
9100.000000;0.842036
9099.000000;0.842123
9098.000000;0.842012
9097.000000;0.841623
9096.000000;0.841216
9095.000000;0.840964
9094.000000;0.840672
9093.000000;0.840061
9092.000000;0.839213
9091.000000;0.838535
9090.000000;0.838298
9089.000000;0.838369
9088.000000;0.838409
9087.000000;0.838229
9086.000000;0.837912
9085.000000;0.837671
9084.000000;0.837612
9083.000000;0.837600
9082.000000;0.837391
9081.000000;0.836948
9080.000000;0.836502
9079.000000;0.836219
9078.000000;0.835950
9077.000000;0.835491
9076.000000;0.834965
9075.000000;0.834679
9074.000000;0.834604
9073.000000;0.834362
9072.000000;0.833822
9071.000000;0.833416
9070.000000;0.833630
9069.000000;0.834357
9068.000000;0.834997
9067.000000;0.835122
9066.000000;0.834800
9065.000000;0.834276
9064.000000;0.833639
9063.000000;0.832891
9062.000000;0.832170
9061.000000;0.831677
9060.000000;0.831424
9059.000000;0.831213
9058.000000;0.830915
9057.000000;0.830674
9056.000000;0.830743
9055.000000;0.831146
9054.000000;0.831580
9053.000000;0.831695
