Criado como novo conjunto de dados;"1909daniel.spp","-4287944.9 Secs"
cm-1;Abs
10000.000000;1.280845
9999.000000;1.279461
9998.000000;1.276832
9997.000000;1.273956
9996.000000;1.272169
9995.000000;1.271611
9994.000000;1.271993
9993.000000;1.272927
9992.000000;1.274181
9991.000000;1.275189
9990.000000;1.275462
9989.000000;1.274926
9988.000000;1.273722
9987.000000;1.271827
9986.000000;1.269343
9985.000000;1.266902
9984.000000;1.265318
9983.000000;1.264836
9982.000000;1.264971
9981.000000;1.265036
9980.000000;1.264664
9979.000000;1.263899
9978.000000;1.263001
9977.000000;1.262161
9976.000000;1.261410
9975.000000;1.260845
9974.000000;1.260730
9973.000000;1.261110
9972.000000;1.261441
9971.000000;1.261036
9970.000000;1.259852
9969.000000;1.258426
9968.000000;1.257037
9967.000000;1.255527
9966.000000;1.254067
9965.000000;1.253383
9964.000000;1.253775
9963.000000;1.254387
9962.000000;1.254086
9961.000000;1.252865
9960.000000;1.251811
9959.000000;1.251715
9958.000000;1.252169
9957.000000;1.252092
9956.000000;1.250884
9955.000000;1.248975
9954.000000;1.247349
9953.000000;1.246578
9952.000000;1.246292
9951.000000;1.245679
9950.000000;1.244476
9949.000000;1.243173
9948.000000;1.242194
9947.000000;1.241331
9946.000000;1.240262
9945.000000;1.239237
9944.000000;1.238733
9943.000000;1.238641
9942.000000;1.238319
9941.000000;1.237438
9940.000000;1.236313
9939.000000;1.235322
9938.000000;1.234474
9937.000000;1.233717
9936.000000;1.233219
9935.000000;1.233008
9934.000000;1.232676
9933.000000;1.231880
9932.000000;1.230968
9931.000000;1.230602
9930.000000;1.230750
9929.000000;1.230553
9928.000000;1.229421
9927.000000;1.227892
9926.000000;1.227029
9925.000000;1.227156
9924.000000;1.227504
9923.000000;1.227059
9922.000000;1.225511
9921.000000;1.223402
9920.000000;1.221615
9919.000000;1.220812
9918.000000;1.221064
9917.000000;1.221785
9916.000000;1.222091
9915.000000;1.221373
9914.000000;1.219630
9913.000000;1.217337
9912.000000;1.215147
9911.000000;1.213634
9910.000000;1.213060
9909.000000;1.213234
9908.000000;1.213612
9907.000000;1.213624
9906.000000;1.212982
9905.000000;1.211895
9904.000000;1.211020
9903.000000;1.210966
9902.000000;1.211580
9901.000000;1.211890
9900.000000;1.211103
9899.000000;1.209549
9898.000000;1.208284
9897.000000;1.207820
9896.000000;1.207680
9895.000000;1.207181
9894.000000;1.206186
9893.000000;1.204985
9892.000000;1.203882
9891.000000;1.203093
9890.000000;1.202714
9889.000000;1.202469
9888.000000;1.201762
9887.000000;1.200290
9886.000000;1.198460
9885.000000;1.197006
9884.000000;1.196354
9883.000000;1.196422
9882.000000;1.196795
9881.000000;1.196955
9880.000000;1.196586
9879.000000;1.195811
9878.000000;1.194985
9877.000000;1.194236
9876.000000;1.193452
9875.000000;1.192672
9874.000000;1.192048
9873.000000;1.191327
9872.000000;1.189908
9871.000000;1.187696
9870.000000;1.185533
9869.000000;1.184440
9868.000000;1.184643
9867.000000;1.185555
9866.000000;1.186389
9865.000000;1.186599
9864.000000;1.186052
9863.000000;1.185124
9862.000000;1.184417
9861.000000;1.184105
9860.000000;1.183750
9859.000000;1.182924
9858.000000;1.181660
9857.000000;1.180120
9856.000000;1.178257
9855.000000;1.176236
9854.000000;1.174806
9853.000000;1.174654
9852.000000;1.175496
9851.000000;1.176256
9850.000000;1.176151
9849.000000;1.175269
9848.000000;1.174138
9847.000000;1.173107
9846.000000;1.172196
9845.000000;1.171252
9844.000000;1.170128
9843.000000;1.168859
9842.000000;1.167721
9841.000000;1.167074
9840.000000;1.167140
9839.000000;1.167844
9838.000000;1.168709
9837.000000;1.168990
9836.000000;1.168234
9835.000000;1.166753
9834.000000;1.165272
9833.000000;1.164095
9832.000000;1.162985
9831.000000;1.161873
9830.000000;1.161143
9829.000000;1.161020
9828.000000;1.161123
9827.000000;1.160941
9826.000000;1.160377
9825.000000;1.159528
9824.000000;1.158325
9823.000000;1.156778
9822.000000;1.155270
9821.000000;1.154195
9820.000000;1.153513
9819.000000;1.152947
9818.000000;1.152391
9817.000000;1.151863
9816.000000;1.151288
9815.000000;1.150668
9814.000000;1.150239
9813.000000;1.150189
9812.000000;1.150410
9811.000000;1.150716
9810.000000;1.150992
9809.000000;1.150936
9808.000000;1.150053
9807.000000;1.148299
9806.000000;1.146368
9805.000000;1.144939
9804.000000;1.143914
9803.000000;1.142758
9802.000000;1.141294
9801.000000;1.139743
9800.000000;1.138250
9799.000000;1.136850
9798.000000;1.135739
9797.000000;1.135179
9796.000000;1.135219
9795.000000;1.135775
9794.000000;1.136778
9793.000000;1.137935
9792.000000;1.138690
9791.000000;1.138770
9790.000000;1.138447
9789.000000;1.137931
9788.000000;1.136925
9787.000000;1.135275
9786.000000;1.133615
9785.000000;1.132701
9784.000000;1.132342
9783.000000;1.131680
9782.000000;1.130431
9781.000000;1.129161
9780.000000;1.128320
9779.000000;1.127685
9778.000000;1.126888
9777.000000;1.125970
9776.000000;1.125194
9775.000000;1.124642
9774.000000;1.124174
9773.000000;1.123597
9772.000000;1.122828
9771.000000;1.122047
9770.000000;1.121581
9769.000000;1.121445
9768.000000;1.121176
9767.000000;1.120421
9766.000000;1.119470
9765.000000;1.118796
9764.000000;1.118274
9763.000000;1.117397
9762.000000;1.116134
9761.000000;1.115002
9760.000000;1.114300
9759.000000;1.113794
9758.000000;1.113251
9757.000000;1.112764
9756.000000;1.112408
9755.000000;1.112002
9754.000000;1.111445
9753.000000;1.110914
9752.000000;1.110481
9751.000000;1.109824
9750.000000;1.108589
9749.000000;1.106901
9748.000000;1.105280
9747.000000;1.104141
9746.000000;1.103508
9745.000000;1.103152
9744.000000;1.102842
9743.000000;1.102386
9742.000000;1.101569
9741.000000;1.100251
9740.000000;1.098657
9739.000000;1.097463
9738.000000;1.097301
9737.000000;1.098050
9736.000000;1.098865
9735.000000;1.099038
9734.000000;1.098602
9733.000000;1.097908
9732.000000;1.096933
9731.000000;1.095392
9730.000000;1.093378
9729.000000;1.091496
9728.000000;1.090330
9727.000000;1.090018
9726.000000;1.090299
9725.000000;1.090735
9724.000000;1.090930
9723.000000;1.090757
9722.000000;1.090385
9721.000000;1.089984
9720.000000;1.089456
9719.000000;1.088589
9718.000000;1.087348
9717.000000;1.085895
9716.000000;1.084489
9715.000000;1.083522
9714.000000;1.083378
9713.000000;1.083940
9712.000000;1.084359
9711.000000;1.083699
9710.000000;1.081882
9709.000000;1.079750
9708.000000;1.078193
9707.000000;1.077423
9706.000000;1.077092
9705.000000;1.076804
9704.000000;1.076381
9703.000000;1.075800
9702.000000;1.075087
9701.000000;1.074354
9700.000000;1.073854
9699.000000;1.073794
9698.000000;1.073982
9697.000000;1.073823
9696.000000;1.072904
9695.000000;1.071483
9694.000000;1.070154
9693.000000;1.069128
9692.000000;1.068193
9691.000000;1.067332
9690.000000;1.066851
9689.000000;1.066797
9688.000000;1.066748
9687.000000;1.066407
9686.000000;1.065984
9685.000000;1.065737
9684.000000;1.065509
9683.000000;1.064999
9682.000000;1.064189
9681.000000;1.063238
9680.000000;1.062295
9679.000000;1.061621
9678.000000;1.061501
9677.000000;1.061711
9676.000000;1.061470
9675.000000;1.060297
9674.000000;1.058572
9673.000000;1.056906
9672.000000;1.055397
9671.000000;1.053955
9670.000000;1.052938
9669.000000;1.052791
9668.000000;1.053217
9667.000000;1.053319
9666.000000;1.052589
9665.000000;1.051303
9664.000000;1.050003
9663.000000;1.049022
9662.000000;1.048497
9661.000000;1.048361
9660.000000;1.048255
9659.000000;1.047816
9658.000000;1.047120
9657.000000;1.046604
9656.000000;1.046536
9655.000000;1.046775
9654.000000;1.046945
9653.000000;1.046609
9652.000000;1.045458
9651.000000;1.043647
9650.000000;1.041869
9649.000000;1.040764
9648.000000;1.040279
9647.000000;1.039857
9646.000000;1.039149
9645.000000;1.038270
9644.000000;1.037449
9643.000000;1.036761
9642.000000;1.036208
9641.000000;1.035768
9640.000000;1.035342
9639.000000;1.034846
9638.000000;1.034300
9637.000000;1.033670
9636.000000;1.032791
9635.000000;1.031727
9634.000000;1.031005
9633.000000;1.031067
9632.000000;1.031564
9631.000000;1.031595
9630.000000;1.030727
9629.000000;1.029454
9628.000000;1.028580
9627.000000;1.028426
9626.000000;1.028707
9625.000000;1.028871
9624.000000;1.028420
9623.000000;1.027127
9622.000000;1.025197
9621.000000;1.023211
9620.000000;1.021795
9619.000000;1.021221
9618.000000;1.021215
9617.000000;1.021151
9616.000000;1.020550
9615.000000;1.019492
9614.000000;1.018437
9613.000000;1.017620
9612.000000;1.016795
9611.000000;1.015688
9610.000000;1.014517
9609.000000;1.013837
9608.000000;1.014006
9607.000000;1.014876
9606.000000;1.015864
9605.000000;1.016284
9604.000000;1.015835
9603.000000;1.014909
9602.000000;1.014248
9601.000000;1.014187
9600.000000;1.014355
9599.000000;1.014194
9598.000000;1.013541
9597.000000;1.012597
9596.000000;1.011589
9595.000000;1.010624
9594.000000;1.009663
9593.000000;1.008451
9592.000000;1.006708
9591.000000;1.004585
9590.000000;1.002770
9589.000000;1.001904
9588.000000;1.001980
9587.000000;1.002412
9586.000000;1.002556
9585.000000;1.002146
9584.000000;1.001393
9583.000000;1.000710
9582.000000;1.000151
9581.000000;0.999150
9580.000000;0.997168
9579.000000;0.994604
9578.000000;0.992607
9577.000000;0.991871
9576.000000;0.992024
9575.000000;0.992318
9574.000000;0.992453
9573.000000;0.992467
9572.000000;0.992298
9571.000000;0.991872
9570.000000;0.991332
9569.000000;0.990829
9568.000000;0.990310
9567.000000;0.989781
9566.000000;0.989418
9565.000000;0.989159
9564.000000;0.988575
9563.000000;0.987514
9562.000000;0.986459
9561.000000;0.985828
9560.000000;0.985262
9559.000000;0.984160
9558.000000;0.982655
9557.000000;0.981534
9556.000000;0.981320
9555.000000;0.981835
9554.000000;0.982539
9553.000000;0.982924
9552.000000;0.982729
9551.000000;0.982111
9550.000000;0.981516
9549.000000;0.981117
9548.000000;0.980609
9547.000000;0.979807
9546.000000;0.979091
9545.000000;0.978830
9544.000000;0.978685
9543.000000;0.978008
9542.000000;0.976757
9541.000000;0.975464
9540.000000;0.974440
9539.000000;0.973531
9538.000000;0.972621
9537.000000;0.971821
9536.000000;0.971131
9535.000000;0.970393
9534.000000;0.969609
9533.000000;0.968927
9532.000000;0.968293
9531.000000;0.967496
9530.000000;0.966595
9529.000000;0.965896
9528.000000;0.965448
9527.000000;0.964955
9526.000000;0.964304
9525.000000;0.963841
9524.000000;0.963893
9523.000000;0.964234
9522.000000;0.964262
9521.000000;0.963652
9520.000000;0.962732
9519.000000;0.962168
9518.000000;0.962281
9517.000000;0.962650
9516.000000;0.962531
9515.000000;0.961701
9514.000000;0.960697
9513.000000;0.960112
9512.000000;0.959925
9511.000000;0.959646
9510.000000;0.958903
9509.000000;0.957683
9508.000000;0.956205
9507.000000;0.954792
9506.000000;0.953686
9505.000000;0.952798
9504.000000;0.951809
9503.000000;0.950698
9502.000000;0.949898
9501.000000;0.949668
9500.000000;0.949619
9499.000000;0.949178
9498.000000;0.948335
9497.000000;0.947573
9496.000000;0.947223
9495.000000;0.947195
9494.000000;0.947217
9493.000000;0.946996
9492.000000;0.946296
9491.000000;0.945214
9490.000000;0.944254
9489.000000;0.943803
9488.000000;0.943617
9487.000000;0.943120
9486.000000;0.942134
9485.000000;0.941003
9484.000000;0.940138
9483.000000;0.939742
9482.000000;0.939875
9481.000000;0.940404
9480.000000;0.940924
9479.000000;0.941038
9478.000000;0.940680
9477.000000;0.939981
9476.000000;0.938976
9475.000000;0.937756
9474.000000;0.936735
9473.000000;0.936324
9472.000000;0.936375
9471.000000;0.936308
9470.000000;0.935787
9469.000000;0.934943
9468.000000;0.933985
9467.000000;0.932980
9466.000000;0.932056
9465.000000;0.931425
9464.000000;0.931084
9463.000000;0.930739
9462.000000;0.930186
9461.000000;0.929545
9460.000000;0.928999
9459.000000;0.928508
9458.000000;0.927919
9457.000000;0.927294
9456.000000;0.926939
9455.000000;0.927051
9454.000000;0.927344
9453.000000;0.927165
9452.000000;0.926157
9451.000000;0.924744
9450.000000;0.923711
9449.000000;0.923295
9448.000000;0.923023
9447.000000;0.922496
9446.000000;0.921892
9445.000000;0.921454
9444.000000;0.920946
9443.000000;0.920047
9442.000000;0.918989
9441.000000;0.918301
9440.000000;0.918069
9439.000000;0.917900
9438.000000;0.917582
9437.000000;0.917302
9436.000000;0.917191
9435.000000;0.917017
9434.000000;0.916487
9433.000000;0.915597
9432.000000;0.914592
9431.000000;0.913728
9430.000000;0.913129
9429.000000;0.912722
9428.000000;0.912302
9427.000000;0.911726
9426.000000;0.911049
9425.000000;0.910432
9424.000000;0.909996
9423.000000;0.909796
9422.000000;0.909749
9421.000000;0.909506
9420.000000;0.908665
9419.000000;0.907284
9418.000000;0.905985
9417.000000;0.905358
9416.000000;0.905444
9415.000000;0.905894
9414.000000;0.906336
9413.000000;0.906397
9412.000000;0.905714
9411.000000;0.904291
9410.000000;0.902665
9409.000000;0.901419
9408.000000;0.900684
9407.000000;0.900323
9406.000000;0.900305
9405.000000;0.900552
9404.000000;0.900669
9403.000000;0.900270
9402.000000;0.899431
9401.000000;0.898482
9400.000000;0.897496
9399.000000;0.896414
9398.000000;0.895494
9397.000000;0.895130
9396.000000;0.895230
9395.000000;0.895224
9394.000000;0.894789
9393.000000;0.894172
9392.000000;0.893692
9391.000000;0.893241
9390.000000;0.892515
9389.000000;0.891547
9388.000000;0.890795
9387.000000;0.890694
9386.000000;0.891193
9385.000000;0.891753
9384.000000;0.891861
9383.000000;0.891490
9382.000000;0.890938
9381.000000;0.890300
9380.000000;0.889427
9379.000000;0.888418
9378.000000;0.887733
9377.000000;0.887590
9376.000000;0.887611
9375.000000;0.887347
9374.000000;0.886849
9373.000000;0.886379
9372.000000;0.885880
9371.000000;0.885165
9370.000000;0.884386
9369.000000;0.883843
9368.000000;0.883470
9367.000000;0.882909
9366.000000;0.882009
9365.000000;0.880885
9364.000000;0.879622
9363.000000;0.878312
9362.000000;0.877266
9361.000000;0.876762
9360.000000;0.876582
9359.000000;0.876220
9358.000000;0.875547
9357.000000;0.874973
9356.000000;0.874891
9355.000000;0.875284
9354.000000;0.875823
9353.000000;0.876070
9352.000000;0.875621
9351.000000;0.874413
9350.000000;0.872960
9349.000000;0.871986
9348.000000;0.871781
9347.000000;0.872049
9346.000000;0.872305
9345.000000;0.872195
9344.000000;0.871567
9343.000000;0.870543
9342.000000;0.869549
9341.000000;0.868985
9340.000000;0.868842
9339.000000;0.868833
9338.000000;0.868824
9337.000000;0.868891
9336.000000;0.869000
9335.000000;0.868914
9334.000000;0.868423
9333.000000;0.867499
9332.000000;0.866289
9331.000000;0.865166
9330.000000;0.864637
9329.000000;0.864875
9328.000000;0.865390
9327.000000;0.865449
9326.000000;0.864831
9325.000000;0.863943
9324.000000;0.863263
9323.000000;0.862914
9322.000000;0.862715
9321.000000;0.862401
9320.000000;0.861813
9319.000000;0.861093
9318.000000;0.860608
9317.000000;0.860495
9316.000000;0.860404
9315.000000;0.859910
9314.000000;0.859002
9313.000000;0.857902
9312.000000;0.856647
9311.000000;0.855287
9310.000000;0.854280
9309.000000;0.854142
9308.000000;0.854695
9307.000000;0.855143
9306.000000;0.854993
9305.000000;0.854536
9304.000000;0.854330
9303.000000;0.854546
9302.000000;0.854928
9301.000000;0.855071
9300.000000;0.854657
9299.000000;0.853701
9298.000000;0.852618
9297.000000;0.851812
9296.000000;0.851179
9295.000000;0.850330
9294.000000;0.849303
9293.000000;0.848624
9292.000000;0.848543
9291.000000;0.848603
9290.000000;0.848214
9289.000000;0.847355
9288.000000;0.846461
9287.000000;0.845862
9286.000000;0.845596
9285.000000;0.845609
9284.000000;0.845828
9283.000000;0.846058
9282.000000;0.846015
9281.000000;0.845558
9280.000000;0.844846
9279.000000;0.844224
9278.000000;0.843940
9277.000000;0.843917
9276.000000;0.843817
9275.000000;0.843382
9274.000000;0.842648
9273.000000;0.841807
9272.000000;0.840982
9271.000000;0.840247
9270.000000;0.839726
9269.000000;0.839456
9268.000000;0.839226
9267.000000;0.838792
9266.000000;0.838217
9265.000000;0.837826
9264.000000;0.837830
9263.000000;0.838132
9262.000000;0.838452
9261.000000;0.838458
9260.000000;0.837849
9259.000000;0.836596
9258.000000;0.835108
9257.000000;0.833937
9256.000000;0.833284
9255.000000;0.832955
9254.000000;0.832762
9253.000000;0.832712
9252.000000;0.832788
9251.000000;0.832837
9250.000000;0.832781
9249.000000;0.832754
9248.000000;0.832860
9247.000000;0.832942
9246.000000;0.832715
9245.000000;0.832079
9244.000000;0.831228
9243.000000;0.830461
9242.000000;0.829919
9241.000000;0.829455
9240.000000;0.828812
9239.000000;0.827959
9238.000000;0.827186
9237.000000;0.826758
9236.000000;0.826584
9235.000000;0.826364
9234.000000;0.826013
9233.000000;0.825726
9232.000000;0.825641
9231.000000;0.825623
9230.000000;0.825448
9229.000000;0.825059
9228.000000;0.824567
9227.000000;0.824089
9226.000000;0.823636
9225.000000;0.823147
9224.000000;0.822619
9223.000000;0.822182
9222.000000;0.821991
9221.000000;0.822014
9220.000000;0.822020
9219.000000;0.821848
9218.000000;0.821542
9217.000000;0.821170
9216.000000;0.820665
9215.000000;0.819990
9214.000000;0.819326
9213.000000;0.818927
9212.000000;0.818868
9211.000000;0.819085
9210.000000;0.819548
9209.000000;0.820176
9208.000000;0.820639
9207.000000;0.820494
9206.000000;0.819584
9205.000000;0.818201
9204.000000;0.816838
9203.000000;0.815847
9202.000000;0.815302
9201.000000;0.815062
9200.000000;0.814931
9199.000000;0.814821
9198.000000;0.814759
9197.000000;0.814728
9196.000000;0.814555
9195.000000;0.814077
9194.000000;0.813362
9193.000000;0.812695
9192.000000;0.812316
9191.000000;0.812167
9190.000000;0.811891
9189.000000;0.811204
9188.000000;0.810283
9187.000000;0.809671
9186.000000;0.809642
9185.000000;0.809827
9184.000000;0.809708
9183.000000;0.809330
9182.000000;0.809178
9181.000000;0.809407
9180.000000;0.809664
9179.000000;0.809706
9178.000000;0.809686
9177.000000;0.809670
9176.000000;0.809355
9175.000000;0.808564
9174.000000;0.807653
9173.000000;0.807037
9172.000000;0.806651
9171.000000;0.806214
9170.000000;0.805747
9169.000000;0.805426
9168.000000;0.805170
9167.000000;0.804789
9166.000000;0.804385
9165.000000;0.804177
9164.000000;0.804033
9163.000000;0.803570
9162.000000;0.802702
9161.000000;0.801790
9160.000000;0.801257
9159.000000;0.801272
9158.000000;0.801690
9157.000000;0.802096
9156.000000;0.802013
9155.000000;0.801371
9154.000000;0.800672
9153.000000;0.800412
9152.000000;0.800514
9151.000000;0.800564
9150.000000;0.800432
9149.000000;0.800234
9148.000000;0.799865
9147.000000;0.799042
9146.000000;0.797853
9145.000000;0.796811
9144.000000;0.796264
9143.000000;0.796082
9142.000000;0.796014
9141.000000;0.796021
9140.000000;0.796120
9139.000000;0.796156
9138.000000;0.795937
9137.000000;0.795479
9136.000000;0.794976
9135.000000;0.794603
9134.000000;0.794423
9133.000000;0.794384
9132.000000;0.794366
9131.000000;0.794261
9130.000000;0.794055
9129.000000;0.793789
9128.000000;0.793463
9127.000000;0.793030
9126.000000;0.792479
9125.000000;0.791914
9124.000000;0.791611
9123.000000;0.791852
9122.000000;0.792509
9121.000000;0.792884
9120.000000;0.792309
9119.000000;0.791005
9118.000000;0.789988
9117.000000;0.789956
9116.000000;0.790605
9115.000000;0.791184
9114.000000;0.791318
9113.000000;0.790985
9112.000000;0.790126
9111.000000;0.788809
9110.000000;0.787561
9109.000000;0.787000
9108.000000;0.787178
9107.000000;0.787625
9106.000000;0.787971
9105.000000;0.788163
9104.000000;0.788144
9103.000000;0.787750
9102.000000;0.786979
9101.000000;0.786077
9100.000000;0.785345
9099.000000;0.785022
9098.000000;0.785224
9097.000000;0.785734
9096.000000;0.785978
9095.000000;0.785564
9094.000000;0.784785
9093.000000;0.784247
9092.000000;0.784076
9091.000000;0.783872
9090.000000;0.783365
9089.000000;0.782725
9088.000000;0.782194
9087.000000;0.781788
9086.000000;0.781438
9085.000000;0.781100
9084.000000;0.780660
9083.000000;0.780049
9082.000000;0.779485
9081.000000;0.779316
9080.000000;0.779527
9079.000000;0.779700
9078.000000;0.779542
9077.000000;0.779199
9076.000000;0.778981
9075.000000;0.778983
9074.000000;0.779100
9073.000000;0.779193
9072.000000;0.779164
9071.000000;0.779026
9070.000000;0.778971
9069.000000;0.779220
9068.000000;0.779731
9067.000000;0.780159
9066.000000;0.780098
9065.000000;0.779300
9064.000000;0.777805
9063.000000;0.776055
9062.000000;0.774751
9061.000000;0.774309
9060.000000;0.774452
9059.000000;0.774577
9058.000000;0.774454
9057.000000;0.774324
9056.000000;0.774362
9055.000000;0.774422
9054.000000;0.774335
9053.000000;0.774149
