Criado como novo conjunto de dados;"1909daniel.spp","-4214321.3 Secs"
cm-1;Abs
10000.000000;1.205360
9999.000000;1.204555
9998.000000;1.203434
9997.000000;1.202391
9996.000000;1.201707
9995.000000;1.201233
9994.000000;1.201080
9993.000000;1.201564
9992.000000;1.202508
9991.000000;1.203062
9990.000000;1.202639
9989.000000;1.201458
9988.000000;1.200007
9987.000000;1.198523
9986.000000;1.197196
9985.000000;1.196317
9984.000000;1.195985
9983.000000;1.196011
9982.000000;1.196206
9981.000000;1.196338
9980.000000;1.195877
9979.000000;1.194416
9978.000000;1.192443
9977.000000;1.191032
9976.000000;1.190577
9975.000000;1.190392
9974.000000;1.189739
9973.000000;1.188667
9972.000000;1.187553
9971.000000;1.186397
9970.000000;1.185032
9969.000000;1.183596
9968.000000;1.182374
9967.000000;1.181421
9966.000000;1.180705
9965.000000;1.180413
9964.000000;1.180809
9963.000000;1.181855
9962.000000;1.183123
9961.000000;1.184011
9960.000000;1.184033
9959.000000;1.183135
9958.000000;1.181752
9957.000000;1.180389
9956.000000;1.179148
9955.000000;1.177855
9954.000000;1.176519
9953.000000;1.175363
9952.000000;1.174455
9951.000000;1.173657
9950.000000;1.172892
9949.000000;1.172158
9948.000000;1.171340
9947.000000;1.170301
9946.000000;1.169147
9945.000000;1.168074
9944.000000;1.167046
9943.000000;1.165923
9942.000000;1.164796
9941.000000;1.163845
9940.000000;1.162995
9939.000000;1.162109
9938.000000;1.161425
9937.000000;1.161335
9936.000000;1.161737
9935.000000;1.162007
9934.000000;1.161620
9933.000000;1.160504
9932.000000;1.158868
9931.000000;1.157079
9930.000000;1.155670
9929.000000;1.155042
9928.000000;1.155102
9927.000000;1.155459
9926.000000;1.155877
9925.000000;1.156203
9924.000000;1.156002
9923.000000;1.154788
9922.000000;1.152645
9921.000000;1.150242
9920.000000;1.148297
9919.000000;1.147267
9918.000000;1.147326
9917.000000;1.148138
9916.000000;1.148802
9915.000000;1.148525
9914.000000;1.147355
9913.000000;1.145879
9912.000000;1.144453
9911.000000;1.143220
9910.000000;1.142577
9909.000000;1.142849
9908.000000;1.143536
9907.000000;1.143607
9906.000000;1.142714
9905.000000;1.141517
9904.000000;1.140753
9903.000000;1.140518
9902.000000;1.140549
9901.000000;1.140569
9900.000000;1.140187
9899.000000;1.139015
9898.000000;1.137168
9897.000000;1.135264
9896.000000;1.133768
9895.000000;1.132662
9894.000000;1.131800
9893.000000;1.131136
9892.000000;1.130520
9891.000000;1.129719
9890.000000;1.128810
9889.000000;1.128202
9888.000000;1.128096
9887.000000;1.128226
9886.000000;1.128179
9885.000000;1.127669
9884.000000;1.126524
9883.000000;1.124844
9882.000000;1.123220
9881.000000;1.122352
9880.000000;1.122323
9879.000000;1.122539
9878.000000;1.122447
9877.000000;1.122017
9876.000000;1.121506
9875.000000;1.121074
9874.000000;1.120638
9873.000000;1.119800
9872.000000;1.118067
9871.000000;1.115617
9870.000000;1.113660
9869.000000;1.113376
9868.000000;1.114419
9867.000000;1.115121
9866.000000;1.114375
9865.000000;1.112746
9864.000000;1.111447
9863.000000;1.110852
9862.000000;1.110480
9861.000000;1.109938
9860.000000;1.109243
9859.000000;1.108380
9858.000000;1.107094
9857.000000;1.105215
9856.000000;1.102995
9855.000000;1.101054
9854.000000;1.099983
9853.000000;1.099908
9852.000000;1.100347
9851.000000;1.100656
9850.000000;1.100650
9849.000000;1.100610
9848.000000;1.100639
9847.000000;1.100308
9846.000000;1.099118
9845.000000;1.097133
9844.000000;1.094993
9843.000000;1.093386
9842.000000;1.092579
9841.000000;1.092399
9840.000000;1.092509
9839.000000;1.092698
9838.000000;1.092897
9837.000000;1.092975
9836.000000;1.092655
9835.000000;1.091751
9834.000000;1.090431
9833.000000;1.089103
9832.000000;1.088076
9831.000000;1.087379
9830.000000;1.086848
9829.000000;1.086286
9828.000000;1.085585
9827.000000;1.084737
9826.000000;1.083688
9825.000000;1.082311
9824.000000;1.080765
9823.000000;1.079718
9822.000000;1.079759
9821.000000;1.080492
9820.000000;1.080717
9819.000000;1.079744
9818.000000;1.078164
9817.000000;1.077020
9816.000000;1.076660
9815.000000;1.076744
9814.000000;1.076963
9813.000000;1.077176
9812.000000;1.077068
9811.000000;1.076250
9810.000000;1.074681
9809.000000;1.072674
9808.000000;1.070571
9807.000000;1.068651
9806.000000;1.067127
9805.000000;1.065945
9804.000000;1.064766
9803.000000;1.063481
9802.000000;1.062520
9801.000000;1.062342
9800.000000;1.062888
9799.000000;1.063786
9798.000000;1.064738
9797.000000;1.065363
9796.000000;1.065062
9795.000000;1.063642
9794.000000;1.061848
9793.000000;1.060699
9792.000000;1.060430
9791.000000;1.060499
9790.000000;1.060423
9789.000000;1.060083
9788.000000;1.059434
9787.000000;1.058484
9786.000000;1.057482
9785.000000;1.056611
9784.000000;1.055602
9783.000000;1.054140
9782.000000;1.052556
9781.000000;1.051556
9780.000000;1.051311
9779.000000;1.051356
9778.000000;1.051289
9777.000000;1.051035
9776.000000;1.050478
9775.000000;1.049490
9774.000000;1.048426
9773.000000;1.047936
9772.000000;1.048051
9771.000000;1.047954
9770.000000;1.046922
9769.000000;1.045134
9768.000000;1.043297
9767.000000;1.041827
9766.000000;1.040668
9765.000000;1.039655
9764.000000;1.038777
9763.000000;1.038157
9762.000000;1.037908
9761.000000;1.037962
9760.000000;1.038005
9759.000000;1.037710
9758.000000;1.037065
9757.000000;1.036375
9756.000000;1.035961
9755.000000;1.035869
9754.000000;1.035766
9753.000000;1.035056
9752.000000;1.033354
9751.000000;1.031011
9750.000000;1.028949
9749.000000;1.027789
9748.000000;1.027326
9747.000000;1.027025
9746.000000;1.026707
9745.000000;1.026468
9744.000000;1.026223
9743.000000;1.025796
9742.000000;1.025278
9741.000000;1.024877
9740.000000;1.024547
9739.000000;1.024134
9738.000000;1.023762
9737.000000;1.023608
9736.000000;1.023393
9735.000000;1.022544
9734.000000;1.020895
9733.000000;1.018892
9732.000000;1.017092
9731.000000;1.015734
9730.000000;1.014796
9729.000000;1.014151
9728.000000;1.013649
9727.000000;1.013196
9726.000000;1.012775
9725.000000;1.012287
9724.000000;1.011567
9723.000000;1.010674
9722.000000;1.009945
9721.000000;1.009568
9720.000000;1.009357
9719.000000;1.009173
9718.000000;1.009218
9717.000000;1.009592
9716.000000;1.009865
9715.000000;1.009524
9714.000000;1.008594
9713.000000;1.007442
9712.000000;1.006221
9711.000000;1.004959
9710.000000;1.003944
9709.000000;1.003489
9708.000000;1.003399
9707.000000;1.003096
9706.000000;1.002251
9705.000000;1.000955
9704.000000;0.999421
9703.000000;0.997877
9702.000000;0.996634
9701.000000;0.995818
9700.000000;0.995137
9699.000000;0.994281
9698.000000;0.993446
9697.000000;0.993065
9696.000000;0.993117
9695.000000;0.993080
9694.000000;0.992522
9693.000000;0.991473
9692.000000;0.990328
9691.000000;0.989657
9690.000000;0.989865
9689.000000;0.990670
9688.000000;0.991104
9687.000000;0.990425
9686.000000;0.988893
9685.000000;0.987325
9684.000000;0.986140
9683.000000;0.985230
9682.000000;0.984487
9681.000000;0.983904
9680.000000;0.983353
9679.000000;0.982766
9678.000000;0.982376
9677.000000;0.982288
9676.000000;0.981982
9675.000000;0.980806
9674.000000;0.978861
9673.000000;0.976868
9672.000000;0.975297
9671.000000;0.974179
9670.000000;0.973620
9669.000000;0.973819
9668.000000;0.974526
9667.000000;0.975044
9666.000000;0.974882
9665.000000;0.974019
9664.000000;0.972587
9663.000000;0.970870
9662.000000;0.969573
9661.000000;0.969382
9660.000000;0.970074
9659.000000;0.970578
9658.000000;0.970181
9657.000000;0.969216
9656.000000;0.968379
9655.000000;0.967854
9654.000000;0.967388
9653.000000;0.966819
9652.000000;0.966190
9651.000000;0.965563
9650.000000;0.964977
9649.000000;0.964447
9648.000000;0.963855
9647.000000;0.962990
9646.000000;0.961796
9645.000000;0.960417
9644.000000;0.958962
9643.000000;0.957438
9642.000000;0.955948
9641.000000;0.954783
9640.000000;0.954224
9639.000000;0.954359
9638.000000;0.955040
9637.000000;0.955845
9636.000000;0.956175
9635.000000;0.955643
9634.000000;0.954412
9633.000000;0.952951
9632.000000;0.951525
9631.000000;0.950111
9630.000000;0.948735
9629.000000;0.947591
9628.000000;0.946786
9627.000000;0.946205
9626.000000;0.945656
9625.000000;0.945033
9624.000000;0.944353
9623.000000;0.943766
9622.000000;0.943451
9621.000000;0.943390
9620.000000;0.943333
9619.000000;0.943079
9618.000000;0.942614
9617.000000;0.941887
9616.000000;0.940780
9615.000000;0.939498
9614.000000;0.938646
9613.000000;0.938528
9612.000000;0.938652
9611.000000;0.938344
9610.000000;0.937660
9609.000000;0.937227
9608.000000;0.937287
9607.000000;0.937406
9606.000000;0.937102
9605.000000;0.936313
9604.000000;0.935178
9603.000000;0.933763
9602.000000;0.932158
9601.000000;0.930600
9600.000000;0.929358
9599.000000;0.928607
9598.000000;0.928356
9597.000000;0.928376
9596.000000;0.928240
9595.000000;0.927653
9594.000000;0.926719
9593.000000;0.925757
9592.000000;0.924968
9591.000000;0.924414
9590.000000;0.924132
9589.000000;0.924050
9588.000000;0.923910
9587.000000;0.923470
9586.000000;0.922678
9585.000000;0.921554
9584.000000;0.920154
9583.000000;0.918815
9582.000000;0.918088
9581.000000;0.918069
9580.000000;0.918065
9579.000000;0.917356
9578.000000;0.916099
9577.000000;0.915092
9576.000000;0.914788
9575.000000;0.914935
9574.000000;0.915042
9573.000000;0.914815
9572.000000;0.914178
9571.000000;0.913260
9570.000000;0.912372
9569.000000;0.911740
9568.000000;0.911270
9567.000000;0.910742
9566.000000;0.910080
9565.000000;0.909265
9564.000000;0.908226
9563.000000;0.907089
9562.000000;0.906287
9561.000000;0.906050
9560.000000;0.905982
9559.000000;0.905518
9558.000000;0.904653
9557.000000;0.903854
9556.000000;0.903381
9555.000000;0.903098
9554.000000;0.902802
9553.000000;0.902360
9552.000000;0.901601
9551.000000;0.900467
9550.000000;0.899252
9549.000000;0.898369
9548.000000;0.897900
9547.000000;0.897632
9546.000000;0.897439
9545.000000;0.897323
9544.000000;0.897156
9543.000000;0.896705
9542.000000;0.895889
9541.000000;0.894775
9540.000000;0.893427
9539.000000;0.892020
9538.000000;0.890985
9537.000000;0.890715
9536.000000;0.891149
9535.000000;0.891778
9534.000000;0.891986
9533.000000;0.891328
9532.000000;0.889781
9531.000000;0.887942
9530.000000;0.886631
9529.000000;0.886010
9528.000000;0.885381
9527.000000;0.884179
9526.000000;0.882807
9525.000000;0.882010
9524.000000;0.881780
9523.000000;0.881486
9522.000000;0.880880
9521.000000;0.880336
9520.000000;0.880122
9519.000000;0.880018
9518.000000;0.879741
9517.000000;0.879274
9516.000000;0.878707
9515.000000;0.878141
9514.000000;0.877809
9513.000000;0.877884
9512.000000;0.878085
9511.000000;0.877806
9510.000000;0.876774
9509.000000;0.875316
9508.000000;0.873962
9507.000000;0.872998
9506.000000;0.872430
9505.000000;0.872116
9504.000000;0.871844
9503.000000;0.871448
9502.000000;0.870866
9501.000000;0.870037
9500.000000;0.868870
9499.000000;0.867487
9498.000000;0.866320
9497.000000;0.865736
9496.000000;0.865709
9495.000000;0.866010
9494.000000;0.866525
9493.000000;0.867136
9492.000000;0.867500
9491.000000;0.867276
9490.000000;0.866502
9489.000000;0.865503
9488.000000;0.864532
9487.000000;0.863689
9486.000000;0.863008
9485.000000;0.862391
9484.000000;0.861642
9483.000000;0.860766
9482.000000;0.860020
9481.000000;0.859478
9480.000000;0.858851
9479.000000;0.857990
9478.000000;0.857201
9477.000000;0.856729
9476.000000;0.856283
9475.000000;0.855483
9474.000000;0.854465
9473.000000;0.853597
9472.000000;0.852871
9471.000000;0.852075
9470.000000;0.851320
9469.000000;0.850888
9468.000000;0.850703
9467.000000;0.850444
9466.000000;0.850036
9465.000000;0.849596
9464.000000;0.849034
9463.000000;0.848173
9462.000000;0.847158
9461.000000;0.846308
9460.000000;0.845695
9459.000000;0.845274
9458.000000;0.845212
9457.000000;0.845593
9456.000000;0.845950
9455.000000;0.845649
9454.000000;0.844694
9453.000000;0.843647
9452.000000;0.842842
9451.000000;0.842147
9450.000000;0.841436
9449.000000;0.840768
9448.000000;0.840150
9447.000000;0.839592
9446.000000;0.839334
9445.000000;0.839521
9444.000000;0.839725
9443.000000;0.839325
9442.000000;0.838355
9441.000000;0.837411
9440.000000;0.836726
9439.000000;0.835935
9438.000000;0.834866
9437.000000;0.833955
9436.000000;0.833642
9435.000000;0.833777
9434.000000;0.833890
9433.000000;0.833714
9432.000000;0.833206
9431.000000;0.832336
9430.000000;0.831069
9429.000000;0.829456
9428.000000;0.827688
9427.000000;0.826187
9426.000000;0.825514
9425.000000;0.825864
9424.000000;0.826686
9423.000000;0.827078
9422.000000;0.826582
9421.000000;0.825374
9420.000000;0.823835
9419.000000;0.822331
9418.000000;0.821328
9417.000000;0.821203
9416.000000;0.821749
9415.000000;0.822197
9414.000000;0.821912
9413.000000;0.820931
9412.000000;0.819795
9411.000000;0.819051
9410.000000;0.818910
9409.000000;0.819088
9408.000000;0.818995
9407.000000;0.818284
9406.000000;0.817189
9405.000000;0.816173
9404.000000;0.815383
9403.000000;0.814703
9402.000000;0.814148
9401.000000;0.813836
9400.000000;0.813682
9399.000000;0.813475
9398.000000;0.813167
9397.000000;0.812753
9396.000000;0.812037
9395.000000;0.810942
9394.000000;0.809894
9393.000000;0.809393
9392.000000;0.809262
9391.000000;0.808860
9390.000000;0.808066
9389.000000;0.807525
9388.000000;0.807736
9387.000000;0.808378
9386.000000;0.808759
9385.000000;0.808586
9384.000000;0.808030
9383.000000;0.807320
9382.000000;0.806575
9381.000000;0.805881
9380.000000;0.805307
9379.000000;0.804851
9378.000000;0.804444
9377.000000;0.803977
9376.000000;0.803375
9375.000000;0.802726
9374.000000;0.802250
9373.000000;0.801992
9372.000000;0.801661
9371.000000;0.800949
9370.000000;0.799910
9369.000000;0.798838
9368.000000;0.797902
9367.000000;0.797097
9366.000000;0.796389
9365.000000;0.795673
9364.000000;0.794782
9363.000000;0.793786
9362.000000;0.793088
9361.000000;0.792933
9360.000000;0.793028
9359.000000;0.792989
9358.000000;0.792943
9357.000000;0.793260
9356.000000;0.793830
9355.000000;0.794085
9354.000000;0.793672
9353.000000;0.792720
9352.000000;0.791502
9351.000000;0.790252
9350.000000;0.789231
9349.000000;0.788526
9348.000000;0.787836
9347.000000;0.786843
9346.000000;0.785769
9345.000000;0.785152
9344.000000;0.785103
9343.000000;0.785204
9342.000000;0.785120
9341.000000;0.784865
9340.000000;0.784468
9339.000000;0.783877
9338.000000;0.783254
9337.000000;0.782912
9336.000000;0.782822
9335.000000;0.782577
9334.000000;0.781971
9333.000000;0.781244
9332.000000;0.780619
9331.000000;0.779979
9330.000000;0.779139
9329.000000;0.778160
9328.000000;0.777214
9327.000000;0.776417
9326.000000;0.775886
9325.000000;0.775683
9324.000000;0.775614
9323.000000;0.775365
9322.000000;0.774949
9321.000000;0.774737
9320.000000;0.774899
9319.000000;0.775079
9318.000000;0.774753
9317.000000;0.773792
9316.000000;0.772564
9315.000000;0.771597
9314.000000;0.771165
9313.000000;0.771068
9312.000000;0.770846
9311.000000;0.770360
9310.000000;0.770050
9309.000000;0.770351
9308.000000;0.770992
9307.000000;0.771232
9306.000000;0.770750
9305.000000;0.769930
9304.000000;0.769236
9303.000000;0.768675
9302.000000;0.767984
9301.000000;0.767061
9300.000000;0.766094
9299.000000;0.765462
9298.000000;0.765502
9297.000000;0.766128
9296.000000;0.766680
9295.000000;0.766460
9294.000000;0.765439
9293.000000;0.764182
9292.000000;0.763115
9291.000000;0.762201
9290.000000;0.761322
9289.000000;0.760556
9288.000000;0.759962
9287.000000;0.759458
9286.000000;0.759037
9285.000000;0.758836
9284.000000;0.758854
9283.000000;0.758831
9282.000000;0.758533
9281.000000;0.757962
9280.000000;0.757226
9279.000000;0.756423
9278.000000;0.755719
9277.000000;0.755303
9276.000000;0.755176
9275.000000;0.755157
9274.000000;0.755124
9273.000000;0.755031
9272.000000;0.754736
9271.000000;0.754110
9270.000000;0.753370
9269.000000;0.752976
9268.000000;0.753078
9267.000000;0.753304
9266.000000;0.753212
9265.000000;0.752761
9264.000000;0.752200
9263.000000;0.751716
9262.000000;0.751320
9261.000000;0.750933
9260.000000;0.750469
9259.000000;0.749893
9258.000000;0.749245
9257.000000;0.748528
9256.000000;0.747687
9255.000000;0.746836
9254.000000;0.746399
9253.000000;0.746694
9252.000000;0.747380
9251.000000;0.747648
9250.000000;0.747058
9249.000000;0.745977
9248.000000;0.745087
9247.000000;0.744675
9246.000000;0.744489
9245.000000;0.744103
9244.000000;0.743323
9243.000000;0.742344
9242.000000;0.741529
9241.000000;0.740974
9240.000000;0.740408
9239.000000;0.739676
9238.000000;0.739146
9237.000000;0.739334
9236.000000;0.740165
9235.000000;0.740948
9234.000000;0.741089
9233.000000;0.740519
9232.000000;0.739435
9231.000000;0.738058
9230.000000;0.736760
9229.000000;0.736059
9228.000000;0.736167
9227.000000;0.736689
9226.000000;0.736965
9225.000000;0.736679
9224.000000;0.736048
9223.000000;0.735513
9222.000000;0.735337
9221.000000;0.735431
9220.000000;0.735488
9219.000000;0.735319
9218.000000;0.735012
9217.000000;0.734696
9216.000000;0.734296
9215.000000;0.733683
9214.000000;0.732953
9213.000000;0.732331
9212.000000;0.731856
9211.000000;0.731407
9210.000000;0.730994
9209.000000;0.730734
9208.000000;0.730554
9207.000000;0.730196
9206.000000;0.729570
9205.000000;0.728866
9204.000000;0.728282
9203.000000;0.727833
9202.000000;0.727460
9201.000000;0.727117
9200.000000;0.726748
9199.000000;0.726364
9198.000000;0.726117
9197.000000;0.726055
9196.000000;0.725852
9195.000000;0.725101
9194.000000;0.723883
9193.000000;0.722738
9192.000000;0.722019
9191.000000;0.721578
9190.000000;0.721172
9189.000000;0.720876
9188.000000;0.720927
9187.000000;0.721388
9186.000000;0.722122
9185.000000;0.722889
9184.000000;0.723347
9183.000000;0.723183
9182.000000;0.722435
9181.000000;0.721541
9180.000000;0.720939
9179.000000;0.720725
9178.000000;0.720752
9177.000000;0.720862
9176.000000;0.720898
9175.000000;0.720654
9174.000000;0.720044
9173.000000;0.719279
9172.000000;0.718750
9171.000000;0.718698
9170.000000;0.718969
9169.000000;0.719050
9168.000000;0.718408
9167.000000;0.716968
9166.000000;0.715297
9165.000000;0.714152
9164.000000;0.713835
9163.000000;0.714050
9162.000000;0.714348
9161.000000;0.714501
9160.000000;0.714466
9159.000000;0.714246
9158.000000;0.713881
9157.000000;0.713423
9156.000000;0.712831
9155.000000;0.712050
9154.000000;0.711228
9153.000000;0.710651
9152.000000;0.710387
9151.000000;0.710168
9150.000000;0.709747
9149.000000;0.709222
9148.000000;0.708857
9147.000000;0.708660
9146.000000;0.708353
9145.000000;0.707737
9144.000000;0.706986
9143.000000;0.706512
9142.000000;0.706537
9141.000000;0.706842
9140.000000;0.706987
9139.000000;0.706777
9138.000000;0.706425
9137.000000;0.706215
9136.000000;0.706130
9135.000000;0.705923
9134.000000;0.705459
9133.000000;0.704821
9132.000000;0.704154
9131.000000;0.703574
9130.000000;0.703215
9129.000000;0.703167
9128.000000;0.703342
9127.000000;0.703535
9126.000000;0.703630
9125.000000;0.703647
9124.000000;0.703608
9123.000000;0.703473
9122.000000;0.703178
9121.000000;0.702671
9120.000000;0.701946
9119.000000;0.701163
9118.000000;0.700624
9117.000000;0.700505
9116.000000;0.700651
9115.000000;0.700794
9114.000000;0.700866
9113.000000;0.700926
9112.000000;0.700907
9111.000000;0.700673
9110.000000;0.700287
9109.000000;0.699953
9108.000000;0.699716
9107.000000;0.699455
9106.000000;0.699159
9105.000000;0.698902
9104.000000;0.698527
9103.000000;0.697698
9102.000000;0.696432
9101.000000;0.695307
9100.000000;0.694906
9099.000000;0.695178
9098.000000;0.695566
9097.000000;0.695680
9096.000000;0.695642
9095.000000;0.695752
9094.000000;0.696009
9093.000000;0.696063
9092.000000;0.695616
9091.000000;0.694762
9090.000000;0.693850
9089.000000;0.693084
9088.000000;0.692409
9087.000000;0.691784
9086.000000;0.691350
9085.000000;0.691179
9084.000000;0.691035
9083.000000;0.690655
9082.000000;0.690163
9081.000000;0.689940
9080.000000;0.690078
9079.000000;0.690228
9078.000000;0.690061
9077.000000;0.689637
9076.000000;0.689219
9075.000000;0.688902
9074.000000;0.688604
9073.000000;0.688330
9072.000000;0.688309
9071.000000;0.688796
9070.000000;0.689742
9069.000000;0.690617
9068.000000;0.690678
9067.000000;0.689613
9066.000000;0.687911
9065.000000;0.686424
9064.000000;0.685554
9063.000000;0.685025
9062.000000;0.684472
9061.000000;0.683981
9060.000000;0.683892
9059.000000;0.684254
9058.000000;0.684731
9057.000000;0.685024
9056.000000;0.685159
9055.000000;0.685314
9054.000000;0.685492
9053.000000;0.685468
