Criado como novo conjunto de dados;"1909daniel.spp","-4276244.6 Secs"
cm-1;Abs
10000.000000;1.416250
9999.000000;1.413892
9998.000000;1.412391
9997.000000;1.410914
9996.000000;1.408791
9995.000000;1.406909
9994.000000;1.406461
9993.000000;1.407617
9992.000000;1.409121
9991.000000;1.409748
9990.000000;1.409307
9989.000000;1.408419
9988.000000;1.407729
9987.000000;1.407646
9986.000000;1.408325
9985.000000;1.409459
9984.000000;1.410253
9983.000000;1.409941
9982.000000;1.408344
9981.000000;1.405803
9980.000000;1.402740
9979.000000;1.399613
9978.000000;1.397160
9977.000000;1.396278
9976.000000;1.397318
9975.000000;1.399501
9974.000000;1.401243
9973.000000;1.401350
9972.000000;1.400032
9971.000000;1.398677
9970.000000;1.398503
9969.000000;1.399438
9968.000000;1.400219
9967.000000;1.399495
9966.000000;1.396897
9965.000000;1.393289
9964.000000;1.390216
9963.000000;1.388879
9962.000000;1.389214
9961.000000;1.389868
9960.000000;1.389402
9959.000000;1.387659
9958.000000;1.385760
9957.000000;1.384710
9956.000000;1.384373
9955.000000;1.383944
9954.000000;1.383067
9953.000000;1.382132
9952.000000;1.381577
9951.000000;1.381338
9950.000000;1.381118
9949.000000;1.380974
9948.000000;1.381361
9947.000000;1.382478
9946.000000;1.383673
9945.000000;1.383689
9944.000000;1.381735
9943.000000;1.378343
9942.000000;1.375025
9941.000000;1.373078
9940.000000;1.372734
9939.000000;1.373265
9938.000000;1.373669
9937.000000;1.373338
9936.000000;1.372377
9935.000000;1.371431
9934.000000;1.371017
9933.000000;1.370934
9932.000000;1.370437
9931.000000;1.369135
9930.000000;1.367489
9929.000000;1.366209
9928.000000;1.365297
9927.000000;1.364052
9926.000000;1.362005
9925.000000;1.359539
9924.000000;1.357452
9923.000000;1.356208
9922.000000;1.355780
9921.000000;1.355955
9920.000000;1.356418
9919.000000;1.356675
9918.000000;1.356361
9917.000000;1.355735
9916.000000;1.355466
9915.000000;1.355714
9914.000000;1.355729
9913.000000;1.354681
9912.000000;1.352681
9911.000000;1.350639
9910.000000;1.349305
9909.000000;1.348891
9908.000000;1.349456
9907.000000;1.350973
9906.000000;1.352850
9905.000000;1.353948
9904.000000;1.353511
9903.000000;1.351796
9902.000000;1.349521
9901.000000;1.347094
9900.000000;1.344706
9899.000000;1.342736
9898.000000;1.341565
9897.000000;1.341118
9896.000000;1.341021
9895.000000;1.341103
9894.000000;1.341241
9893.000000;1.340860
9892.000000;1.339318
9891.000000;1.337007
9890.000000;1.335419
9889.000000;1.335610
9888.000000;1.336798
9887.000000;1.336954
9886.000000;1.334834
9885.000000;1.331220
9884.000000;1.328120
9883.000000;1.326971
9882.000000;1.327665
9881.000000;1.329028
9880.000000;1.329944
9879.000000;1.329984
9878.000000;1.329280
9877.000000;1.328252
9876.000000;1.327497
9875.000000;1.327502
9874.000000;1.328157
9873.000000;1.328757
9872.000000;1.328731
9871.000000;1.328158
9870.000000;1.327368
9869.000000;1.326323
9868.000000;1.324750
9867.000000;1.322719
9866.000000;1.320694
9865.000000;1.319143
9864.000000;1.318381
9863.000000;1.318581
9862.000000;1.319437
9861.000000;1.319929
9860.000000;1.319009
9859.000000;1.316635
9858.000000;1.313760
9857.000000;1.311318
9856.000000;1.309656
9855.000000;1.308864
9854.000000;1.309012
9853.000000;1.309849
9852.000000;1.310717
9851.000000;1.311113
9850.000000;1.311050
9849.000000;1.310633
9848.000000;1.309658
9847.000000;1.307990
9846.000000;1.306014
9845.000000;1.304349
9844.000000;1.303262
9843.000000;1.302585
9842.000000;1.302039
9841.000000;1.301392
9840.000000;1.300498
9839.000000;1.299423
9838.000000;1.298489
9837.000000;1.297987
9836.000000;1.297904
9835.000000;1.297969
9834.000000;1.297860
9833.000000;1.297361
9832.000000;1.296531
9831.000000;1.295739
9830.000000;1.295292
9829.000000;1.294976
9828.000000;1.294250
9827.000000;1.293001
9826.000000;1.291766
9825.000000;1.291057
9824.000000;1.290792
9823.000000;1.290619
9822.000000;1.290474
9821.000000;1.290477
9820.000000;1.290460
9819.000000;1.289963
9818.000000;1.288674
9817.000000;1.286767
9816.000000;1.284882
9815.000000;1.283855
9814.000000;1.284128
9813.000000;1.285156
9812.000000;1.285681
9811.000000;1.284918
9810.000000;1.283307
9809.000000;1.281799
9808.000000;1.280692
9807.000000;1.279588
9806.000000;1.278267
9805.000000;1.277051
9804.000000;1.276246
9803.000000;1.275668
9802.000000;1.274897
9801.000000;1.273809
9800.000000;1.272742
9799.000000;1.272182
9798.000000;1.272216
9797.000000;1.272231
9796.000000;1.271352
9795.000000;1.269389
9794.000000;1.267170
9793.000000;1.265669
9792.000000;1.265044
9791.000000;1.264793
9790.000000;1.264624
9789.000000;1.264686
9788.000000;1.264948
9787.000000;1.264895
9786.000000;1.264119
9785.000000;1.262929
9784.000000;1.262072
9783.000000;1.261955
9782.000000;1.262265
9781.000000;1.262299
9780.000000;1.261560
9779.000000;1.260152
9778.000000;1.258680
9777.000000;1.257742
9776.000000;1.257427
9775.000000;1.257318
9774.000000;1.256979
9773.000000;1.256407
9772.000000;1.255980
9771.000000;1.255936
9770.000000;1.255877
9769.000000;1.254932
9768.000000;1.252639
9767.000000;1.249620
9766.000000;1.247100
9765.000000;1.245714
9764.000000;1.245054
9763.000000;1.244480
9762.000000;1.244002
9761.000000;1.244014
9760.000000;1.244421
9759.000000;1.244533
9758.000000;1.243863
9757.000000;1.242692
9756.000000;1.241722
9755.000000;1.241391
9754.000000;1.241647
9753.000000;1.242158
9752.000000;1.242548
9751.000000;1.242516
9750.000000;1.241899
9749.000000;1.240773
9748.000000;1.239523
9747.000000;1.238672
9746.000000;1.238442
9745.000000;1.238426
9744.000000;1.237897
9743.000000;1.236514
9742.000000;1.234573
9741.000000;1.232549
9740.000000;1.230707
9739.000000;1.229239
9738.000000;1.228377
9737.000000;1.228069
9736.000000;1.227794
9735.000000;1.227058
9734.000000;1.225959
9733.000000;1.225012
9732.000000;1.224559
9731.000000;1.224628
9730.000000;1.225101
9729.000000;1.225654
9728.000000;1.225688
9727.000000;1.224814
9726.000000;1.223369
9725.000000;1.222016
9724.000000;1.220840
9723.000000;1.219281
9722.000000;1.217045
9721.000000;1.214701
9720.000000;1.213167
9719.000000;1.212872
9718.000000;1.213527
9717.000000;1.214493
9716.000000;1.215225
9715.000000;1.215479
9714.000000;1.215235
9713.000000;1.214481
9712.000000;1.213198
9711.000000;1.211600
9710.000000;1.210191
9709.000000;1.209305
9708.000000;1.208764
9707.000000;1.208230
9706.000000;1.207715
9705.000000;1.207448
9704.000000;1.207445
9703.000000;1.207610
9702.000000;1.208040
9701.000000;1.208707
9700.000000;1.208947
9699.000000;1.207951
9698.000000;1.205886
9697.000000;1.203883
9696.000000;1.202704
9695.000000;1.201965
9694.000000;1.200932
9693.000000;1.199600
9692.000000;1.198558
9691.000000;1.198093
9690.000000;1.197866
9689.000000;1.197372
9688.000000;1.196473
9687.000000;1.195523
9686.000000;1.195053
9685.000000;1.195224
9684.000000;1.195527
9683.000000;1.195237
9682.000000;1.194167
9681.000000;1.192723
9680.000000;1.191281
9679.000000;1.189913
9678.000000;1.188715
9677.000000;1.187911
9676.000000;1.187469
9675.000000;1.187096
9674.000000;1.186823
9673.000000;1.187054
9672.000000;1.187696
9671.000000;1.187786
9670.000000;1.186549
9669.000000;1.184510
9668.000000;1.182958
9667.000000;1.182475
9666.000000;1.182402
9665.000000;1.181648
9664.000000;1.179681
9663.000000;1.176890
9662.000000;1.174388
9661.000000;1.173336
9660.000000;1.174039
9659.000000;1.175641
9658.000000;1.176878
9657.000000;1.177068
9656.000000;1.176249
9655.000000;1.174704
9654.000000;1.172811
9653.000000;1.171097
9652.000000;1.169943
9651.000000;1.169269
9650.000000;1.168831
9649.000000;1.168660
9648.000000;1.168825
9647.000000;1.168930
9646.000000;1.168415
9645.000000;1.167331
9644.000000;1.166329
9643.000000;1.165821
9642.000000;1.165602
9641.000000;1.165333
9640.000000;1.165016
9639.000000;1.164842
9638.000000;1.164813
9637.000000;1.164643
9636.000000;1.163894
9635.000000;1.162319
9634.000000;1.160268
9633.000000;1.158567
9632.000000;1.157650
9631.000000;1.157012
9630.000000;1.155965
9629.000000;1.154707
9628.000000;1.154022
9627.000000;1.153976
9626.000000;1.153658
9625.000000;1.152398
9624.000000;1.150648
9623.000000;1.149341
9622.000000;1.148923
9621.000000;1.149298
9620.000000;1.150187
9619.000000;1.151107
9618.000000;1.151355
9617.000000;1.150541
9616.000000;1.149022
9615.000000;1.147560
9614.000000;1.146672
9613.000000;1.146415
9612.000000;1.146443
9611.000000;1.146095
9610.000000;1.144835
9609.000000;1.142946
9608.000000;1.141472
9607.000000;1.141105
9606.000000;1.141394
9605.000000;1.141397
9604.000000;1.140765
9603.000000;1.139747
9602.000000;1.138443
9601.000000;1.136753
9600.000000;1.135012
9599.000000;1.133960
9598.000000;1.133880
9597.000000;1.134178
9596.000000;1.134053
9595.000000;1.133304
9594.000000;1.132317
9593.000000;1.131500
9592.000000;1.130975
9591.000000;1.130657
9590.000000;1.130415
9589.000000;1.130141
9588.000000;1.129765
9587.000000;1.129227
9586.000000;1.128492
9585.000000;1.127653
9584.000000;1.126932
9583.000000;1.126438
9582.000000;1.125984
9581.000000;1.125312
9580.000000;1.124426
9579.000000;1.123556
9578.000000;1.122830
9577.000000;1.122214
9576.000000;1.121721
9575.000000;1.121407
9574.000000;1.121086
9573.000000;1.120349
9572.000000;1.119041
9571.000000;1.117539
9570.000000;1.116409
9569.000000;1.115866
9568.000000;1.115713
9567.000000;1.115688
9566.000000;1.115679
9565.000000;1.115588
9564.000000;1.115190
9563.000000;1.114301
9562.000000;1.113073
9561.000000;1.111982
9560.000000;1.111355
9559.000000;1.110960
9558.000000;1.110220
9557.000000;1.108948
9556.000000;1.107704
9555.000000;1.107226
9554.000000;1.107543
9553.000000;1.107834
9552.000000;1.107228
9551.000000;1.105677
9550.000000;1.104003
9549.000000;1.103161
9548.000000;1.103489
9547.000000;1.104538
9546.000000;1.105492
9545.000000;1.105728
9544.000000;1.105059
9543.000000;1.103667
9542.000000;1.101966
9541.000000;1.100448
9540.000000;1.099381
9539.000000;1.098585
9538.000000;1.097683
9537.000000;1.096667
9536.000000;1.095960
9535.000000;1.095794
9534.000000;1.095780
9533.000000;1.095390
9532.000000;1.094685
9531.000000;1.094172
9530.000000;1.093958
9529.000000;1.093472
9528.000000;1.092165
9527.000000;1.090216
9526.000000;1.088355
9525.000000;1.087185
9524.000000;1.086843
9523.000000;1.087129
9522.000000;1.087658
9521.000000;1.087915
9520.000000;1.087450
9519.000000;1.086232
9518.000000;1.084840
9517.000000;1.084106
9516.000000;1.084428
9515.000000;1.085372
9514.000000;1.086001
9513.000000;1.085674
9512.000000;1.084484
9511.000000;1.082941
9510.000000;1.081411
9509.000000;1.079996
9508.000000;1.078747
9507.000000;1.077739
9506.000000;1.076960
9505.000000;1.076332
9504.000000;1.075849
9503.000000;1.075560
9502.000000;1.075411
9501.000000;1.075225
9500.000000;1.074848
9499.000000;1.074235
9498.000000;1.073448
9497.000000;1.072668
9496.000000;1.072108
9495.000000;1.071755
9494.000000;1.071322
9493.000000;1.070640
9492.000000;1.069955
9491.000000;1.069567
9490.000000;1.069321
9489.000000;1.068826
9488.000000;1.068117
9487.000000;1.067636
9486.000000;1.067481
9485.000000;1.067163
9484.000000;1.066350
9483.000000;1.065425
9482.000000;1.064942
9481.000000;1.064828
9480.000000;1.064550
9479.000000;1.063920
9478.000000;1.063312
9477.000000;1.063039
9476.000000;1.062889
9475.000000;1.062427
9474.000000;1.061564
9473.000000;1.060645
9472.000000;1.060012
9471.000000;1.059566
9470.000000;1.058879
9469.000000;1.057747
9468.000000;1.056527
9467.000000;1.055750
9466.000000;1.055482
9465.000000;1.055353
9464.000000;1.055149
9463.000000;1.054990
9462.000000;1.054768
9461.000000;1.053891
9460.000000;1.052005
9459.000000;1.049731
9458.000000;1.048206
9457.000000;1.047975
9456.000000;1.048664
9455.000000;1.049590
9454.000000;1.050224
9453.000000;1.050107
9452.000000;1.048875
9451.000000;1.046697
9450.000000;1.044402
9449.000000;1.042869
9448.000000;1.042396
9447.000000;1.042721
9446.000000;1.043435
9445.000000;1.044185
9444.000000;1.044662
9443.000000;1.044673
9442.000000;1.044183
9441.000000;1.043224
9440.000000;1.041860
9439.000000;1.040348
9438.000000;1.039181
9437.000000;1.038732
9436.000000;1.038866
9435.000000;1.039028
9434.000000;1.038772
9433.000000;1.038097
9432.000000;1.037275
9431.000000;1.036468
9430.000000;1.035577
9429.000000;1.034408
9428.000000;1.032985
9427.000000;1.031709
9426.000000;1.031159
9425.000000;1.031651
9424.000000;1.032919
9423.000000;1.034201
9422.000000;1.034714
9421.000000;1.034212
9420.000000;1.033183
9419.000000;1.032392
9418.000000;1.032086
9417.000000;1.031706
9416.000000;1.030573
9415.000000;1.028785
9414.000000;1.027157
9413.000000;1.026218
9412.000000;1.025623
9411.000000;1.024729
9410.000000;1.023497
9409.000000;1.022485
9408.000000;1.022083
9407.000000;1.022081
9406.000000;1.022029
9405.000000;1.021718
9404.000000;1.021237
9403.000000;1.020734
9402.000000;1.020258
9401.000000;1.019710
9400.000000;1.018916
9399.000000;1.017854
9398.000000;1.016801
9397.000000;1.016111
9396.000000;1.015806
9395.000000;1.015541
9394.000000;1.015003
9393.000000;1.014175
9392.000000;1.013169
9391.000000;1.012041
9390.000000;1.010886
9389.000000;1.009949
9388.000000;1.009442
9387.000000;1.009329
9386.000000;1.009420
9385.000000;1.009571
9384.000000;1.009682
9383.000000;1.009592
9382.000000;1.009194
9381.000000;1.008623
9380.000000;1.008154
9379.000000;1.007891
9378.000000;1.007701
9377.000000;1.007423
9376.000000;1.007040
9375.000000;1.006658
9374.000000;1.006442
9373.000000;1.006518
9372.000000;1.006756
9371.000000;1.006705
9370.000000;1.005987
9369.000000;1.004807
9368.000000;1.003826
9367.000000;1.003412
9366.000000;1.003234
9365.000000;1.002728
9364.000000;1.001777
9363.000000;1.000726
9362.000000;0.999864
9361.000000;0.999136
9360.000000;0.998357
9359.000000;0.997528
9358.000000;0.996896
9357.000000;0.996770
9356.000000;0.997183
9355.000000;0.997682
9354.000000;0.997534
9353.000000;0.996354
9352.000000;0.994505
9351.000000;0.992776
9350.000000;0.991693
9349.000000;0.991281
9348.000000;0.991361
9347.000000;0.991782
9346.000000;0.992298
9345.000000;0.992476
9344.000000;0.991966
9343.000000;0.990873
9342.000000;0.989744
9341.000000;0.989162
9340.000000;0.989272
9339.000000;0.989634
9338.000000;0.989572
9337.000000;0.988805
9336.000000;0.987709
9335.000000;0.986805
9334.000000;0.986070
9333.000000;0.985018
9332.000000;0.983503
9331.000000;0.982110
9330.000000;0.981547
9329.000000;0.981823
9328.000000;0.982265
9327.000000;0.982292
9326.000000;0.981901
9325.000000;0.981418
9324.000000;0.981019
9323.000000;0.980640
9322.000000;0.980189
9321.000000;0.979702
9320.000000;0.979265
9319.000000;0.978893
9318.000000;0.978525
9317.000000;0.978168
9316.000000;0.977965
9315.000000;0.978014
9314.000000;0.978085
9313.000000;0.977694
9312.000000;0.976639
9311.000000;0.975364
9310.000000;0.974565
9309.000000;0.974392
9308.000000;0.974285
9307.000000;0.973651
9306.000000;0.972537
9305.000000;0.971530
9304.000000;0.971112
9303.000000;0.971261
9302.000000;0.971589
9301.000000;0.971722
9300.000000;0.971540
9299.000000;0.971130
9298.000000;0.970565
9297.000000;0.969799
9296.000000;0.968860
9295.000000;0.968096
9294.000000;0.967948
9293.000000;0.968368
9292.000000;0.968657
9291.000000;0.968137
9290.000000;0.966872
9289.000000;0.965521
9288.000000;0.964631
9287.000000;0.964340
9286.000000;0.964629
9285.000000;0.965396
9284.000000;0.966174
9283.000000;0.966223
9282.000000;0.965233
9281.000000;0.963739
9280.000000;0.962576
9279.000000;0.962066
9278.000000;0.961943
9277.000000;0.961861
9276.000000;0.961652
9275.000000;0.961209
9274.000000;0.960512
9273.000000;0.959795
9272.000000;0.959359
9271.000000;0.959145
9270.000000;0.958813
9269.000000;0.958284
9268.000000;0.957817
9267.000000;0.957434
9266.000000;0.956691
9265.000000;0.955333
9264.000000;0.953876
9263.000000;0.953146
9262.000000;0.953348
9261.000000;0.953914
9260.000000;0.954187
9259.000000;0.953929
9258.000000;0.953226
9257.000000;0.952257
9256.000000;0.951282
9255.000000;0.950585
9254.000000;0.950237
9253.000000;0.950028
9252.000000;0.949724
9251.000000;0.949355
9250.000000;0.949172
9249.000000;0.949378
9248.000000;0.949860
9247.000000;0.950098
9246.000000;0.949470
9245.000000;0.947834
9244.000000;0.945855
9243.000000;0.944535
9242.000000;0.944350
9241.000000;0.944952
9240.000000;0.945690
9239.000000;0.946239
9238.000000;0.946622
9237.000000;0.946843
9236.000000;0.946677
9235.000000;0.945858
9234.000000;0.944394
9233.000000;0.942688
9232.000000;0.941290
9231.000000;0.940430
9230.000000;0.939886
9229.000000;0.939397
9228.000000;0.939110
9227.000000;0.939386
9226.000000;0.940218
9225.000000;0.941083
9224.000000;0.941428
9223.000000;0.941078
9222.000000;0.940175
9221.000000;0.939000
9220.000000;0.937958
9219.000000;0.937434
9218.000000;0.937417
9217.000000;0.937466
9216.000000;0.937201
9215.000000;0.936699
9214.000000;0.936275
9213.000000;0.936083
9212.000000;0.936097
9211.000000;0.936227
9210.000000;0.936214
9209.000000;0.935644
9208.000000;0.934413
9207.000000;0.933063
9206.000000;0.932334
9205.000000;0.932403
9204.000000;0.932803
9203.000000;0.933012
9202.000000;0.932881
9201.000000;0.932541
9200.000000;0.932218
9199.000000;0.932193
9198.000000;0.932585
9197.000000;0.933041
9196.000000;0.932888
9195.000000;0.931766
9194.000000;0.929998
9193.000000;0.928232
9192.000000;0.926902
9191.000000;0.926098
9190.000000;0.925759
9189.000000;0.925785
9188.000000;0.926024
9187.000000;0.926271
9186.000000;0.926315
9185.000000;0.925985
9184.000000;0.925254
9183.000000;0.924319
9182.000000;0.923489
9181.000000;0.922945
9180.000000;0.922658
9179.000000;0.922529
9178.000000;0.922497
9177.000000;0.922515
9176.000000;0.922558
9175.000000;0.922678
9174.000000;0.922916
9173.000000;0.923130
9172.000000;0.923058
9171.000000;0.922623
9170.000000;0.922019
9169.000000;0.921420
9168.000000;0.920792
9167.000000;0.920077
9166.000000;0.919372
9165.000000;0.918789
9164.000000;0.918237
9163.000000;0.917577
9162.000000;0.916924
9161.000000;0.916589
9160.000000;0.916673
9159.000000;0.916853
9158.000000;0.916668
9157.000000;0.915982
9156.000000;0.915114
9155.000000;0.914529
9154.000000;0.914426
9153.000000;0.914607
9152.000000;0.914695
9151.000000;0.914434
9150.000000;0.913793
9149.000000;0.912867
9148.000000;0.911843
9147.000000;0.911027
9146.000000;0.910689
9145.000000;0.910771
9144.000000;0.910871
9143.000000;0.910640
9142.000000;0.910181
9141.000000;0.909891
9140.000000;0.909940
9139.000000;0.910042
9138.000000;0.909834
9137.000000;0.909355
9136.000000;0.909000
9135.000000;0.908979
9134.000000;0.908995
9133.000000;0.908591
9132.000000;0.907769
9131.000000;0.907076
9130.000000;0.907015
9129.000000;0.907499
9128.000000;0.907955
9127.000000;0.907849
9126.000000;0.907053
9125.000000;0.905851
9124.000000;0.904761
9123.000000;0.904210
9122.000000;0.904200
9121.000000;0.904310
9120.000000;0.904172
9119.000000;0.903895
9118.000000;0.903841
9117.000000;0.904080
9116.000000;0.904310
9115.000000;0.904316
9114.000000;0.904196
9113.000000;0.904103
9112.000000;0.904003
9111.000000;0.903791
9110.000000;0.903416
9109.000000;0.902838
9108.000000;0.902092
9107.000000;0.901478
9106.000000;0.901384
9105.000000;0.901730
9104.000000;0.901879
9103.000000;0.901335
9102.000000;0.900356
9101.000000;0.899615
9100.000000;0.899459
9099.000000;0.899727
9098.000000;0.900091
9097.000000;0.900220
9096.000000;0.899772
9095.000000;0.898660
9094.000000;0.897356
9093.000000;0.896572
9092.000000;0.896516
9091.000000;0.896709
9090.000000;0.896591
9089.000000;0.896093
9088.000000;0.895509
9087.000000;0.895036
9086.000000;0.894593
9085.000000;0.894022
9084.000000;0.893332
9083.000000;0.892783
9082.000000;0.892681
9081.000000;0.893014
9080.000000;0.893338
9079.000000;0.893177
9078.000000;0.892536
9077.000000;0.891851
9076.000000;0.891446
9075.000000;0.891242
9074.000000;0.891020
9073.000000;0.890735
9072.000000;0.890492
9071.000000;0.890393
9070.000000;0.890516
9069.000000;0.890865
9068.000000;0.891232
9067.000000;0.891281
9066.000000;0.890908
9065.000000;0.890388
9064.000000;0.890057
9063.000000;0.889923
9062.000000;0.889711
9061.000000;0.889217
9060.000000;0.888486
9059.000000;0.887755
9058.000000;0.887307
9057.000000;0.887266
9056.000000;0.887405
9055.000000;0.887235
9054.000000;0.886489
9053.000000;0.885478
