Criado como novo conjunto de dados;"1909daniel.spp","-4274804.3 Secs"
cm-1;Abs
10000.000000;1.309430
9999.000000;1.306940
9998.000000;1.304467
9997.000000;1.302004
9996.000000;1.299562
9995.000000;1.297114
9994.000000;1.294766
9993.000000;1.293235
9992.000000;1.292997
9991.000000;1.293331
9990.000000;1.292920
9989.000000;1.291125
9988.000000;1.288617
9987.000000;1.286552
9986.000000;1.285493
9985.000000;1.285277
9984.000000;1.285452
9983.000000;1.285448
9982.000000;1.284692
9981.000000;1.283096
9980.000000;1.281295
9979.000000;1.280043
9978.000000;1.279535
9977.000000;1.279575
9976.000000;1.280006
9975.000000;1.280562
9974.000000;1.280610
9973.000000;1.279673
9972.000000;1.278134
9971.000000;1.276935
9970.000000;1.276607
9969.000000;1.276921
9968.000000;1.277316
9967.000000;1.277260
9966.000000;1.276396
9965.000000;1.274839
9964.000000;1.273311
9963.000000;1.272502
9962.000000;1.272329
9961.000000;1.272164
9960.000000;1.271719
9959.000000;1.271253
9958.000000;1.270986
9957.000000;1.270776
9956.000000;1.270398
9955.000000;1.269703
9954.000000;1.268515
9953.000000;1.266860
9952.000000;1.265301
9951.000000;1.264475
9950.000000;1.264186
9949.000000;1.263503
9948.000000;1.261963
9947.000000;1.260214
9946.000000;1.259207
9945.000000;1.259094
9944.000000;1.259157
9943.000000;1.258586
9942.000000;1.257174
9941.000000;1.255499
9940.000000;1.254558
9939.000000;1.254892
9938.000000;1.255908
9937.000000;1.256372
9936.000000;1.255737
9935.000000;1.254626
9934.000000;1.253812
9933.000000;1.253250
9932.000000;1.252459
9931.000000;1.251444
9930.000000;1.250698
9929.000000;1.250399
9928.000000;1.250089
9927.000000;1.249254
9926.000000;1.247945
9925.000000;1.246687
9924.000000;1.245872
9923.000000;1.245307
9922.000000;1.244415
9921.000000;1.242902
9920.000000;1.241159
9919.000000;1.239891
9918.000000;1.239439
9917.000000;1.239606
9916.000000;1.239986
9915.000000;1.240166
9914.000000;1.239758
9913.000000;1.238678
9912.000000;1.237423
9911.000000;1.236634
9910.000000;1.236294
9909.000000;1.235761
9908.000000;1.234718
9907.000000;1.233599
9906.000000;1.232856
9905.000000;1.232337
9904.000000;1.231720
9903.000000;1.231165
9902.000000;1.231056
9901.000000;1.231342
9900.000000;1.231587
9899.000000;1.231494
9898.000000;1.231004
9897.000000;1.230100
9896.000000;1.228941
9895.000000;1.227992
9894.000000;1.227527
9893.000000;1.227086
9892.000000;1.225880
9891.000000;1.223793
9890.000000;1.221604
9889.000000;1.220146
9888.000000;1.219544
9887.000000;1.219348
9886.000000;1.219086
9885.000000;1.218623
9884.000000;1.218174
9883.000000;1.218042
9882.000000;1.218188
9881.000000;1.218127
9880.000000;1.217468
9879.000000;1.216479
9878.000000;1.215831
9877.000000;1.215782
9876.000000;1.215867
9875.000000;1.215421
9874.000000;1.214153
9873.000000;1.212199
9872.000000;1.209948
9871.000000;1.207963
9870.000000;1.206743
9869.000000;1.206295
9868.000000;1.206063
9867.000000;1.205456
9866.000000;1.204410
9865.000000;1.203342
9864.000000;1.202659
9863.000000;1.202381
9862.000000;1.202148
9861.000000;1.201550
9860.000000;1.200532
9859.000000;1.199534
9858.000000;1.199074
9857.000000;1.199128
9856.000000;1.199019
9855.000000;1.198076
9854.000000;1.196365
9853.000000;1.194642
9852.000000;1.193648
9851.000000;1.193529
9850.000000;1.193852
9849.000000;1.194034
9848.000000;1.193755
9847.000000;1.193076
9846.000000;1.192247
9845.000000;1.191439
9844.000000;1.190667
9843.000000;1.189894
9842.000000;1.189148
9841.000000;1.188556
9840.000000;1.188275
9839.000000;1.188344
9838.000000;1.188535
9837.000000;1.188384
9836.000000;1.187484
9835.000000;1.185836
9834.000000;1.183941
9833.000000;1.182499
9832.000000;1.181946
9831.000000;1.182149
9830.000000;1.182501
9829.000000;1.182376
9828.000000;1.181588
9827.000000;1.180382
9826.000000;1.179032
9825.000000;1.177627
9824.000000;1.176280
9823.000000;1.175305
9822.000000;1.174945
9821.000000;1.175001
9820.000000;1.174948
9819.000000;1.174464
9818.000000;1.173712
9817.000000;1.173145
9816.000000;1.173161
9815.000000;1.173862
9814.000000;1.174872
9813.000000;1.175365
9812.000000;1.174613
9811.000000;1.172672
9810.000000;1.170359
9809.000000;1.168470
9808.000000;1.167163
9807.000000;1.166152
9806.000000;1.165242
9805.000000;1.164424
9804.000000;1.163607
9803.000000;1.162628
9802.000000;1.161583
9801.000000;1.160874
9800.000000;1.160776
9799.000000;1.161081
9798.000000;1.161274
9797.000000;1.160948
9796.000000;1.159989
9795.000000;1.158526
9794.000000;1.156958
9793.000000;1.155919
9792.000000;1.155885
9791.000000;1.156629
9790.000000;1.157235
9789.000000;1.156835
9788.000000;1.155338
9787.000000;1.153372
9786.000000;1.151654
9785.000000;1.150545
9784.000000;1.150052
9783.000000;1.149976
9782.000000;1.150022
9781.000000;1.149950
9780.000000;1.149672
9779.000000;1.149139
9778.000000;1.148242
9777.000000;1.147018
9776.000000;1.145869
9775.000000;1.145230
9774.000000;1.144958
9773.000000;1.144387
9772.000000;1.143175
9771.000000;1.141792
9770.000000;1.140898
9769.000000;1.140473
9768.000000;1.139949
9767.000000;1.139045
9766.000000;1.138065
9765.000000;1.137333
9764.000000;1.136736
9763.000000;1.135985
9762.000000;1.135050
9761.000000;1.134116
9760.000000;1.133314
9759.000000;1.132699
9758.000000;1.132361
9757.000000;1.132325
9756.000000;1.132347
9755.000000;1.132037
9754.000000;1.131279
9753.000000;1.130421
9752.000000;1.129923
9751.000000;1.129824
9750.000000;1.129643
9749.000000;1.128890
9748.000000;1.127624
9747.000000;1.126384
9746.000000;1.125561
9745.000000;1.124997
9744.000000;1.124296
9743.000000;1.123367
9742.000000;1.122480
9741.000000;1.121862
9740.000000;1.121441
9739.000000;1.120987
9738.000000;1.120291
9737.000000;1.119225
9736.000000;1.117893
9735.000000;1.116790
9734.000000;1.116526
9733.000000;1.117155
9732.000000;1.117916
9731.000000;1.117901
9730.000000;1.116945
9729.000000;1.115662
9728.000000;1.114633
9727.000000;1.113866
9726.000000;1.113105
9725.000000;1.112360
9724.000000;1.111837
9723.000000;1.111422
9722.000000;1.110579
9721.000000;1.108987
9720.000000;1.107140
9719.000000;1.105953
9718.000000;1.105773
9717.000000;1.106013
9716.000000;1.105856
9715.000000;1.105191
9714.000000;1.104629
9713.000000;1.104649
9712.000000;1.105008
9711.000000;1.105088
9710.000000;1.104610
9709.000000;1.103790
9708.000000;1.102886
9707.000000;1.101842
9706.000000;1.100468
9705.000000;1.098853
9704.000000;1.097420
9703.000000;1.096540
9702.000000;1.096171
9701.000000;1.095943
9700.000000;1.095562
9699.000000;1.095020
9698.000000;1.094395
9697.000000;1.093627
9696.000000;1.092680
9695.000000;1.091785
9694.000000;1.091207
9693.000000;1.090744
9692.000000;1.089790
9691.000000;1.088150
9690.000000;1.086535
9689.000000;1.085874
9688.000000;1.086185
9687.000000;1.086491
9686.000000;1.085947
9685.000000;1.084763
9684.000000;1.083786
9683.000000;1.083399
9682.000000;1.083178
9681.000000;1.082553
9680.000000;1.081472
9679.000000;1.080267
9678.000000;1.079151
9677.000000;1.078107
9676.000000;1.077155
9675.000000;1.076453
9674.000000;1.076089
9673.000000;1.075937
9672.000000;1.075756
9671.000000;1.075384
9670.000000;1.074787
9669.000000;1.074052
9668.000000;1.073391
9667.000000;1.073033
9666.000000;1.072941
9665.000000;1.072694
9664.000000;1.071817
9663.000000;1.070291
9662.000000;1.068660
9661.000000;1.067612
9660.000000;1.067452
9659.000000;1.067918
9658.000000;1.068426
9657.000000;1.068459
9656.000000;1.067836
9655.000000;1.066668
9654.000000;1.065111
9653.000000;1.063250
9652.000000;1.061335
9651.000000;1.059961
9650.000000;1.059683
9649.000000;1.060333
9648.000000;1.060969
9647.000000;1.060773
9646.000000;1.059918
9645.000000;1.059253
9644.000000;1.059175
9643.000000;1.059164
9642.000000;1.058493
9641.000000;1.057090
9640.000000;1.055484
9639.000000;1.054179
9638.000000;1.053390
9637.000000;1.053172
9636.000000;1.053407
9635.000000;1.053650
9634.000000;1.053351
9633.000000;1.052388
9632.000000;1.051180
9631.000000;1.050176
9630.000000;1.049446
9629.000000;1.048856
9628.000000;1.048372
9627.000000;1.047997
9626.000000;1.047606
9625.000000;1.047052
9624.000000;1.046316
9623.000000;1.045424
9622.000000;1.044407
9621.000000;1.043509
9620.000000;1.043176
9619.000000;1.043500
9618.000000;1.043831
9617.000000;1.043358
9616.000000;1.042031
9615.000000;1.040536
9614.000000;1.039427
9613.000000;1.038707
9612.000000;1.038274
9611.000000;1.038220
9610.000000;1.038496
9609.000000;1.038730
9608.000000;1.038690
9607.000000;1.038544
9606.000000;1.038319
9605.000000;1.037547
9604.000000;1.035945
9603.000000;1.034180
9602.000000;1.033315
9601.000000;1.033507
9600.000000;1.033778
9599.000000;1.033185
9598.000000;1.031722
9597.000000;1.029938
9596.000000;1.028212
9595.000000;1.026714
9594.000000;1.025691
9593.000000;1.025314
9592.000000;1.025348
9591.000000;1.025269
9590.000000;1.024756
9589.000000;1.023934
9588.000000;1.023195
9587.000000;1.022873
9586.000000;1.022977
9585.000000;1.023134
9584.000000;1.022898
9583.000000;1.022237
9582.000000;1.021573
9581.000000;1.021190
9580.000000;1.020782
9579.000000;1.019803
9578.000000;1.018171
9577.000000;1.016388
9576.000000;1.015023
9575.000000;1.014300
9574.000000;1.014151
9573.000000;1.014375
9572.000000;1.014685
9571.000000;1.014797
9570.000000;1.014608
9569.000000;1.014169
9568.000000;1.013469
9567.000000;1.012443
9566.000000;1.011257
9565.000000;1.010338
9564.000000;1.009932
9563.000000;1.009758
9562.000000;1.009330
9561.000000;1.008513
9560.000000;1.007560
9559.000000;1.006644
9558.000000;1.005725
9557.000000;1.004928
9556.000000;1.004678
9555.000000;1.005130
9554.000000;1.005629
9553.000000;1.005203
9552.000000;1.003674
9551.000000;1.001945
9550.000000;1.001000
9549.000000;1.000860
9548.000000;1.000754
9547.000000;1.000099
9546.000000;0.998980
9545.000000;0.997724
9544.000000;0.996439
9543.000000;0.995127
9542.000000;0.993953
9541.000000;0.993164
9540.000000;0.992809
9539.000000;0.992716
9538.000000;0.992684
9537.000000;0.992555
9536.000000;0.992185
9535.000000;0.991495
9534.000000;0.990570
9533.000000;0.989644
9532.000000;0.988984
9531.000000;0.988771
9530.000000;0.988969
9529.000000;0.989228
9528.000000;0.989024
9527.000000;0.988101
9526.000000;0.986765
9525.000000;0.985633
9524.000000;0.985104
9523.000000;0.985134
9522.000000;0.985365
9521.000000;0.985299
9520.000000;0.984452
9519.000000;0.982734
9518.000000;0.980782
9517.000000;0.979626
9516.000000;0.979802
9515.000000;0.980847
9514.000000;0.981796
9513.000000;0.982075
9512.000000;0.981753
9511.000000;0.981045
9510.000000;0.979929
9509.000000;0.978363
9508.000000;0.976651
9507.000000;0.975346
9506.000000;0.974755
9505.000000;0.974645
9504.000000;0.974465
9503.000000;0.973837
9502.000000;0.972836
9501.000000;0.971851
9500.000000;0.971247
9499.000000;0.971142
9498.000000;0.971367
9497.000000;0.971550
9496.000000;0.971314
9495.000000;0.970547
9494.000000;0.969556
9493.000000;0.968824
9492.000000;0.968517
9491.000000;0.968328
9490.000000;0.967857
9489.000000;0.967050
9488.000000;0.966161
9487.000000;0.965388
9486.000000;0.964765
9485.000000;0.964357
9484.000000;0.964294
9483.000000;0.964441
9482.000000;0.964255
9481.000000;0.963235
9480.000000;0.961517
9479.000000;0.959841
9478.000000;0.958869
9477.000000;0.958646
9476.000000;0.958730
9475.000000;0.958703
9474.000000;0.958448
9473.000000;0.958038
9472.000000;0.957526
9471.000000;0.956881
9470.000000;0.956045
9469.000000;0.955049
9468.000000;0.954095
9467.000000;0.953499
9466.000000;0.953420
9465.000000;0.953628
9464.000000;0.953638
9463.000000;0.953149
9462.000000;0.952308
9461.000000;0.951507
9460.000000;0.950980
9459.000000;0.950649
9458.000000;0.950263
9457.000000;0.949585
9456.000000;0.948530
9455.000000;0.947287
9454.000000;0.946304
9453.000000;0.945984
9452.000000;0.946317
9451.000000;0.946885
9450.000000;0.947254
9449.000000;0.947264
9448.000000;0.946968
9447.000000;0.946445
9446.000000;0.945758
9445.000000;0.944935
9444.000000;0.943894
9443.000000;0.942539
9442.000000;0.941073
9441.000000;0.940051
9440.000000;0.939885
9439.000000;0.940388
9438.000000;0.941017
9437.000000;0.941482
9436.000000;0.941821
9435.000000;0.941946
9434.000000;0.941507
9433.000000;0.940369
9432.000000;0.938885
9431.000000;0.937477
9430.000000;0.936199
9429.000000;0.934950
9428.000000;0.933865
9427.000000;0.933172
9426.000000;0.932772
9425.000000;0.932303
9424.000000;0.931576
9423.000000;0.930684
9422.000000;0.929725
9421.000000;0.928776
9420.000000;0.928097
9419.000000;0.927985
9418.000000;0.928276
9417.000000;0.928393
9416.000000;0.928080
9415.000000;0.927759
9414.000000;0.927879
9413.000000;0.928179
9412.000000;0.927978
9411.000000;0.927089
9410.000000;0.926025
9409.000000;0.925325
9408.000000;0.925060
9407.000000;0.925048
9406.000000;0.925170
9405.000000;0.925260
9404.000000;0.924998
9403.000000;0.924201
9402.000000;0.923080
9401.000000;0.921948
9400.000000;0.920795
9399.000000;0.919436
9398.000000;0.918052
9397.000000;0.917224
9396.000000;0.917254
9395.000000;0.917672
9394.000000;0.917659
9393.000000;0.916899
9392.000000;0.915780
9391.000000;0.914792
9390.000000;0.914031
9389.000000;0.913383
9388.000000;0.912937
9387.000000;0.912935
9386.000000;0.913403
9385.000000;0.914032
9384.000000;0.914437
9383.000000;0.914340
9382.000000;0.913595
9381.000000;0.912310
9380.000000;0.911011
9379.000000;0.910353
9378.000000;0.910448
9377.000000;0.910673
9376.000000;0.910346
9375.000000;0.909480
9374.000000;0.908639
9373.000000;0.908184
9372.000000;0.907942
9371.000000;0.907577
9370.000000;0.906994
9369.000000;0.906312
9368.000000;0.905646
9367.000000;0.905029
9366.000000;0.904389
9365.000000;0.903560
9364.000000;0.902467
9363.000000;0.901348
9362.000000;0.900632
9361.000000;0.900490
9360.000000;0.900634
9359.000000;0.900647
9358.000000;0.900427
9357.000000;0.900187
9356.000000;0.900128
9355.000000;0.900191
9354.000000;0.900100
9353.000000;0.899600
9352.000000;0.898617
9351.000000;0.897231
9350.000000;0.895561
9349.000000;0.893802
9348.000000;0.892376
9347.000000;0.891810
9346.000000;0.892223
9345.000000;0.892978
9344.000000;0.893146
9343.000000;0.892429
9342.000000;0.891407
9341.000000;0.890817
9340.000000;0.890813
9339.000000;0.891032
9338.000000;0.891100
9337.000000;0.890861
9336.000000;0.890314
9335.000000;0.889619
9334.000000;0.889059
9333.000000;0.888769
9332.000000;0.888563
9331.000000;0.888211
9330.000000;0.887742
9329.000000;0.887309
9328.000000;0.886880
9327.000000;0.886343
9326.000000;0.885777
9325.000000;0.885333
9324.000000;0.884913
9323.000000;0.884292
9322.000000;0.883572
9321.000000;0.883170
9320.000000;0.883230
9319.000000;0.883337
9318.000000;0.883029
9317.000000;0.882382
9316.000000;0.881874
9315.000000;0.881740
9314.000000;0.881676
9313.000000;0.881223
9312.000000;0.880331
9311.000000;0.879429
9310.000000;0.878911
9309.000000;0.878619
9308.000000;0.878004
9307.000000;0.876870
9306.000000;0.875713
9305.000000;0.875146
9304.000000;0.875166
9303.000000;0.875245
9302.000000;0.875026
9301.000000;0.874578
9300.000000;0.874000
9299.000000;0.873202
9298.000000;0.872217
9297.000000;0.871361
9296.000000;0.870872
9295.000000;0.870645
9294.000000;0.870527
9293.000000;0.870585
9292.000000;0.870834
9291.000000;0.870941
9290.000000;0.870527
9289.000000;0.869661
9288.000000;0.868758
9287.000000;0.868128
9286.000000;0.867862
9285.000000;0.868041
9284.000000;0.868649
9283.000000;0.869292
9282.000000;0.869381
9281.000000;0.868726
9280.000000;0.867753
9279.000000;0.867024
9278.000000;0.866692
9277.000000;0.866489
9276.000000;0.866071
9275.000000;0.865312
9274.000000;0.864389
9273.000000;0.863679
9272.000000;0.863428
9271.000000;0.863466
9270.000000;0.863394
9269.000000;0.863070
9268.000000;0.862740
9267.000000;0.862596
9266.000000;0.862467
9265.000000;0.862078
9264.000000;0.861454
9263.000000;0.860847
9262.000000;0.860388
9261.000000;0.860059
9260.000000;0.859888
9259.000000;0.859920
9258.000000;0.859943
9257.000000;0.859524
9256.000000;0.858482
9255.000000;0.857188
9254.000000;0.856231
9253.000000;0.855854
9252.000000;0.855814
9251.000000;0.855781
9250.000000;0.855706
9249.000000;0.855744
9248.000000;0.855888
9247.000000;0.855809
9246.000000;0.855137
9245.000000;0.853877
9244.000000;0.852476
9243.000000;0.851449
9242.000000;0.850949
9241.000000;0.850742
9240.000000;0.850562
9239.000000;0.850417
9238.000000;0.850491
9237.000000;0.850792
9236.000000;0.850990
9235.000000;0.850679
9234.000000;0.849800
9233.000000;0.848737
9232.000000;0.847940
9231.000000;0.847475
9230.000000;0.847041
9229.000000;0.846432
9228.000000;0.845841
9227.000000;0.845631
9226.000000;0.845891
9225.000000;0.846363
9224.000000;0.846748
9223.000000;0.846922
9222.000000;0.846863
9221.000000;0.846545
9220.000000;0.846031
9219.000000;0.845547
9218.000000;0.845320
9217.000000;0.845345
9216.000000;0.845399
9215.000000;0.845253
9214.000000;0.844819
9213.000000;0.844138
9212.000000;0.843346
9211.000000;0.842651
9210.000000;0.842262
9209.000000;0.842289
9208.000000;0.842675
9207.000000;0.843169
9206.000000;0.843352
9205.000000;0.842823
9204.000000;0.841538
9203.000000;0.839935
9202.000000;0.838593
9201.000000;0.837767
9200.000000;0.837362
9199.000000;0.837293
9198.000000;0.837601
9197.000000;0.838136
9196.000000;0.838407
9195.000000;0.838020
9194.000000;0.837166
9193.000000;0.836407
9192.000000;0.835986
9191.000000;0.835587
9190.000000;0.834845
9189.000000;0.833855
9188.000000;0.833029
9187.000000;0.832588
9186.000000;0.832423
9185.000000;0.832362
9184.000000;0.832341
9183.000000;0.832269
9182.000000;0.831944
9181.000000;0.831305
9180.000000;0.830657
9179.000000;0.830426
9178.000000;0.830650
9177.000000;0.830882
9176.000000;0.830675
9175.000000;0.830053
9174.000000;0.829364
9173.000000;0.828827
9172.000000;0.828408
9171.000000;0.828079
9170.000000;0.827913
9169.000000;0.827895
9168.000000;0.827893
9167.000000;0.827932
9166.000000;0.828236
9165.000000;0.828790
9164.000000;0.829066
9163.000000;0.828516
9162.000000;0.827254
9161.000000;0.825974
9160.000000;0.825191
9159.000000;0.824841
9158.000000;0.824666
9157.000000;0.824629
9156.000000;0.824747
9155.000000;0.824738
9154.000000;0.824178
9153.000000;0.823026
9152.000000;0.821755
9151.000000;0.820883
9150.000000;0.820540
9149.000000;0.820505
9148.000000;0.820540
9147.000000;0.820548
9146.000000;0.820457
9145.000000;0.820098
9144.000000;0.819327
9143.000000;0.818264
9142.000000;0.817329
9141.000000;0.816939
9140.000000;0.817144
9139.000000;0.817626
9138.000000;0.818094
9137.000000;0.818595
9136.000000;0.819325
9135.000000;0.820126
9134.000000;0.820389
9133.000000;0.819638
9132.000000;0.818144
9131.000000;0.816776
9130.000000;0.816194
9129.000000;0.816301
9128.000000;0.816511
9127.000000;0.816393
9126.000000;0.815934
9125.000000;0.815350
9124.000000;0.814864
9123.000000;0.814627
9122.000000;0.814608
9121.000000;0.814518
9120.000000;0.814022
9119.000000;0.813111
9118.000000;0.812131
9117.000000;0.811419
9116.000000;0.811050
9115.000000;0.810982
9114.000000;0.811190
9113.000000;0.811559
9112.000000;0.811843
9111.000000;0.811924
9110.000000;0.811946
9109.000000;0.812039
9108.000000;0.812091
9107.000000;0.811973
9106.000000;0.811789
9105.000000;0.811622
9104.000000;0.811211
9103.000000;0.810254
9102.000000;0.809002
9101.000000;0.808157
9100.000000;0.808102
9099.000000;0.808542
9098.000000;0.808960
9097.000000;0.809141
9096.000000;0.809101
9095.000000;0.808811
9094.000000;0.808256
9093.000000;0.807577
9092.000000;0.806921
9091.000000;0.806250
9090.000000;0.805472
9089.000000;0.804672
9088.000000;0.804047
9087.000000;0.803682
9086.000000;0.803525
9085.000000;0.803518
9084.000000;0.803611
9083.000000;0.803717
9082.000000;0.803775
9081.000000;0.803793
9080.000000;0.803748
9079.000000;0.803513
9078.000000;0.803027
9077.000000;0.802450
9076.000000;0.802013
9075.000000;0.801783
9074.000000;0.801682
9073.000000;0.801689
9072.000000;0.801876
9071.000000;0.802254
9070.000000;0.802729
9069.000000;0.803198
9068.000000;0.803565
9067.000000;0.803649
9066.000000;0.803207
9065.000000;0.802132
9064.000000;0.800593
9063.000000;0.798972
9062.000000;0.797674
9061.000000;0.796945
9060.000000;0.796763
9059.000000;0.796880
9058.000000;0.797064
9057.000000;0.797296
9056.000000;0.797687
9055.000000;0.798190
9054.000000;0.798516
9053.000000;0.798382
