Criado como novo conjunto de dados;"1909daniel.spp","-4257163.3 Secs"
cm-1;Abs
10000.000000;1.851915
9999.000000;1.850726
9998.000000;1.851164
9997.000000;1.852151
9996.000000;1.850891
9995.000000;1.846615
9994.000000;1.841444
9993.000000;1.838084
9992.000000;1.836916
9991.000000;1.836621
9990.000000;1.836008
9989.000000;1.834766
9988.000000;1.833216
9987.000000;1.832340
9986.000000;1.833265
9985.000000;1.835801
9984.000000;1.838012
9983.000000;1.838261
9982.000000;1.837179
9981.000000;1.836566
9980.000000;1.837130
9979.000000;1.838434
9978.000000;1.840047
9977.000000;1.841253
9976.000000;1.840470
9975.000000;1.836904
9974.000000;1.832320
9973.000000;1.829368
9972.000000;1.828393
9971.000000;1.827216
9970.000000;1.824114
9969.000000;1.819815
9968.000000;1.816265
9967.000000;1.814720
9966.000000;1.815335
9965.000000;1.817473
9964.000000;1.819888
9963.000000;1.821377
9962.000000;1.821825
9961.000000;1.822227
9960.000000;1.823321
9959.000000;1.824544
9958.000000;1.824599
9957.000000;1.822784
9956.000000;1.819737
9955.000000;1.817273
9954.000000;1.817074
9953.000000;1.818907
9952.000000;1.820595
9951.000000;1.820326
9950.000000;1.818399
9949.000000;1.816055
9948.000000;1.813493
9947.000000;1.810244
9946.000000;1.806748
9945.000000;1.804039
9944.000000;1.802126
9943.000000;1.800148
9942.000000;1.798059
9941.000000;1.796745
9940.000000;1.796383
9939.000000;1.796033
9938.000000;1.795238
9937.000000;1.794919
9936.000000;1.796109
9935.000000;1.798563
9934.000000;1.800937
9933.000000;1.801679
9932.000000;1.799759
9931.000000;1.795636
9930.000000;1.791635
9929.000000;1.790095
9928.000000;1.790768
9927.000000;1.791070
9926.000000;1.789513
9925.000000;1.787607
9924.000000;1.787313
9923.000000;1.788149
9922.000000;1.788262
9921.000000;1.787496
9920.000000;1.787776
9919.000000;1.790489
9918.000000;1.794552
9917.000000;1.797196
9916.000000;1.796230
9915.000000;1.791664
9914.000000;1.785649
9913.000000;1.780898
9912.000000;1.778854
9911.000000;1.779194
9910.000000;1.780887
9909.000000;1.783250
9908.000000;1.785714
9907.000000;1.787231
9906.000000;1.786807
9905.000000;1.784584
9904.000000;1.781714
9903.000000;1.779149
9902.000000;1.777075
9901.000000;1.775394
9900.000000;1.774033
9899.000000;1.772696
9898.000000;1.771014
9897.000000;1.769248
9896.000000;1.768336
9895.000000;1.768842
9894.000000;1.770113
9893.000000;1.770808
9892.000000;1.770153
9891.000000;1.768479
9890.000000;1.766844
9889.000000;1.766454
9888.000000;1.768052
9887.000000;1.771110
9886.000000;1.773589
9885.000000;1.773219
9884.000000;1.769538
9883.000000;1.764381
9882.000000;1.760121
9881.000000;1.757798
9880.000000;1.757003
9879.000000;1.756878
9878.000000;1.756818
9877.000000;1.756576
9876.000000;1.756304
9875.000000;1.756460
9874.000000;1.757252
9873.000000;1.758188
9872.000000;1.758523
9871.000000;1.758088
9870.000000;1.757238
9869.000000;1.756208
9868.000000;1.755042
9867.000000;1.754057
9866.000000;1.753710
9865.000000;1.753927
9864.000000;1.754154
9863.000000;1.754145
9862.000000;1.754040
9861.000000;1.753457
9860.000000;1.751282
9859.000000;1.747046
9858.000000;1.742077
9857.000000;1.738624
9856.000000;1.737905
9855.000000;1.739180
9854.000000;1.740546
9853.000000;1.740601
9852.000000;1.739614
9851.000000;1.739066
9850.000000;1.739737
9849.000000;1.740377
9848.000000;1.738978
9847.000000;1.735582
9846.000000;1.732836
9845.000000;1.733188
9844.000000;1.736240
9843.000000;1.739321
9842.000000;1.740112
9841.000000;1.738197
9840.000000;1.734520
9839.000000;1.730445
9838.000000;1.727318
9837.000000;1.725937
9836.000000;1.726084
9835.000000;1.726875
9834.000000;1.727546
9833.000000;1.727734
9832.000000;1.727233
9831.000000;1.725995
9830.000000;1.724502
9829.000000;1.723610
9828.000000;1.723815
9827.000000;1.724787
9826.000000;1.725589
9825.000000;1.725264
9824.000000;1.723458
9823.000000;1.720760
9822.000000;1.718254
9821.000000;1.716489
9820.000000;1.715174
9819.000000;1.713976
9818.000000;1.713152
9817.000000;1.713029
9816.000000;1.713370
9815.000000;1.713850
9814.000000;1.714835
9813.000000;1.716947
9812.000000;1.719958
9811.000000;1.722659
9810.000000;1.723799
9809.000000;1.722898
9808.000000;1.720309
9807.000000;1.716938
9806.000000;1.713790
9805.000000;1.711403
9804.000000;1.709770
9803.000000;1.709002
9802.000000;1.709598
9801.000000;1.711567
9800.000000;1.713703
9799.000000;1.714485
9798.000000;1.713581
9797.000000;1.711881
9796.000000;1.710185
9795.000000;1.708452
9794.000000;1.706253
9793.000000;1.703439
9792.000000;1.700412
9791.000000;1.698099
9790.000000;1.697364
9789.000000;1.697915
9788.000000;1.698133
9787.000000;1.696721
9786.000000;1.694264
9785.000000;1.692453
9784.000000;1.692071
9783.000000;1.692442
9782.000000;1.692593
9781.000000;1.692179
9780.000000;1.691359
9779.000000;1.690630
9778.000000;1.690766
9777.000000;1.691993
9776.000000;1.693167
9775.000000;1.692767
9774.000000;1.690896
9773.000000;1.689215
9772.000000;1.688752
9771.000000;1.688897
9770.000000;1.688783
9769.000000;1.688453
9768.000000;1.687988
9767.000000;1.686591
9766.000000;1.683622
9765.000000;1.679889
9764.000000;1.676860
9763.000000;1.675010
9762.000000;1.673806
9761.000000;1.673115
9760.000000;1.673742
9759.000000;1.676275
9758.000000;1.679674
9757.000000;1.681400
9756.000000;1.679564
9755.000000;1.675140
9754.000000;1.671435
9753.000000;1.670883
9752.000000;1.672659
9751.000000;1.673820
9750.000000;1.672751
9749.000000;1.670716
9748.000000;1.669780
9747.000000;1.670336
9746.000000;1.671240
9745.000000;1.671474
9744.000000;1.670920
9743.000000;1.670049
9742.000000;1.669517
9741.000000;1.669570
9740.000000;1.669341
9739.000000;1.667389
9738.000000;1.663607
9737.000000;1.660018
9736.000000;1.658776
9735.000000;1.659774
9734.000000;1.660993
9733.000000;1.661065
9732.000000;1.660642
9731.000000;1.660998
9730.000000;1.662128
9729.000000;1.662811
9728.000000;1.662107
9727.000000;1.660271
9726.000000;1.658334
9725.000000;1.657227
9724.000000;1.657246
9723.000000;1.657969
9722.000000;1.658596
9721.000000;1.658576
9720.000000;1.658051
9719.000000;1.657651
9718.000000;1.657648
9717.000000;1.657394
9716.000000;1.656025
9715.000000;1.653898
9714.000000;1.652705
9713.000000;1.653508
9712.000000;1.654929
9711.000000;1.654147
9710.000000;1.649899
9709.000000;1.643834
9708.000000;1.638702
9707.000000;1.636153
9706.000000;1.636389
9705.000000;1.638679
9704.000000;1.641402
9703.000000;1.642447
9702.000000;1.640876
9701.000000;1.638105
9700.000000;1.636480
9699.000000;1.636750
9698.000000;1.637553
9697.000000;1.637275
9696.000000;1.635749
9695.000000;1.634056
9694.000000;1.633334
9693.000000;1.633974
9692.000000;1.635491
9691.000000;1.636726
9690.000000;1.636395
9689.000000;1.633990
9688.000000;1.630289
9687.000000;1.626850
9686.000000;1.625003
9685.000000;1.625150
9684.000000;1.626692
9683.000000;1.628475
9682.000000;1.629532
9681.000000;1.629569
9680.000000;1.628849
9679.000000;1.627752
9678.000000;1.626589
9677.000000;1.625666
9676.000000;1.625164
9675.000000;1.624924
9674.000000;1.624591
9673.000000;1.624087
9672.000000;1.623714
9671.000000;1.623655
9670.000000;1.623485
9669.000000;1.622370
9668.000000;1.619886
9667.000000;1.616687
9666.000000;1.614191
9665.000000;1.613418
9664.000000;1.614101
9663.000000;1.614964
9662.000000;1.614919
9661.000000;1.613832
9660.000000;1.612151
9659.000000;1.610310
9658.000000;1.608792
9657.000000;1.608114
9656.000000;1.608268
9655.000000;1.608400
9654.000000;1.607465
9653.000000;1.605387
9652.000000;1.603367
9651.000000;1.602812
9650.000000;1.604009
9649.000000;1.605830
9648.000000;1.606689
9647.000000;1.605968
9646.000000;1.604631
9645.000000;1.604345
9644.000000;1.605866
9643.000000;1.608232
9642.000000;1.609564
9641.000000;1.608685
9640.000000;1.605928
9639.000000;1.602516
9638.000000;1.599472
9637.000000;1.597097
9636.000000;1.595182
9635.000000;1.593541
9634.000000;1.592401
9633.000000;1.592263
9632.000000;1.593240
9631.000000;1.594551
9630.000000;1.594960
9629.000000;1.593855
9628.000000;1.591805
9627.000000;1.589987
9626.000000;1.589213
9625.000000;1.589508
9624.000000;1.590269
9623.000000;1.590511
9622.000000;1.589209
9621.000000;1.586024
9620.000000;1.581929
9619.000000;1.578798
9618.000000;1.578016
9617.000000;1.579391
9616.000000;1.581461
9615.000000;1.582777
9614.000000;1.582758
9613.000000;1.581520
9612.000000;1.579527
9611.000000;1.577636
9610.000000;1.576920
9609.000000;1.577829
9608.000000;1.579501
9607.000000;1.580285
9606.000000;1.579179
9605.000000;1.576683
9604.000000;1.574280
9603.000000;1.573318
9602.000000;1.574227
9601.000000;1.576416
9600.000000;1.578768
9599.000000;1.580325
9598.000000;1.580559
9597.000000;1.579192
9596.000000;1.576265
9595.000000;1.572589
9594.000000;1.569600
9593.000000;1.568237
9592.000000;1.568151
9591.000000;1.568418
9590.000000;1.568760
9589.000000;1.569321
9588.000000;1.569417
9587.000000;1.567642
9586.000000;1.563783
9585.000000;1.559762
9584.000000;1.557903
9583.000000;1.558725
9582.000000;1.560782
9581.000000;1.562217
9580.000000;1.562066
9579.000000;1.560432
9578.000000;1.558163
9577.000000;1.556420
9576.000000;1.555912
9575.000000;1.556309
9574.000000;1.556652
9573.000000;1.556424
9572.000000;1.555902
9571.000000;1.555525
9570.000000;1.555335
9569.000000;1.555137
9568.000000;1.554907
9567.000000;1.554775
9566.000000;1.554713
9565.000000;1.554462
9564.000000;1.553789
9563.000000;1.552746
9562.000000;1.551559
9561.000000;1.550247
9560.000000;1.548498
9559.000000;1.546142
9558.000000;1.543669
9557.000000;1.541936
9556.000000;1.541319
9555.000000;1.541526
9554.000000;1.542306
9553.000000;1.543895
9552.000000;1.546365
9551.000000;1.548895
9550.000000;1.550204
9549.000000;1.549618
9548.000000;1.547368
9547.000000;1.544161
9546.000000;1.540972
9545.000000;1.538987
9544.000000;1.538934
9543.000000;1.540328
9542.000000;1.541859
9541.000000;1.542696
9540.000000;1.543029
9539.000000;1.543271
9538.000000;1.543241
9537.000000;1.542433
9536.000000;1.540767
9535.000000;1.538862
9534.000000;1.537595
9533.000000;1.537300
9532.000000;1.537241
9531.000000;1.536021
9530.000000;1.532912
9529.000000;1.528844
9528.000000;1.525684
9527.000000;1.524493
9526.000000;1.524884
9525.000000;1.525851
9524.000000;1.526600
9523.000000;1.526545
9522.000000;1.525305
9521.000000;1.523190
9520.000000;1.521210
9519.000000;1.520139
9518.000000;1.519923
9517.000000;1.520310
9516.000000;1.521454
9515.000000;1.523334
9514.000000;1.524982
9513.000000;1.525224
9512.000000;1.524277
9511.000000;1.523747
9510.000000;1.524629
9509.000000;1.525843
9508.000000;1.525298
9507.000000;1.522358
9506.000000;1.518660
9505.000000;1.516336
9504.000000;1.516019
9503.000000;1.516858
9502.000000;1.517943
9501.000000;1.518996
9500.000000;1.519661
9499.000000;1.519124
9498.000000;1.517176
9497.000000;1.515064
9496.000000;1.514288
9495.000000;1.514715
9494.000000;1.514712
9493.000000;1.513233
9492.000000;1.510969
9491.000000;1.509159
9490.000000;1.508193
9489.000000;1.507809
9488.000000;1.507867
9487.000000;1.508267
9486.000000;1.508640
9485.000000;1.508820
9484.000000;1.509152
9483.000000;1.509757
9482.000000;1.509898
9481.000000;1.508750
9480.000000;1.506502
9479.000000;1.504007
9478.000000;1.501632
9477.000000;1.499189
9476.000000;1.496787
9475.000000;1.494968
9474.000000;1.494045
9473.000000;1.493982
9472.000000;1.494919
9471.000000;1.497015
9470.000000;1.499511
9469.000000;1.500675
9468.000000;1.499304
9467.000000;1.496039
9466.000000;1.492790
9465.000000;1.491054
9464.000000;1.490993
9463.000000;1.491760
9462.000000;1.492346
9461.000000;1.492229
9460.000000;1.491508
9459.000000;1.490605
9458.000000;1.489953
9457.000000;1.489899
9456.000000;1.490517
9455.000000;1.491286
9454.000000;1.491326
9453.000000;1.490375
9452.000000;1.489256
9451.000000;1.488846
9450.000000;1.488773
9449.000000;1.487867
9448.000000;1.485887
9447.000000;1.484036
9446.000000;1.483561
9445.000000;1.484508
9444.000000;1.486035
9443.000000;1.487345
9442.000000;1.488016
9441.000000;1.487974
9440.000000;1.487556
9439.000000;1.487226
9438.000000;1.486891
9437.000000;1.485833
9436.000000;1.483690
9435.000000;1.481209
9434.000000;1.479563
9433.000000;1.479158
9432.000000;1.479394
9431.000000;1.479373
9430.000000;1.478537
9429.000000;1.476791
9428.000000;1.474447
9427.000000;1.472130
9426.000000;1.470517
9425.000000;1.470055
9424.000000;1.470776
9423.000000;1.472087
9422.000000;1.472898
9421.000000;1.472471
9420.000000;1.471232
9419.000000;1.470268
9418.000000;1.469934
9417.000000;1.469588
9416.000000;1.468831
9415.000000;1.468195
9414.000000;1.468143
9413.000000;1.468118
9412.000000;1.467313
9411.000000;1.465929
9410.000000;1.464828
9409.000000;1.464244
9408.000000;1.463805
9407.000000;1.463646
9406.000000;1.464420
9405.000000;1.465998
9404.000000;1.467044
9403.000000;1.466364
9402.000000;1.464213
9401.000000;1.461916
9400.000000;1.460629
9399.000000;1.460751
9398.000000;1.462035
9397.000000;1.463750
9396.000000;1.464858
9395.000000;1.464519
9394.000000;1.462586
9393.000000;1.459635
9392.000000;1.456627
9391.000000;1.454454
9390.000000;1.453460
9389.000000;1.453227
9388.000000;1.452976
9387.000000;1.452298
9386.000000;1.451433
9385.000000;1.450882
9384.000000;1.450954
9383.000000;1.451662
9382.000000;1.452733
9381.000000;1.453607
9380.000000;1.453701
9379.000000;1.452872
9378.000000;1.451557
9377.000000;1.450422
9376.000000;1.449948
9375.000000;1.450233
9374.000000;1.450871
9373.000000;1.451053
9372.000000;1.450253
9371.000000;1.448950
9370.000000;1.448220
9369.000000;1.448371
9368.000000;1.448387
9367.000000;1.447200
9366.000000;1.445284
9365.000000;1.444301
9364.000000;1.445026
9363.000000;1.446190
9362.000000;1.445768
9361.000000;1.443207
9360.000000;1.439873
9359.000000;1.437432
9358.000000;1.436508
9357.000000;1.437047
9356.000000;1.439082
9355.000000;1.442334
9354.000000;1.445365
9353.000000;1.446275
9352.000000;1.444672
9351.000000;1.442196
9350.000000;1.440608
9349.000000;1.440063
9348.000000;1.439698
9347.000000;1.439116
9346.000000;1.438415
9345.000000;1.437364
9344.000000;1.435716
9343.000000;1.434137
9342.000000;1.433702
9341.000000;1.434352
9340.000000;1.434851
9339.000000;1.434519
9338.000000;1.434028
9337.000000;1.433987
9336.000000;1.433730
9335.000000;1.432361
9334.000000;1.430290
9333.000000;1.428819
9332.000000;1.428609
9331.000000;1.429277
9330.000000;1.430200
9329.000000;1.430975
9328.000000;1.431282
9327.000000;1.431044
9326.000000;1.430635
9325.000000;1.430266
9324.000000;1.429282
9323.000000;1.426849
9322.000000;1.423457
9321.000000;1.420914
9320.000000;1.420540
9319.000000;1.421866
9318.000000;1.423385
9317.000000;1.424173
9316.000000;1.424403
9315.000000;1.424552
9314.000000;1.424590
9313.000000;1.424025
9312.000000;1.422575
9311.000000;1.420654
9310.000000;1.419107
9309.000000;1.418363
9308.000000;1.418002
9307.000000;1.417347
9306.000000;1.416377
9305.000000;1.415738
9304.000000;1.415868
9303.000000;1.416501
9302.000000;1.417116
9301.000000;1.417536
9300.000000;1.417840
9299.000000;1.417904
9298.000000;1.417268
9297.000000;1.415404
9296.000000;1.412186
9295.000000;1.408314
9294.000000;1.405214
9293.000000;1.404150
9292.000000;1.405191
9291.000000;1.407166
9290.000000;1.408741
9289.000000;1.409309
9288.000000;1.408913
9287.000000;1.407913
9286.000000;1.407037
9285.000000;1.407135
9284.000000;1.408267
9283.000000;1.409295
9282.000000;1.408923
9281.000000;1.407063
9280.000000;1.404756
9279.000000;1.403042
9278.000000;1.402333
9277.000000;1.402612
9276.000000;1.403544
9275.000000;1.404336
9274.000000;1.404157
9273.000000;1.403001
9272.000000;1.401791
9271.000000;1.401451
9270.000000;1.402212
9269.000000;1.403834
9268.000000;1.405888
9267.000000;1.407538
9266.000000;1.407692
9265.000000;1.405992
9264.000000;1.403431
9263.000000;1.401407
9262.000000;1.400318
9261.000000;1.399573
9260.000000;1.398802
9259.000000;1.398436
9258.000000;1.398937
9257.000000;1.399945
9256.000000;1.400527
9255.000000;1.400121
9254.000000;1.399069
9253.000000;1.398291
9252.000000;1.398455
9251.000000;1.399289
9250.000000;1.399571
9249.000000;1.398079
9248.000000;1.394835
9247.000000;1.391326
9246.000000;1.389316
9245.000000;1.389413
9244.000000;1.390684
9243.000000;1.391595
9242.000000;1.391381
9241.000000;1.390540
9240.000000;1.390057
9239.000000;1.390356
9238.000000;1.391077
9237.000000;1.391666
9236.000000;1.391860
9235.000000;1.391553
9234.000000;1.390609
9233.000000;1.389128
9232.000000;1.387631
9231.000000;1.386622
9230.000000;1.386119
9229.000000;1.385873
9228.000000;1.385858
9227.000000;1.386175
9226.000000;1.386592
9225.000000;1.386643
9224.000000;1.386181
9223.000000;1.385450
9222.000000;1.384628
9221.000000;1.383754
9220.000000;1.383163
9219.000000;1.383378
9218.000000;1.384266
9217.000000;1.384787
9216.000000;1.384081
9215.000000;1.382479
9214.000000;1.380967
9213.000000;1.379950
9212.000000;1.379174
9211.000000;1.378667
9210.000000;1.378999
9209.000000;1.380367
9208.000000;1.381963
9207.000000;1.382639
9206.000000;1.381989
9205.000000;1.380495
9204.000000;1.378848
9203.000000;1.377482
9202.000000;1.376643
9201.000000;1.376459
9200.000000;1.376715
9199.000000;1.376814
9198.000000;1.376347
9197.000000;1.375703
9196.000000;1.375720
9195.000000;1.376518
9194.000000;1.376962
9193.000000;1.375787
9192.000000;1.373312
9191.000000;1.371450
9190.000000;1.371707
9189.000000;1.373551
9188.000000;1.375000
9187.000000;1.374590
9186.000000;1.372439
9185.000000;1.369685
9184.000000;1.367489
9183.000000;1.366546
9182.000000;1.366926
9181.000000;1.368137
9180.000000;1.369558
9179.000000;1.370848
9178.000000;1.371779
9177.000000;1.371894
9176.000000;1.370908
9175.000000;1.369451
9174.000000;1.368657
9173.000000;1.368738
9172.000000;1.368657
9171.000000;1.367719
9170.000000;1.366865
9169.000000;1.367513
9168.000000;1.369434
9167.000000;1.370718
9166.000000;1.370029
9165.000000;1.368197
9164.000000;1.367022
9163.000000;1.367006
9162.000000;1.366914
9161.000000;1.365481
9160.000000;1.363059
9159.000000;1.361334
9158.000000;1.361607
9157.000000;1.363561
9156.000000;1.365642
9155.000000;1.366526
9154.000000;1.366097
9153.000000;1.365014
9152.000000;1.363761
9151.000000;1.362415
9150.000000;1.361098
9149.000000;1.360160
9148.000000;1.359818
9147.000000;1.359907
9146.000000;1.360106
9145.000000;1.360236
9144.000000;1.360291
9143.000000;1.360331
9142.000000;1.360371
9141.000000;1.360206
9140.000000;1.359484
9139.000000;1.358248
9138.000000;1.357325
9137.000000;1.357690
9136.000000;1.359236
9135.000000;1.360580
9134.000000;1.360401
9133.000000;1.358709
9132.000000;1.356530
9131.000000;1.354761
9130.000000;1.353726
9129.000000;1.353450
9128.000000;1.353694
9127.000000;1.353794
9126.000000;1.353156
9125.000000;1.352040
9124.000000;1.351434
9123.000000;1.351974
9122.000000;1.353252
9121.000000;1.354266
9120.000000;1.354324
9119.000000;1.353477
9118.000000;1.352384
9117.000000;1.351834
9116.000000;1.352149
9115.000000;1.352879
9114.000000;1.353183
9113.000000;1.352587
9112.000000;1.351326
9111.000000;1.350047
9110.000000;1.349416
9109.000000;1.349754
9108.000000;1.350644
9107.000000;1.350999
9106.000000;1.350107
9105.000000;1.348645
9104.000000;1.348032
9103.000000;1.348577
9102.000000;1.348940
9101.000000;1.347851
9100.000000;1.345785
9099.000000;1.344273
9098.000000;1.344063
9097.000000;1.344713
9096.000000;1.345640
9095.000000;1.346658
9094.000000;1.347485
9093.000000;1.347576
9092.000000;1.346788
9091.000000;1.345681
9090.000000;1.344871
9089.000000;1.344458
9088.000000;1.344264
9087.000000;1.344258
9086.000000;1.344487
9085.000000;1.344820
9084.000000;1.344955
9083.000000;1.344620
9082.000000;1.343768
9081.000000;1.342770
9080.000000;1.342322
9079.000000;1.342754
9078.000000;1.343374
9077.000000;1.342916
9076.000000;1.340948
9075.000000;1.338497
9074.000000;1.336966
9073.000000;1.336689
9072.000000;1.336923
9071.000000;1.336998
9070.000000;1.337009
9069.000000;1.337332
9068.000000;1.337822
9067.000000;1.337837
9066.000000;1.337020
9065.000000;1.335880
9064.000000;1.335393
9063.000000;1.336048
9062.000000;1.337421
9061.000000;1.338689
9060.000000;1.339332
9059.000000;1.339231
9058.000000;1.338328
9057.000000;1.336657
9056.000000;1.334710
9055.000000;1.333291
9054.000000;1.332848
9053.000000;1.333196
