Criado como novo conjunto de dados;"1909daniel.spp","-4250683.0 Secs"
cm-1;Abs
10000.000000;1.818403
9999.000000;1.818367
9998.000000;1.818335
9997.000000;1.818295
9996.000000;1.818268
9995.000000;1.818209
9994.000000;1.818282
9993.000000;1.819298
9992.000000;1.821173
9991.000000;1.822214
9990.000000;1.821218
9989.000000;1.819196
9988.000000;1.818112
9987.000000;1.818492
9986.000000;1.819325
9985.000000;1.819867
9984.000000;1.820317
9983.000000;1.820699
9982.000000;1.820254
9981.000000;1.818282
9980.000000;1.814822
9979.000000;1.810339
9978.000000;1.805625
9977.000000;1.802198
9976.000000;1.801654
9975.000000;1.803806
9974.000000;1.806216
9973.000000;1.806494
9972.000000;1.804650
9971.000000;1.802355
9970.000000;1.800533
9969.000000;1.798879
9968.000000;1.797202
9967.000000;1.795891
9966.000000;1.795218
9965.000000;1.795186
9964.000000;1.796070
9963.000000;1.798173
9962.000000;1.800628
9961.000000;1.801359
9960.000000;1.799128
9959.000000;1.795194
9958.000000;1.792189
9957.000000;1.791664
9956.000000;1.793196
9955.000000;1.795228
9954.000000;1.796279
9953.000000;1.795857
9952.000000;1.794508
9951.000000;1.793017
9950.000000;1.791730
9949.000000;1.790736
9948.000000;1.790464
9947.000000;1.791428
9946.000000;1.793070
9945.000000;1.793318
9944.000000;1.790217
9943.000000;1.784218
9942.000000;1.777998
9941.000000;1.773872
9940.000000;1.772135
9939.000000;1.771909
9938.000000;1.772873
9937.000000;1.775498
9936.000000;1.779790
9935.000000;1.784511
9934.000000;1.787869
9933.000000;1.788688
9932.000000;1.786874
9931.000000;1.783304
9930.000000;1.779512
9929.000000;1.776966
9928.000000;1.776068
9927.000000;1.775963
9926.000000;1.775588
9925.000000;1.774627
9924.000000;1.773214
9923.000000;1.771246
9922.000000;1.768613
9921.000000;1.765838
9920.000000;1.763835
9919.000000;1.763042
9918.000000;1.763224
9917.000000;1.763918
9916.000000;1.764567
9915.000000;1.764488
9914.000000;1.763568
9913.000000;1.762857
9912.000000;1.763583
9911.000000;1.765439
9910.000000;1.766450
9909.000000;1.764965
9908.000000;1.761495
9907.000000;1.758084
9906.000000;1.756301
9905.000000;1.756196
9904.000000;1.756785
9903.000000;1.757149
9902.000000;1.757222
9901.000000;1.757641
9900.000000;1.758692
9899.000000;1.759610
9898.000000;1.759514
9897.000000;1.758904
9896.000000;1.759276
9895.000000;1.760944
9894.000000;1.762059
9893.000000;1.760376
9892.000000;1.755565
9891.000000;1.749359
9890.000000;1.744031
9889.000000;1.741151
9888.000000;1.740962
9887.000000;1.742115
9886.000000;1.742433
9885.000000;1.740880
9884.000000;1.738664
9883.000000;1.737729
9882.000000;1.738406
9881.000000;1.739191
9880.000000;1.738606
9879.000000;1.736622
9878.000000;1.734300
9877.000000;1.732997
9876.000000;1.733840
9875.000000;1.736815
9874.000000;1.740237
9873.000000;1.741870
9872.000000;1.740843
9871.000000;1.738085
9870.000000;1.734944
9869.000000;1.732187
9868.000000;1.730388
9867.000000;1.730151
9866.000000;1.731421
9865.000000;1.733062
9864.000000;1.733752
9863.000000;1.733296
9862.000000;1.732667
9861.000000;1.732782
9860.000000;1.733452
9859.000000;1.733436
9858.000000;1.731522
9857.000000;1.727774
9856.000000;1.723666
9855.000000;1.720832
9854.000000;1.719730
9853.000000;1.719657
9852.000000;1.719858
9851.000000;1.720163
9850.000000;1.720419
9849.000000;1.719951
9848.000000;1.718151
9847.000000;1.715453
9846.000000;1.713178
9845.000000;1.712303
9844.000000;1.712608
9843.000000;1.713153
9842.000000;1.713325
9841.000000;1.713126
9840.000000;1.712629
9839.000000;1.711594
9838.000000;1.709870
9837.000000;1.707916
9836.000000;1.706438
9835.000000;1.705395
9834.000000;1.703922
9833.000000;1.701661
9832.000000;1.699564
9831.000000;1.698713
9830.000000;1.698771
9829.000000;1.698354
9828.000000;1.696890
9827.000000;1.695311
9826.000000;1.694702
9825.000000;1.695067
9824.000000;1.695853
9823.000000;1.697024
9822.000000;1.698846
9821.000000;1.700887
9820.000000;1.702051
9819.000000;1.701758
9818.000000;1.700574
9817.000000;1.699502
9816.000000;1.699075
9815.000000;1.699249
9814.000000;1.699843
9813.000000;1.700801
9812.000000;1.702064
9811.000000;1.703262
9810.000000;1.703629
9809.000000;1.702390
9808.000000;1.699449
9807.000000;1.695851
9806.000000;1.693202
9805.000000;1.692076
9804.000000;1.691288
9803.000000;1.689305
9802.000000;1.686180
9801.000000;1.683546
9800.000000;1.682778
9799.000000;1.683580
9798.000000;1.684546
9797.000000;1.684651
9796.000000;1.683693
9795.000000;1.681754
9794.000000;1.679131
9793.000000;1.676709
9792.000000;1.675656
9791.000000;1.676338
9790.000000;1.677621
9789.000000;1.677813
9788.000000;1.676401
9787.000000;1.674397
9786.000000;1.673070
9785.000000;1.672787
9784.000000;1.673028
9783.000000;1.673322
9782.000000;1.673900
9781.000000;1.675175
9780.000000;1.676701
9779.000000;1.677010
9778.000000;1.674834
9777.000000;1.670505
9776.000000;1.665816
9775.000000;1.662459
9774.000000;1.660935
9773.000000;1.660886
9772.000000;1.661825
9771.000000;1.663113
9770.000000;1.663742
9769.000000;1.662960
9768.000000;1.661190
9767.000000;1.659724
9766.000000;1.659378
9765.000000;1.659907
9764.000000;1.660699
9763.000000;1.661339
9762.000000;1.661295
9761.000000;1.659890
9760.000000;1.657239
9759.000000;1.654709
9758.000000;1.653655
9757.000000;1.653986
9756.000000;1.654671
9755.000000;1.655311
9754.000000;1.656179
9753.000000;1.656895
9752.000000;1.656496
9751.000000;1.655172
9750.000000;1.654543
9749.000000;1.655347
9748.000000;1.655802
9747.000000;1.653512
9746.000000;1.648688
9745.000000;1.644187
9744.000000;1.642404
9743.000000;1.643191
9742.000000;1.644711
9741.000000;1.645274
9740.000000;1.644183
9739.000000;1.641909
9738.000000;1.640004
9737.000000;1.640022
9736.000000;1.641903
9735.000000;1.643752
9734.000000;1.643657
9733.000000;1.641466
9732.000000;1.638510
9731.000000;1.636109
9730.000000;1.634795
9729.000000;1.634492
9728.000000;1.634855
9727.000000;1.635535
9726.000000;1.636308
9725.000000;1.636869
9724.000000;1.636773
9723.000000;1.636181
9722.000000;1.636376
9721.000000;1.638374
9720.000000;1.640748
9719.000000;1.640207
9718.000000;1.635499
9717.000000;1.629586
9716.000000;1.626509
9715.000000;1.627081
9714.000000;1.628737
9713.000000;1.628899
9712.000000;1.627341
9711.000000;1.625457
9710.000000;1.624640
9709.000000;1.625506
9708.000000;1.627363
9707.000000;1.628129
9706.000000;1.626060
9705.000000;1.622000
9704.000000;1.618793
9703.000000;1.618139
9702.000000;1.618970
9701.000000;1.619167
9700.000000;1.618063
9699.000000;1.616544
9698.000000;1.615530
9697.000000;1.615354
9696.000000;1.615998
9695.000000;1.616817
9694.000000;1.616304
9693.000000;1.613375
9692.000000;1.609143
9691.000000;1.606451
9690.000000;1.607096
9689.000000;1.609949
9688.000000;1.612102
9687.000000;1.611690
9686.000000;1.609277
9685.000000;1.606638
9684.000000;1.604826
9683.000000;1.603722
9682.000000;1.602980
9681.000000;1.602646
9680.000000;1.602659
9679.000000;1.602366
9678.000000;1.601206
9677.000000;1.599723
9676.000000;1.599111
9675.000000;1.599651
9674.000000;1.600189
9673.000000;1.599473
9672.000000;1.597636
9671.000000;1.596024
9670.000000;1.595823
9669.000000;1.597057
9668.000000;1.598575
9667.000000;1.598758
9666.000000;1.596638
9665.000000;1.592802
9664.000000;1.589148
9663.000000;1.587401
9662.000000;1.587816
9661.000000;1.589345
9660.000000;1.590811
9659.000000;1.591755
9658.000000;1.592312
9657.000000;1.592597
9656.000000;1.592469
9655.000000;1.591789
9654.000000;1.590626
9653.000000;1.589122
9652.000000;1.587457
9651.000000;1.586136
9650.000000;1.585954
9649.000000;1.587128
9648.000000;1.588558
9647.000000;1.588625
9646.000000;1.586943
9645.000000;1.584664
9644.000000;1.582797
9643.000000;1.581027
9642.000000;1.578723
9641.000000;1.576401
9640.000000;1.575296
9639.000000;1.575841
9638.000000;1.577332
9637.000000;1.578850
9636.000000;1.579707
9635.000000;1.579251
9634.000000;1.577288
9633.000000;1.574756
9632.000000;1.572981
9631.000000;1.572077
9630.000000;1.570917
9629.000000;1.568961
9628.000000;1.567140
9627.000000;1.566378
9626.000000;1.566200
9625.000000;1.565615
9624.000000;1.564740
9623.000000;1.564603
9622.000000;1.565668
9621.000000;1.567309
9620.000000;1.568520
9619.000000;1.568562
9618.000000;1.567196
9617.000000;1.564926
9616.000000;1.562976
9615.000000;1.562511
9614.000000;1.563736
9613.000000;1.565943
9612.000000;1.568096
9611.000000;1.568972
9610.000000;1.567231
9609.000000;1.562474
9608.000000;1.556383
9607.000000;1.551794
9606.000000;1.550170
9605.000000;1.550438
9604.000000;1.550659
9603.000000;1.550366
9602.000000;1.550616
9601.000000;1.552022
9600.000000;1.553682
9599.000000;1.554306
9598.000000;1.553657
9597.000000;1.552366
9596.000000;1.550912
9595.000000;1.549539
9594.000000;1.548708
9593.000000;1.548680
9592.000000;1.548626
9591.000000;1.547111
9590.000000;1.543892
9589.000000;1.540527
9588.000000;1.538759
9587.000000;1.538895
9586.000000;1.540109
9585.000000;1.541638
9584.000000;1.542997
9583.000000;1.543573
9582.000000;1.543049
9581.000000;1.542104
9580.000000;1.541883
9579.000000;1.542644
9578.000000;1.543354
9577.000000;1.542594
9576.000000;1.539624
9575.000000;1.534934
9574.000000;1.530253
9573.000000;1.527606
9572.000000;1.527586
9571.000000;1.528732
9570.000000;1.529305
9569.000000;1.529406
9568.000000;1.530332
9567.000000;1.532119
9566.000000;1.533055
9565.000000;1.531893
9564.000000;1.529415
9563.000000;1.527381
9562.000000;1.526917
9561.000000;1.528298
9560.000000;1.531106
9559.000000;1.533984
9558.000000;1.535232
9557.000000;1.534363
9556.000000;1.532419
9555.000000;1.530369
9554.000000;1.528133
9553.000000;1.525668
9552.000000;1.523767
9551.000000;1.522917
9550.000000;1.522318
9549.000000;1.521125
9548.000000;1.519961
9547.000000;1.519936
9546.000000;1.520628
9545.000000;1.520234
9544.000000;1.517744
9543.000000;1.514049
9542.000000;1.510731
9541.000000;1.508588
9540.000000;1.507526
9539.000000;1.507221
9538.000000;1.507554
9537.000000;1.508674
9536.000000;1.510632
9535.000000;1.512773
9534.000000;1.513818
9533.000000;1.513096
9532.000000;1.511473
9531.000000;1.510436
9530.000000;1.510456
9529.000000;1.510814
9528.000000;1.510824
9527.000000;1.510542
9526.000000;1.510333
9525.000000;1.510406
9524.000000;1.510830
9523.000000;1.511330
9522.000000;1.511044
9521.000000;1.509221
9520.000000;1.506432
9519.000000;1.504420
9518.000000;1.504415
9517.000000;1.505925
9516.000000;1.507313
9515.000000;1.507230
9514.000000;1.505392
9513.000000;1.502426
9512.000000;1.499303
9511.000000;1.496710
9510.000000;1.494687
9509.000000;1.493008
9508.000000;1.491889
9507.000000;1.491889
9506.000000;1.492878
9505.000000;1.493598
9504.000000;1.492786
9503.000000;1.490592
9502.000000;1.488472
9501.000000;1.487715
9500.000000;1.488330
9499.000000;1.489350
9498.000000;1.489988
9497.000000;1.490260
9496.000000;1.490509
9495.000000;1.490730
9494.000000;1.490662
9493.000000;1.490350
9492.000000;1.490118
9491.000000;1.489886
9490.000000;1.488974
9489.000000;1.486990
9488.000000;1.484643
9487.000000;1.483213
9486.000000;1.483209
9485.000000;1.483890
9484.000000;1.484136
9483.000000;1.483493
9482.000000;1.482306
9481.000000;1.481114
9480.000000;1.480073
9479.000000;1.478954
9478.000000;1.477736
9477.000000;1.477130
9476.000000;1.478123
9475.000000;1.480711
9474.000000;1.483328
9473.000000;1.484034
9472.000000;1.482362
9471.000000;1.479553
9470.000000;1.476970
9469.000000;1.474855
9468.000000;1.472747
9467.000000;1.470540
9466.000000;1.468764
9465.000000;1.467993
9464.000000;1.468255
9463.000000;1.468988
9462.000000;1.469510
9461.000000;1.469549
9460.000000;1.469256
9459.000000;1.468657
9458.000000;1.467360
9457.000000;1.465141
9456.000000;1.462613
9455.000000;1.460809
9454.000000;1.460145
9453.000000;1.460305
9452.000000;1.461017
9451.000000;1.462164
9450.000000;1.463148
9449.000000;1.463094
9448.000000;1.462116
9447.000000;1.461626
9446.000000;1.462632
9445.000000;1.464162
9444.000000;1.464253
9443.000000;1.462321
9442.000000;1.459666
9441.000000;1.457717
9440.000000;1.456768
9439.000000;1.456453
9438.000000;1.456419
9437.000000;1.456147
9436.000000;1.454964
9435.000000;1.452924
9434.000000;1.451184
9433.000000;1.450822
9432.000000;1.451428
9431.000000;1.451572
9430.000000;1.450579
9429.000000;1.449144
9428.000000;1.448230
9427.000000;1.448035
9426.000000;1.448166
9425.000000;1.448286
9424.000000;1.448278
9423.000000;1.448045
9422.000000;1.447508
9421.000000;1.446725
9420.000000;1.445932
9419.000000;1.445492
9418.000000;1.445745
9417.000000;1.446677
9416.000000;1.447749
9415.000000;1.448281
9414.000000;1.448096
9413.000000;1.447579
9412.000000;1.447075
9411.000000;1.446486
9410.000000;1.445593
9409.000000;1.444491
9408.000000;1.443582
9407.000000;1.443227
9406.000000;1.443423
9405.000000;1.443706
9404.000000;1.443406
9403.000000;1.442279
9402.000000;1.440929
9401.000000;1.440330
9400.000000;1.440780
9399.000000;1.441485
9398.000000;1.441285
9397.000000;1.439714
9396.000000;1.437265
9395.000000;1.434783
9394.000000;1.432743
9393.000000;1.431037
9392.000000;1.429412
9391.000000;1.428067
9390.000000;1.427644
9389.000000;1.428472
9388.000000;1.430006
9387.000000;1.431319
9386.000000;1.432089
9385.000000;1.432697
9384.000000;1.433364
9383.000000;1.433774
9382.000000;1.433657
9381.000000;1.433137
9380.000000;1.432321
9379.000000;1.431072
9378.000000;1.429504
9377.000000;1.428191
9376.000000;1.427525
9375.000000;1.427239
9374.000000;1.426862
9373.000000;1.426350
9372.000000;1.425922
9371.000000;1.425577
9370.000000;1.425166
9369.000000;1.424658
9368.000000;1.423991
9367.000000;1.422946
9366.000000;1.421541
9365.000000;1.420256
9364.000000;1.419490
9363.000000;1.419069
9362.000000;1.418676
9361.000000;1.418352
9360.000000;1.418065
9359.000000;1.417204
9358.000000;1.415222
9357.000000;1.412682
9356.000000;1.410992
9355.000000;1.410967
9354.000000;1.412058
9353.000000;1.412923
9352.000000;1.412507
9351.000000;1.410736
9350.000000;1.408506
9349.000000;1.406983
9348.000000;1.406641
9347.000000;1.407015
9346.000000;1.407475
9345.000000;1.407934
9344.000000;1.408451
9343.000000;1.408603
9342.000000;1.407902
9341.000000;1.406610
9340.000000;1.405455
9339.000000;1.404649
9338.000000;1.403902
9337.000000;1.403380
9336.000000;1.403894
9335.000000;1.405861
9334.000000;1.408540
9333.000000;1.410598
9332.000000;1.411199
9331.000000;1.410401
9330.000000;1.408776
9329.000000;1.406978
9328.000000;1.405519
9327.000000;1.404708
9326.000000;1.404605
9325.000000;1.404876
9324.000000;1.404746
9323.000000;1.403562
9322.000000;1.401640
9321.000000;1.400129
9320.000000;1.399753
9319.000000;1.400141
9318.000000;1.400584
9317.000000;1.400775
9316.000000;1.400318
9315.000000;1.398412
9314.000000;1.395078
9313.000000;1.392115
9312.000000;1.391555
9311.000000;1.393265
9310.000000;1.394962
9309.000000;1.394768
9308.000000;1.393004
9307.000000;1.391340
9306.000000;1.391064
9305.000000;1.392370
9304.000000;1.394378
9303.000000;1.395504
9302.000000;1.394656
9301.000000;1.392394
9300.000000;1.390263
9299.000000;1.389013
9298.000000;1.388311
9297.000000;1.388003
9296.000000;1.388422
9295.000000;1.389243
9294.000000;1.389420
9293.000000;1.388772
9292.000000;1.388363
9291.000000;1.388571
9290.000000;1.388062
9289.000000;1.385929
9288.000000;1.383738
9287.000000;1.383925
9286.000000;1.386753
9285.000000;1.389931
9284.000000;1.391037
9283.000000;1.389498
9282.000000;1.386408
9281.000000;1.383498
9280.000000;1.382281
9279.000000;1.383045
9278.000000;1.384333
9277.000000;1.384224
9276.000000;1.382482
9275.000000;1.380732
9274.000000;1.380373
9273.000000;1.380997
9272.000000;1.381116
9271.000000;1.379984
9270.000000;1.378300
9269.000000;1.377319
9268.000000;1.377587
9267.000000;1.378450
9266.000000;1.378725
9265.000000;1.377939
9264.000000;1.376832
9263.000000;1.376457
9262.000000;1.376949
9261.000000;1.377462
9260.000000;1.377193
9259.000000;1.376137
9258.000000;1.374876
9257.000000;1.373976
9256.000000;1.373702
9255.000000;1.373981
9254.000000;1.374412
9253.000000;1.374402
9252.000000;1.373525
9251.000000;1.371916
9250.000000;1.370326
9249.000000;1.369580
9248.000000;1.369745
9247.000000;1.369957
9246.000000;1.369342
9245.000000;1.368095
9244.000000;1.367267
9243.000000;1.367460
9242.000000;1.368206
9241.000000;1.368779
9240.000000;1.369104
9239.000000;1.369516
9238.000000;1.369982
9237.000000;1.369977
9236.000000;1.369000
9235.000000;1.366934
9234.000000;1.364081
9233.000000;1.361124
9232.000000;1.358879
9231.000000;1.357793
9230.000000;1.357782
9229.000000;1.358572
9228.000000;1.359832
9227.000000;1.360862
9226.000000;1.360735
9225.000000;1.359218
9224.000000;1.357298
9223.000000;1.356327
9222.000000;1.356828
9221.000000;1.358333
9220.000000;1.360036
9219.000000;1.361203
9218.000000;1.361267
9217.000000;1.360091
9216.000000;1.358158
9215.000000;1.356192
9214.000000;1.354650
9213.000000;1.353744
9212.000000;1.353617
9211.000000;1.354116
9210.000000;1.354684
9209.000000;1.354966
9208.000000;1.355348
9207.000000;1.356361
9206.000000;1.357647
9205.000000;1.358087
9204.000000;1.357041
9203.000000;1.355075
9202.000000;1.353322
9201.000000;1.352469
9200.000000;1.352423
9199.000000;1.352578
9198.000000;1.352324
9197.000000;1.351574
9196.000000;1.350799
9195.000000;1.350393
9194.000000;1.350121
9193.000000;1.349448
9192.000000;1.348305
9191.000000;1.347261
9190.000000;1.346971
9189.000000;1.347737
9188.000000;1.349462
9187.000000;1.351636
9186.000000;1.353359
9185.000000;1.353767
9184.000000;1.352609
9183.000000;1.350379
9182.000000;1.348042
9181.000000;1.346751
9180.000000;1.347371
9179.000000;1.349665
9178.000000;1.351975
9177.000000;1.352299
9176.000000;1.350006
9175.000000;1.346253
9174.000000;1.342754
9173.000000;1.340548
9172.000000;1.339891
9171.000000;1.340620
9170.000000;1.342169
9169.000000;1.343537
9168.000000;1.343820
9167.000000;1.343018
9166.000000;1.342129
9165.000000;1.342188
9164.000000;1.343113
9163.000000;1.343658
9162.000000;1.342803
9161.000000;1.341136
9160.000000;1.340331
9159.000000;1.341118
9158.000000;1.342276
9157.000000;1.342087
9156.000000;1.340462
9155.000000;1.338865
9154.000000;1.338343
9153.000000;1.338503
9152.000000;1.338509
9151.000000;1.338243
9150.000000;1.338017
9149.000000;1.337715
9148.000000;1.336898
9147.000000;1.335632
9146.000000;1.334657
9145.000000;1.334649
9144.000000;1.335523
9143.000000;1.336445
9142.000000;1.336448
9141.000000;1.335206
9140.000000;1.333308
9139.000000;1.331641
9138.000000;1.330514
9137.000000;1.329617
9136.000000;1.328846
9135.000000;1.328781
9134.000000;1.329991
9133.000000;1.332043
9132.000000;1.333573
9131.000000;1.333495
9130.000000;1.331999
9129.000000;1.330267
9128.000000;1.329323
9127.000000;1.329303
9126.000000;1.329680
9125.000000;1.329988
9124.000000;1.330232
9123.000000;1.330599
9122.000000;1.330937
9121.000000;1.330753
9120.000000;1.329769
9119.000000;1.328328
9118.000000;1.327196
9117.000000;1.326999
9116.000000;1.327846
9115.000000;1.329324
9114.000000;1.330741
9113.000000;1.331453
9112.000000;1.331158
9111.000000;1.330003
9110.000000;1.328465
9109.000000;1.327153
9108.000000;1.326605
9107.000000;1.327014
9106.000000;1.327985
9105.000000;1.328637
9104.000000;1.328229
9103.000000;1.326819
9102.000000;1.325187
9101.000000;1.324012
9100.000000;1.323202
9099.000000;1.322162
9098.000000;1.320663
9097.000000;1.319224
9096.000000;1.318547
9095.000000;1.318774
9094.000000;1.319422
9093.000000;1.319889
9092.000000;1.319890
9091.000000;1.319484
9090.000000;1.318902
9089.000000;1.318429
9088.000000;1.318323
9087.000000;1.318694
9086.000000;1.319356
9085.000000;1.319750
9084.000000;1.319172
9083.000000;1.317364
9082.000000;1.314957
9081.000000;1.313085
9080.000000;1.312402
9079.000000;1.312615
9078.000000;1.313073
9077.000000;1.313534
9076.000000;1.314093
9075.000000;1.314625
9074.000000;1.314761
9073.000000;1.314369
9072.000000;1.313679
9071.000000;1.312954
9070.000000;1.312371
9069.000000;1.312180
9068.000000;1.312545
9067.000000;1.313169
9066.000000;1.313440
9065.000000;1.313085
9064.000000;1.312400
9063.000000;1.311757
9062.000000;1.311245
9061.000000;1.310909
9060.000000;1.310932
9059.000000;1.311367
9058.000000;1.311971
9057.000000;1.312486
9056.000000;1.312778
9055.000000;1.312588
9054.000000;1.311592
9053.000000;1.310016
