Criado como novo conjunto de dados;"1909daniel.spp","-4260943.6 Secs"
cm-1;Abs
10000.000000;1.907305
9999.000000;1.909017
9998.000000;1.914406
9997.000000;1.919572
9996.000000;1.920966
9995.000000;1.918703
9994.000000;1.914874
9993.000000;1.910507
9992.000000;1.905852
9991.000000;1.902247
9990.000000;1.901558
9989.000000;1.903734
9988.000000;1.906438
9987.000000;1.907675
9986.000000;1.907643
9985.000000;1.907530
9984.000000;1.907655
9983.000000;1.907377
9982.000000;1.906204
9981.000000;1.904451
9980.000000;1.903019
9979.000000;1.902701
9978.000000;1.903332
9977.000000;1.903619
9976.000000;1.902405
9975.000000;1.900225
9974.000000;1.898743
9973.000000;1.898593
9972.000000;1.898529
9971.000000;1.896787
9970.000000;1.892963
9969.000000;1.888554
9968.000000;1.885881
9967.000000;1.886294
9966.000000;1.888820
9965.000000;1.890781
9964.000000;1.890467
9963.000000;1.888908
9962.000000;1.888140
9961.000000;1.888496
9960.000000;1.888974
9959.000000;1.889595
9958.000000;1.891402
9957.000000;1.893894
9956.000000;1.894402
9955.000000;1.891282
9954.000000;1.886492
9953.000000;1.883638
9952.000000;1.884236
9951.000000;1.886722
9950.000000;1.888341
9949.000000;1.887318
9948.000000;1.883842
9947.000000;1.879788
9946.000000;1.877217
9945.000000;1.876552
9944.000000;1.876390
9943.000000;1.875507
9942.000000;1.874543
9941.000000;1.874914
9940.000000;1.876603
9939.000000;1.878151
9938.000000;1.878877
9937.000000;1.879942
9936.000000;1.882567
9935.000000;1.885892
9934.000000;1.887344
9933.000000;1.885157
9932.000000;1.880202
9931.000000;1.875199
9930.000000;1.872332
9929.000000;1.871689
9928.000000;1.871628
9927.000000;1.870281
9926.000000;1.866900
9925.000000;1.862320
9924.000000;1.858435
9923.000000;1.856777
9922.000000;1.857055
9921.000000;1.857239
9920.000000;1.855911
9919.000000;1.854305
9918.000000;1.855018
9917.000000;1.858892
9916.000000;1.863879
9915.000000;1.867001
9914.000000;1.866836
9913.000000;1.864000
9912.000000;1.860308
9911.000000;1.858047
9910.000000;1.858980
9909.000000;1.862867
9908.000000;1.867188
9907.000000;1.869202
9906.000000;1.868272
9905.000000;1.865652
9904.000000;1.862517
9903.000000;1.859092
9902.000000;1.855373
9901.000000;1.851793
9900.000000;1.849018
9899.000000;1.847473
9898.000000;1.847022
9897.000000;1.847077
9896.000000;1.847264
9895.000000;1.847841
9894.000000;1.848753
9893.000000;1.848415
9892.000000;1.844976
9891.000000;1.839413
9890.000000;1.835635
9889.000000;1.836296
9888.000000;1.839521
9887.000000;1.841038
9886.000000;1.839252
9885.000000;1.836616
9884.000000;1.836124
9883.000000;1.838251
9882.000000;1.841365
9881.000000;1.843371
9880.000000;1.842582
9879.000000;1.838615
9878.000000;1.833203
9877.000000;1.829032
9876.000000;1.827247
9875.000000;1.826893
9874.000000;1.826942
9873.000000;1.827560
9872.000000;1.828510
9871.000000;1.827844
9870.000000;1.824050
9869.000000;1.818869
9868.000000;1.815939
9867.000000;1.816692
9866.000000;1.818976
9865.000000;1.819978
9864.000000;1.819545
9863.000000;1.819801
9862.000000;1.822145
9861.000000;1.825576
9860.000000;1.827824
9859.000000;1.827578
9858.000000;1.825503
9857.000000;1.823301
9856.000000;1.821876
9855.000000;1.820439
9854.000000;1.817533
9853.000000;1.812920
9852.000000;1.808196
9851.000000;1.805549
9850.000000;1.806186
9849.000000;1.809795
9848.000000;1.814913
9847.000000;1.819490
9846.000000;1.821512
9845.000000;1.820064
9844.000000;1.816212
9843.000000;1.812424
9842.000000;1.810574
9841.000000;1.810433
9840.000000;1.810265
9839.000000;1.808942
9838.000000;1.807147
9837.000000;1.806316
9836.000000;1.806773
9835.000000;1.807387
9834.000000;1.806941
9833.000000;1.805405
9832.000000;1.803679
9831.000000;1.802374
9830.000000;1.801218
9829.000000;1.799693
9828.000000;1.798081
9827.000000;1.797460
9826.000000;1.798379
9825.000000;1.799752
9824.000000;1.799574
9823.000000;1.797134
9822.000000;1.794183
9821.000000;1.793101
9820.000000;1.794128
9819.000000;1.795149
9818.000000;1.794379
9817.000000;1.792593
9816.000000;1.792022
9815.000000;1.793472
9814.000000;1.795370
9813.000000;1.795670
9812.000000;1.794009
9811.000000;1.791601
9810.000000;1.789601
9809.000000;1.788196
9808.000000;1.786974
9807.000000;1.785479
9806.000000;1.783398
9805.000000;1.780864
9804.000000;1.778865
9803.000000;1.778790
9802.000000;1.781081
9801.000000;1.784379
9800.000000;1.786390
9799.000000;1.785797
9798.000000;1.782980
9797.000000;1.779184
9796.000000;1.775794
9795.000000;1.774248
9794.000000;1.775501
9793.000000;1.778846
9792.000000;1.781846
9791.000000;1.782394
9790.000000;1.780699
9789.000000;1.778447
9788.000000;1.776315
9787.000000;1.773554
9786.000000;1.769990
9785.000000;1.766998
9784.000000;1.765849
9783.000000;1.765874
9782.000000;1.765222
9781.000000;1.763240
9780.000000;1.760930
9779.000000;1.759219
9778.000000;1.758040
9777.000000;1.757010
9776.000000;1.756146
9775.000000;1.755761
9774.000000;1.756024
9773.000000;1.756782
9772.000000;1.757548
9771.000000;1.757696
9770.000000;1.757048
9769.000000;1.756163
9768.000000;1.755597
9767.000000;1.754912
9766.000000;1.753198
9765.000000;1.750725
9764.000000;1.749063
9763.000000;1.749120
9762.000000;1.750091
9761.000000;1.751082
9760.000000;1.752862
9759.000000;1.756661
9758.000000;1.761422
9757.000000;1.763834
9756.000000;1.761817
9755.000000;1.756943
9754.000000;1.752486
9753.000000;1.750022
9752.000000;1.748856
9751.000000;1.747847
9750.000000;1.746647
9749.000000;1.745418
9748.000000;1.744362
9747.000000;1.743726
9746.000000;1.743616
9745.000000;1.743643
9744.000000;1.743403
9743.000000;1.743227
9742.000000;1.743509
9741.000000;1.743652
9740.000000;1.742676
9739.000000;1.740839
9738.000000;1.739739
9737.000000;1.740277
9736.000000;1.741284
9735.000000;1.741007
9734.000000;1.739307
9733.000000;1.737244
9732.000000;1.735074
9731.000000;1.732223
9730.000000;1.729068
9729.000000;1.727219
9728.000000;1.727525
9727.000000;1.728895
9726.000000;1.729804
9725.000000;1.730125
9724.000000;1.730532
9723.000000;1.730839
9722.000000;1.730148
9721.000000;1.728317
9720.000000;1.726220
9719.000000;1.724556
9718.000000;1.723263
9717.000000;1.722421
9716.000000;1.722731
9715.000000;1.724295
9714.000000;1.725668
9713.000000;1.725069
9712.000000;1.722387
9711.000000;1.719391
9710.000000;1.717944
9709.000000;1.718295
9708.000000;1.719053
9707.000000;1.718734
9706.000000;1.717441
9705.000000;1.716900
9704.000000;1.718541
9703.000000;1.721603
9702.000000;1.723639
9701.000000;1.723132
9700.000000;1.720991
9699.000000;1.719020
9698.000000;1.717756
9697.000000;1.716497
9696.000000;1.714855
9695.000000;1.713323
9694.000000;1.712361
9693.000000;1.711711
9692.000000;1.710708
9691.000000;1.708735
9690.000000;1.705392
9689.000000;1.700949
9688.000000;1.696830
9687.000000;1.695012
9686.000000;1.696411
9685.000000;1.699864
9684.000000;1.702936
9683.000000;1.703837
9682.000000;1.702598
9681.000000;1.700616
9680.000000;1.699260
9679.000000;1.698768
9678.000000;1.698236
9677.000000;1.696717
9676.000000;1.694327
9675.000000;1.692127
9674.000000;1.691055
9673.000000;1.691275
9672.000000;1.692409
9671.000000;1.693991
9670.000000;1.695552
9669.000000;1.696611
9668.000000;1.696965
9667.000000;1.696878
9666.000000;1.696580
9665.000000;1.695676
9664.000000;1.693499
9663.000000;1.690177
9662.000000;1.687032
9661.000000;1.685572
9660.000000;1.686203
9659.000000;1.688094
9658.000000;1.690125
9657.000000;1.691569
9656.000000;1.691855
9655.000000;1.690379
9654.000000;1.687166
9653.000000;1.683399
9652.000000;1.680535
9651.000000;1.678872
9650.000000;1.677607
9649.000000;1.676411
9648.000000;1.676153
9647.000000;1.677530
9646.000000;1.679529
9645.000000;1.679946
9644.000000;1.677437
9643.000000;1.672767
9642.000000;1.668192
9641.000000;1.665918
9640.000000;1.666832
9639.000000;1.669973
9638.000000;1.673081
9637.000000;1.674106
9636.000000;1.672600
9635.000000;1.669756
9634.000000;1.667277
9633.000000;1.666192
9632.000000;1.666275
9631.000000;1.666296
9630.000000;1.665194
9629.000000;1.663379
9628.000000;1.662415
9627.000000;1.663003
9626.000000;1.663998
9625.000000;1.664031
9624.000000;1.663377
9623.000000;1.663245
9622.000000;1.663758
9621.000000;1.663866
9620.000000;1.663041
9619.000000;1.661721
9618.000000;1.659967
9617.000000;1.657134
9616.000000;1.653447
9615.000000;1.650721
9614.000000;1.650659
9613.000000;1.652936
9612.000000;1.655496
9611.000000;1.656509
9610.000000;1.655646
9609.000000;1.653670
9608.000000;1.651418
9607.000000;1.649276
9606.000000;1.647414
9605.000000;1.646298
9604.000000;1.646546
9603.000000;1.647931
9602.000000;1.648945
9601.000000;1.648264
9600.000000;1.646579
9599.000000;1.645872
9598.000000;1.646838
9597.000000;1.648148
9596.000000;1.648450
9595.000000;1.647973
9594.000000;1.647555
9593.000000;1.647123
9592.000000;1.646079
9591.000000;1.644411
9590.000000;1.642505
9589.000000;1.640321
9588.000000;1.637658
9587.000000;1.634892
9586.000000;1.632786
9585.000000;1.631813
9584.000000;1.632132
9583.000000;1.633864
9582.000000;1.636677
9581.000000;1.639176
9580.000000;1.639608
9579.000000;1.637497
9578.000000;1.634209
9577.000000;1.631907
9576.000000;1.632054
9575.000000;1.634383
9574.000000;1.636753
9573.000000;1.636566
9572.000000;1.633160
9571.000000;1.628484
9570.000000;1.625002
9569.000000;1.623525
9568.000000;1.623356
9567.000000;1.623739
9566.000000;1.624399
9565.000000;1.625117
9564.000000;1.625685
9563.000000;1.626181
9562.000000;1.626718
9561.000000;1.627132
9560.000000;1.627298
9559.000000;1.627417
9558.000000;1.627483
9557.000000;1.626959
9556.000000;1.625767
9555.000000;1.624926
9554.000000;1.625093
9553.000000;1.625030
9552.000000;1.622975
9551.000000;1.619351
9550.000000;1.616482
9549.000000;1.615537
9548.000000;1.615398
9547.000000;1.614971
9546.000000;1.615084
9545.000000;1.617003
9544.000000;1.620111
9543.000000;1.622214
9542.000000;1.621711
9541.000000;1.618721
9540.000000;1.614664
9539.000000;1.611608
9538.000000;1.611404
9537.000000;1.614108
9536.000000;1.617178
9535.000000;1.617412
9534.000000;1.614177
9533.000000;1.609882
9532.000000;1.607085
9531.000000;1.606222
9530.000000;1.606335
9529.000000;1.606792
9528.000000;1.607392
9527.000000;1.607502
9526.000000;1.606378
9525.000000;1.604310
9524.000000;1.602496
9523.000000;1.601663
9522.000000;1.601584
9521.000000;1.601975
9520.000000;1.602910
9519.000000;1.604010
9518.000000;1.604173
9517.000000;1.602812
9516.000000;1.600675
9515.000000;1.598712
9514.000000;1.596831
9513.000000;1.594617
9512.000000;1.592698
9511.000000;1.592198
9510.000000;1.593111
9509.000000;1.594312
9508.000000;1.595001
9507.000000;1.595050
9506.000000;1.594075
9505.000000;1.591707
9504.000000;1.588963
9503.000000;1.587753
9502.000000;1.588503
9501.000000;1.589526
9500.000000;1.589469
9499.000000;1.589203
9498.000000;1.590160
9497.000000;1.591982
9496.000000;1.593182
9495.000000;1.593260
9494.000000;1.592740
9493.000000;1.591664
9492.000000;1.589473
9491.000000;1.586206
9490.000000;1.582748
9489.000000;1.580008
9488.000000;1.578555
9487.000000;1.578745
9486.000000;1.580364
9485.000000;1.582435
9484.000000;1.584065
9483.000000;1.585129
9482.000000;1.585565
9481.000000;1.584745
9480.000000;1.582506
9479.000000;1.580112
9478.000000;1.578981
9477.000000;1.578908
9476.000000;1.578687
9475.000000;1.578010
9474.000000;1.577436
9473.000000;1.576919
9472.000000;1.575928
9471.000000;1.574828
9470.000000;1.574552
9469.000000;1.574764
9468.000000;1.573950
9467.000000;1.571868
9466.000000;1.570359
9465.000000;1.570876
9464.000000;1.572452
9463.000000;1.572988
9462.000000;1.571655
9461.000000;1.569159
9460.000000;1.566469
9459.000000;1.564319
9458.000000;1.563436
9457.000000;1.564273
9456.000000;1.566502
9455.000000;1.569103
9454.000000;1.570902
9453.000000;1.571131
9452.000000;1.569897
9451.000000;1.568102
9450.000000;1.566481
9449.000000;1.564875
9448.000000;1.563015
9447.000000;1.561652
9446.000000;1.561888
9445.000000;1.563402
9444.000000;1.564506
9443.000000;1.564191
9442.000000;1.562985
9441.000000;1.561517
9440.000000;1.559643
9439.000000;1.557634
9438.000000;1.556766
9437.000000;1.557541
9436.000000;1.558428
9435.000000;1.557703
9434.000000;1.555832
9433.000000;1.554711
9432.000000;1.555125
9431.000000;1.556100
9430.000000;1.556398
9429.000000;1.555570
9428.000000;1.553659
9427.000000;1.550979
9426.000000;1.548359
9425.000000;1.546764
9424.000000;1.546369
9423.000000;1.546416
9422.000000;1.546058
9421.000000;1.545088
9420.000000;1.544004
9419.000000;1.543670
9418.000000;1.544678
9417.000000;1.546676
9416.000000;1.548475
9415.000000;1.549124
9414.000000;1.548666
9413.000000;1.547693
9412.000000;1.546699
9411.000000;1.546018
9410.000000;1.545738
9409.000000;1.545314
9408.000000;1.543906
9407.000000;1.541629
9406.000000;1.539826
9405.000000;1.539468
9404.000000;1.539916
9403.000000;1.539934
9402.000000;1.539340
9401.000000;1.538793
9400.000000;1.538390
9399.000000;1.537596
9398.000000;1.536370
9397.000000;1.535236
9396.000000;1.534266
9395.000000;1.533013
9394.000000;1.531522
9393.000000;1.530493
9392.000000;1.530159
9391.000000;1.529642
9390.000000;1.527976
9389.000000;1.525402
9388.000000;1.523226
9387.000000;1.522769
9386.000000;1.524558
9385.000000;1.527966
9384.000000;1.531327
9383.000000;1.532936
9382.000000;1.532343
9381.000000;1.530497
9380.000000;1.528611
9379.000000;1.527250
9378.000000;1.526390
9377.000000;1.525706
9376.000000;1.524710
9375.000000;1.523235
9374.000000;1.522053
9373.000000;1.522416
9372.000000;1.524552
9371.000000;1.526952
9370.000000;1.527622
9369.000000;1.526016
9368.000000;1.523443
9367.000000;1.521650
9366.000000;1.521271
9365.000000;1.521504
9364.000000;1.521070
9363.000000;1.519584
9362.000000;1.517933
9361.000000;1.517187
9360.000000;1.517415
9359.000000;1.517792
9358.000000;1.517685
9357.000000;1.517324
9356.000000;1.517368
9355.000000;1.518113
9354.000000;1.519116
9353.000000;1.519410
9352.000000;1.518200
9351.000000;1.515630
9350.000000;1.512783
9349.000000;1.510634
9348.000000;1.509279
9347.000000;1.508528
9346.000000;1.508762
9345.000000;1.510307
9344.000000;1.512095
9343.000000;1.512094
9342.000000;1.509596
9341.000000;1.506164
9340.000000;1.503844
9339.000000;1.503302
9338.000000;1.504120
9337.000000;1.505985
9336.000000;1.508648
9335.000000;1.511163
9334.000000;1.512217
9333.000000;1.511321
9332.000000;1.509107
9331.000000;1.506484
9330.000000;1.504130
9329.000000;1.502772
9328.000000;1.503115
9327.000000;1.505094
9326.000000;1.507567
9325.000000;1.509037
9324.000000;1.508639
9323.000000;1.506514
9322.000000;1.503628
9321.000000;1.501394
9320.000000;1.501024
9319.000000;1.502717
9318.000000;1.505322
9317.000000;1.506931
9316.000000;1.506151
9315.000000;1.503175
9314.000000;1.499638
9313.000000;1.497272
9312.000000;1.496580
9311.000000;1.496785
9310.000000;1.496950
9309.000000;1.496825
9308.000000;1.496529
9307.000000;1.495906
9306.000000;1.494656
9305.000000;1.492886
9304.000000;1.491007
9303.000000;1.489260
9302.000000;1.487876
9301.000000;1.487437
9300.000000;1.488329
9299.000000;1.489933
9298.000000;1.491023
9297.000000;1.491074
9296.000000;1.490536
9295.000000;1.489784
9294.000000;1.488654
9293.000000;1.487232
9292.000000;1.486258
9291.000000;1.486241
9290.000000;1.486700
9289.000000;1.486835
9288.000000;1.486521
9287.000000;1.486084
9286.000000;1.485551
9285.000000;1.484775
9284.000000;1.484049
9283.000000;1.483871
9282.000000;1.484203
9281.000000;1.484510
9280.000000;1.484394
9279.000000;1.483779
9278.000000;1.482706
9277.000000;1.481537
9276.000000;1.481166
9275.000000;1.482229
9274.000000;1.484037
9273.000000;1.484996
9272.000000;1.484399
9271.000000;1.483231
9270.000000;1.482847
9269.000000;1.483402
9268.000000;1.483888
9267.000000;1.483276
9266.000000;1.481298
9265.000000;1.478472
9264.000000;1.475767
9263.000000;1.474065
9262.000000;1.473550
9261.000000;1.473661
9260.000000;1.473887
9259.000000;1.474388
9258.000000;1.475540
9257.000000;1.477015
9256.000000;1.477780
9255.000000;1.477170
9254.000000;1.475645
9253.000000;1.474248
9252.000000;1.473469
9251.000000;1.472968
9250.000000;1.472500
9249.000000;1.472692
9248.000000;1.474288
9247.000000;1.476617
9246.000000;1.477568
9245.000000;1.475769
9244.000000;1.472459
9243.000000;1.470246
9242.000000;1.470053
9241.000000;1.470225
9240.000000;1.468791
9239.000000;1.465886
9238.000000;1.463427
9237.000000;1.462955
9236.000000;1.464391
9235.000000;1.466546
9234.000000;1.468218
9233.000000;1.468864
9232.000000;1.468686
9231.000000;1.468259
9230.000000;1.467928
9229.000000;1.467513
9228.000000;1.466710
9227.000000;1.465669
9226.000000;1.464919
9225.000000;1.464733
9224.000000;1.464843
9223.000000;1.464875
9222.000000;1.464812
9221.000000;1.464893
9220.000000;1.465140
9219.000000;1.465096
9218.000000;1.464183
9217.000000;1.462388
9216.000000;1.460399
9215.000000;1.458892
9214.000000;1.457839
9213.000000;1.456779
9212.000000;1.455683
9211.000000;1.455182
9210.000000;1.455877
9209.000000;1.457654
9208.000000;1.459683
9207.000000;1.460852
9206.000000;1.460397
9205.000000;1.458581
9204.000000;1.456712
9203.000000;1.456019
9202.000000;1.456432
9201.000000;1.456881
9200.000000;1.456789
9199.000000;1.456609
9198.000000;1.456701
9197.000000;1.456500
9196.000000;1.455396
9195.000000;1.453852
9194.000000;1.452941
9193.000000;1.453011
9192.000000;1.453345
9191.000000;1.453046
9190.000000;1.451850
9189.000000;1.450239
9188.000000;1.449164
9187.000000;1.449360
9186.000000;1.450525
9185.000000;1.451489
9184.000000;1.451600
9183.000000;1.451488
9182.000000;1.451927
9181.000000;1.452530
9180.000000;1.452321
9179.000000;1.451301
9178.000000;1.450462
9177.000000;1.450224
9176.000000;1.449865
9175.000000;1.448774
9174.000000;1.447462
9173.000000;1.446886
9172.000000;1.447335
9171.000000;1.448316
9170.000000;1.449042
9169.000000;1.448721
9168.000000;1.446919
9167.000000;1.444218
9166.000000;1.442168
9165.000000;1.441939
9164.000000;1.443004
9163.000000;1.443528
9162.000000;1.442268
9161.000000;1.439841
9160.000000;1.437916
9159.000000;1.437378
9158.000000;1.437536
9157.000000;1.437050
9156.000000;1.435444
9155.000000;1.433611
9154.000000;1.432943
9153.000000;1.434144
9152.000000;1.436745
9151.000000;1.439442
9150.000000;1.440891
9149.000000;1.440604
9148.000000;1.439324
9147.000000;1.438328
9146.000000;1.438185
9145.000000;1.438323
9144.000000;1.437868
9143.000000;1.436740
9142.000000;1.435751
9141.000000;1.435782
9140.000000;1.437008
9139.000000;1.438712
9138.000000;1.439765
9137.000000;1.439667
9136.000000;1.439119
9135.000000;1.439028
9134.000000;1.438967
9133.000000;1.437463
9132.000000;1.434251
9131.000000;1.431359
9130.000000;1.430969
9129.000000;1.432712
9128.000000;1.434030
9127.000000;1.433086
9126.000000;1.430431
9125.000000;1.427777
9124.000000;1.426189
9123.000000;1.425789
9122.000000;1.426341
9121.000000;1.427474
9120.000000;1.428687
9119.000000;1.429621
9118.000000;1.430217
9117.000000;1.430461
9116.000000;1.430316
9115.000000;1.430018
9114.000000;1.429958
9113.000000;1.430103
9112.000000;1.429994
9111.000000;1.429502
9110.000000;1.429133
9109.000000;1.429293
9108.000000;1.429645
9107.000000;1.429637
9106.000000;1.429379
9105.000000;1.429493
9104.000000;1.430142
9103.000000;1.430632
9102.000000;1.430094
9101.000000;1.428432
9100.000000;1.426437
9099.000000;1.425021
9098.000000;1.424425
9097.000000;1.424259
9096.000000;1.424256
9095.000000;1.424624
9094.000000;1.425462
9093.000000;1.426266
9092.000000;1.426476
9091.000000;1.426270
9090.000000;1.426324
9089.000000;1.426854
9088.000000;1.427408
9087.000000;1.427585
9086.000000;1.427453
9085.000000;1.427123
9084.000000;1.426276
9083.000000;1.424415
9082.000000;1.421566
9081.000000;1.418616
9080.000000;1.416824
9079.000000;1.416835
9078.000000;1.418073
9077.000000;1.419247
9076.000000;1.419547
9075.000000;1.419145
9074.000000;1.418547
9073.000000;1.417972
9072.000000;1.417680
9071.000000;1.418324
9070.000000;1.420178
9069.000000;1.422293
9068.000000;1.423163
9067.000000;1.422163
9066.000000;1.419721
9065.000000;1.416386
9064.000000;1.412606
9063.000000;1.409357
9062.000000;1.407950
9061.000000;1.408846
9060.000000;1.411120
9059.000000;1.413294
9058.000000;1.414352
9057.000000;1.414037
9056.000000;1.412894
9055.000000;1.412115
9054.000000;1.412579
9053.000000;1.413828
