Criado como novo conjunto de dados;"1909daniel.spp","-4262023.9 Secs"
cm-1;Abs
10000.000000;1.952859
9999.000000;1.956212
9998.000000;1.959591
9997.000000;1.962997
9996.000000;1.966429
9995.000000;1.969892
9994.000000;1.973375
9993.000000;1.976902
9992.000000;1.980428
9991.000000;1.984034
9990.000000;1.987574
9989.000000;1.991415
9988.000000;1.994552
9987.000000;1.995341
9986.000000;1.993639
9985.000000;1.990335
9984.000000;1.987189
9983.000000;1.985300
9982.000000;1.983929
9981.000000;1.981314
9980.000000;1.977081
9979.000000;1.972839
9978.000000;1.970172
9977.000000;1.969135
9976.000000;1.969012
9975.000000;1.969558
9974.000000;1.970826
9973.000000;1.972258
9972.000000;1.972598
9971.000000;1.970792
9970.000000;1.967065
9969.000000;1.963426
9968.000000;1.962861
9967.000000;1.967007
9966.000000;1.973877
9965.000000;1.978403
9964.000000;1.976456
9963.000000;1.968580
9962.000000;1.959188
9961.000000;1.952766
9960.000000;1.951339
9959.000000;1.953997
9958.000000;1.957422
9957.000000;1.957759
9956.000000;1.953701
9955.000000;1.947745
9954.000000;1.943540
9953.000000;1.942432
9952.000000;1.943359
9951.000000;1.945577
9950.000000;1.949720
9949.000000;1.955633
9948.000000;1.960677
9947.000000;1.961355
9946.000000;1.956753
9945.000000;1.949772
9944.000000;1.944678
9943.000000;1.943956
9942.000000;1.947067
9941.000000;1.951259
9940.000000;1.953745
9939.000000;1.953707
9938.000000;1.952334
9937.000000;1.950932
9936.000000;1.949573
9935.000000;1.947921
9934.000000;1.946579
9933.000000;1.946421
9932.000000;1.946942
9931.000000;1.946460
9930.000000;1.944223
9929.000000;1.941663
9928.000000;1.940471
9927.000000;1.940063
9926.000000;1.938526
9925.000000;1.935532
9924.000000;1.932999
9923.000000;1.932682
9922.000000;1.934075
9921.000000;1.935216
9920.000000;1.934551
9919.000000;1.931403
9918.000000;1.925985
9917.000000;1.920474
9916.000000;1.919037
9915.000000;1.924568
9914.000000;1.934652
9913.000000;1.941881
9912.000000;1.940201
9911.000000;1.930945
9910.000000;1.921170
9909.000000;1.916922
9908.000000;1.919216
9907.000000;1.924987
9906.000000;1.930202
9905.000000;1.932360
9904.000000;1.931376
9903.000000;1.928784
9902.000000;1.926005
9901.000000;1.923196
9900.000000;1.919693
9899.000000;1.915500
9898.000000;1.912180
9897.000000;1.912023
9896.000000;1.915911
9895.000000;1.921707
9894.000000;1.925104
9893.000000;1.923165
9892.000000;1.917378
9891.000000;1.912318
9890.000000;1.911074
9889.000000;1.912526
9888.000000;1.913321
9887.000000;1.912132
9886.000000;1.911040
9885.000000;1.912608
9884.000000;1.916624
9883.000000;1.920218
9882.000000;1.920758
9881.000000;1.918086
9880.000000;1.913872
9879.000000;1.909475
9878.000000;1.905273
9877.000000;1.901791
9876.000000;1.899987
9875.000000;1.899767
9874.000000;1.899243
9873.000000;1.896634
9872.000000;1.892854
9871.000000;1.890774
9870.000000;1.891551
9869.000000;1.892949
9868.000000;1.891908
9867.000000;1.888090
9866.000000;1.884095
9865.000000;1.882670
9864.000000;1.884741
9863.000000;1.889461
9862.000000;1.894515
9861.000000;1.896732
9860.000000;1.894614
9859.000000;1.890639
9858.000000;1.889154
9857.000000;1.891617
9856.000000;1.895096
9855.000000;1.895977
9854.000000;1.894113
9853.000000;1.891741
9852.000000;1.889287
9851.000000;1.884924
9850.000000;1.878529
9849.000000;1.873105
9848.000000;1.871146
9847.000000;1.871746
9846.000000;1.872407
9845.000000;1.872589
9844.000000;1.873950
9843.000000;1.877257
9842.000000;1.880588
9841.000000;1.881328
9840.000000;1.879052
9839.000000;1.875362
9838.000000;1.871731
9837.000000;1.868938
9836.000000;1.867861
9835.000000;1.869119
9834.000000;1.871762
9833.000000;1.873628
9832.000000;1.873438
9831.000000;1.871641
9830.000000;1.869179
9829.000000;1.866451
9828.000000;1.863683
9827.000000;1.861543
9826.000000;1.860537
9825.000000;1.860155
9824.000000;1.859618
9823.000000;1.859348
9822.000000;1.860775
9821.000000;1.864498
9820.000000;1.869161
9819.000000;1.872348
9818.000000;1.872244
9817.000000;1.868332
9816.000000;1.861290
9815.000000;1.852951
9814.000000;1.845967
9813.000000;1.842654
9812.000000;1.843741
9811.000000;1.848000
9810.000000;1.852828
9809.000000;1.855529
9808.000000;1.854808
9807.000000;1.851454
9806.000000;1.847415
9805.000000;1.844112
9804.000000;1.841821
9803.000000;1.840475
9802.000000;1.840399
9801.000000;1.841904
9800.000000;1.844583
9799.000000;1.847491
9798.000000;1.849666
9797.000000;1.850170
9796.000000;1.848372
9795.000000;1.845086
9794.000000;1.843150
9793.000000;1.845497
9792.000000;1.851701
9791.000000;1.857068
9790.000000;1.856676
9789.000000;1.850529
9788.000000;1.843290
9787.000000;1.839206
9786.000000;1.838783
9785.000000;1.839859
9784.000000;1.840286
9783.000000;1.839032
9782.000000;1.835844
9781.000000;1.831223
9780.000000;1.826646
9779.000000;1.823961
9778.000000;1.824045
9777.000000;1.825979
9776.000000;1.827608
9775.000000;1.827226
9774.000000;1.825063
9773.000000;1.823079
9772.000000;1.823035
9771.000000;1.824749
9770.000000;1.826406
9769.000000;1.826599
9768.000000;1.825747
9767.000000;1.825229
9766.000000;1.825556
9765.000000;1.826142
9764.000000;1.826555
9763.000000;1.826964
9762.000000;1.827297
9761.000000;1.826893
9760.000000;1.825215
9759.000000;1.822478
9758.000000;1.819489
9757.000000;1.817081
9756.000000;1.815931
9755.000000;1.816538
9754.000000;1.818700
9753.000000;1.821087
9752.000000;1.822016
9751.000000;1.820966
9750.000000;1.819034
9749.000000;1.817860
9748.000000;1.818261
9747.000000;1.819769
9746.000000;1.821102
9745.000000;1.820967
9744.000000;1.818817
9743.000000;1.815369
9742.000000;1.812259
9741.000000;1.810787
9740.000000;1.810970
9739.000000;1.811955
9738.000000;1.813097
9737.000000;1.814240
9736.000000;1.815011
9735.000000;1.814452
9734.000000;1.811792
9733.000000;1.807286
9732.000000;1.801887
9731.000000;1.796533
9730.000000;1.792341
9729.000000;1.790961
9728.000000;1.793446
9727.000000;1.798562
9726.000000;1.803134
9725.000000;1.804691
9724.000000;1.803332
9723.000000;1.800619
9722.000000;1.797569
9721.000000;1.794484
9720.000000;1.791889
9719.000000;1.790332
9718.000000;1.789341
9717.000000;1.787698
9716.000000;1.785007
9715.000000;1.782430
9714.000000;1.781685
9713.000000;1.783613
9712.000000;1.787624
9711.000000;1.791921
9710.000000;1.794360
9709.000000;1.794035
9708.000000;1.792114
9707.000000;1.790398
9706.000000;1.789479
9705.000000;1.789096
9704.000000;1.789642
9703.000000;1.791810
9702.000000;1.794462
9701.000000;1.794528
9700.000000;1.790380
9699.000000;1.784140
9698.000000;1.779205
9697.000000;1.776592
9696.000000;1.775067
9695.000000;1.774076
9694.000000;1.774869
9693.000000;1.778348
9692.000000;1.782864
9691.000000;1.784999
9690.000000;1.782517
9689.000000;1.776301
9688.000000;1.769616
9687.000000;1.765581
9686.000000;1.765097
9685.000000;1.766821
9684.000000;1.768697
9683.000000;1.769435
9682.000000;1.768811
9681.000000;1.767289
9680.000000;1.765853
9679.000000;1.765524
9678.000000;1.766105
9677.000000;1.765736
9676.000000;1.762797
9675.000000;1.758182
9674.000000;1.754597
9673.000000;1.753700
9672.000000;1.754964
9671.000000;1.757329
9670.000000;1.760605
9669.000000;1.764269
9668.000000;1.766084
9667.000000;1.763815
9666.000000;1.758171
9665.000000;1.752485
9664.000000;1.749467
9663.000000;1.749268
9662.000000;1.750466
9661.000000;1.751904
9660.000000;1.753201
9659.000000;1.754195
9658.000000;1.754674
9657.000000;1.754541
9656.000000;1.753797
9655.000000;1.752391
9654.000000;1.750470
9653.000000;1.748807
9652.000000;1.748396
9651.000000;1.749357
9650.000000;1.750711
9649.000000;1.751501
9648.000000;1.751731
9647.000000;1.751810
9646.000000;1.751460
9645.000000;1.749793
9644.000000;1.746529
9643.000000;1.742685
9642.000000;1.739824
9641.000000;1.738879
9640.000000;1.739998
9639.000000;1.742882
9638.000000;1.746770
9637.000000;1.750330
9636.000000;1.751724
9635.000000;1.749440
9634.000000;1.743799
9633.000000;1.737383
9632.000000;1.733281
9631.000000;1.732721
9630.000000;1.734375
9629.000000;1.735950
9628.000000;1.736486
9627.000000;1.736719
9626.000000;1.737413
9625.000000;1.738237
9624.000000;1.738455
9623.000000;1.738010
9622.000000;1.737423
9621.000000;1.736948
9620.000000;1.736151
9619.000000;1.734318
9618.000000;1.731319
9617.000000;1.728069
9616.000000;1.725905
9615.000000;1.725376
9614.000000;1.725798
9613.000000;1.726209
9612.000000;1.726577
9611.000000;1.727411
9610.000000;1.728192
9609.000000;1.727186
9608.000000;1.723385
9607.000000;1.717999
9606.000000;1.713425
9605.000000;1.711263
9604.000000;1.711756
9603.000000;1.714389
9602.000000;1.718197
9601.000000;1.721637
9600.000000;1.723085
9599.000000;1.721919
9598.000000;1.719002
9597.000000;1.716111
9596.000000;1.714883
9595.000000;1.715672
9594.000000;1.716849
9593.000000;1.715782
9592.000000;1.711563
9591.000000;1.706557
9590.000000;1.704169
9589.000000;1.705238
9588.000000;1.707473
9587.000000;1.708584
9586.000000;1.708966
9585.000000;1.710306
9584.000000;1.712402
9583.000000;1.712978
9582.000000;1.710797
9581.000000;1.707622
9580.000000;1.706210
9579.000000;1.707078
9578.000000;1.708139
9577.000000;1.707295
9576.000000;1.704585
9575.000000;1.701593
9574.000000;1.699634
9573.000000;1.699082
9572.000000;1.699861
9571.000000;1.701664
9570.000000;1.703547
9569.000000;1.704123
9568.000000;1.702805
9567.000000;1.700614
9566.000000;1.699296
9565.000000;1.699734
9564.000000;1.701420
9563.000000;1.703184
9562.000000;1.703990
9561.000000;1.703104
9560.000000;1.700176
9559.000000;1.695634
9558.000000;1.690895
9557.000000;1.687717
9556.000000;1.687041
9555.000000;1.688357
9554.000000;1.690261
9553.000000;1.691631
9552.000000;1.692258
9551.000000;1.692414
9550.000000;1.692142
9549.000000;1.691214
9548.000000;1.689639
9547.000000;1.687914
9546.000000;1.686633
9545.000000;1.685858
9544.000000;1.685009
9543.000000;1.683469
9542.000000;1.681356
9541.000000;1.679491
9540.000000;1.678461
9539.000000;1.677987
9538.000000;1.677677
9537.000000;1.678009
9536.000000;1.679666
9535.000000;1.682015
9534.000000;1.683019
9533.000000;1.681318
9532.000000;1.678073
9531.000000;1.675561
9530.000000;1.674515
9529.000000;1.674043
9528.000000;1.673592
9527.000000;1.673581
9526.000000;1.674054
9525.000000;1.674120
9524.000000;1.673305
9523.000000;1.672395
9522.000000;1.672212
9521.000000;1.672465
9520.000000;1.672444
9519.000000;1.672022
9518.000000;1.671341
9517.000000;1.670282
9516.000000;1.669133
9515.000000;1.669014
9514.000000;1.670533
9513.000000;1.672359
9512.000000;1.672168
9511.000000;1.669092
9510.000000;1.664428
9509.000000;1.660139
9508.000000;1.657591
9507.000000;1.657436
9506.000000;1.659457
9505.000000;1.662210
9504.000000;1.663689
9503.000000;1.662933
9502.000000;1.660676
9501.000000;1.658256
9500.000000;1.656407
9499.000000;1.655248
9498.000000;1.654868
9497.000000;1.655462
9496.000000;1.657038
9495.000000;1.659121
9494.000000;1.660653
9493.000000;1.660419
9492.000000;1.658051
9491.000000;1.654589
9490.000000;1.651564
9489.000000;1.649657
9488.000000;1.648707
9487.000000;1.648720
9486.000000;1.650035
9485.000000;1.652300
9484.000000;1.654135
9483.000000;1.654381
9482.000000;1.653248
9481.000000;1.651714
9480.000000;1.650224
9479.000000;1.648653
9478.000000;1.647170
9477.000000;1.646220
9476.000000;1.645599
9475.000000;1.644423
9474.000000;1.642464
9473.000000;1.640914
9472.000000;1.641088
9471.000000;1.642529
9470.000000;1.643151
9469.000000;1.641556
9468.000000;1.638639
9467.000000;1.636415
9466.000000;1.635844
9465.000000;1.636435
9464.000000;1.637531
9463.000000;1.639036
9462.000000;1.640685
9461.000000;1.641486
9460.000000;1.640668
9459.000000;1.638812
9458.000000;1.637442
9457.000000;1.637605
9456.000000;1.639077
9455.000000;1.640690
9454.000000;1.641163
9453.000000;1.639902
9452.000000;1.637456
9451.000000;1.635193
9450.000000;1.634188
9449.000000;1.634356
9448.000000;1.634735
9447.000000;1.634488
9446.000000;1.633414
9445.000000;1.631789
9444.000000;1.630228
9443.000000;1.629506
9442.000000;1.630045
9441.000000;1.631475
9440.000000;1.632783
9439.000000;1.632955
9438.000000;1.631563
9437.000000;1.629025
9436.000000;1.626471
9435.000000;1.625033
9434.000000;1.624915
9433.000000;1.625331
9432.000000;1.625414
9431.000000;1.624782
9430.000000;1.623260
9429.000000;1.620785
9428.000000;1.617961
9427.000000;1.615915
9426.000000;1.615029
9425.000000;1.614423
9424.000000;1.613309
9423.000000;1.612276
9422.000000;1.612246
9421.000000;1.612653
9420.000000;1.612096
9419.000000;1.610491
9418.000000;1.609087
9417.000000;1.608556
9416.000000;1.608518
9415.000000;1.608987
9414.000000;1.610683
9413.000000;1.613369
9412.000000;1.615311
9411.000000;1.615392
9410.000000;1.614734
9409.000000;1.615073
9408.000000;1.616339
9407.000000;1.616988
9406.000000;1.616150
9405.000000;1.614319
9404.000000;1.612202
9403.000000;1.610038
9402.000000;1.607939
9401.000000;1.606030
9400.000000;1.604295
9399.000000;1.602847
9398.000000;1.602178
9397.000000;1.602464
9396.000000;1.602773
9395.000000;1.601818
9394.000000;1.599655
9393.000000;1.597820
9392.000000;1.597419
9391.000000;1.597840
9390.000000;1.597818
9389.000000;1.597047
9388.000000;1.596209
9387.000000;1.595934
9386.000000;1.596387
9385.000000;1.597678
9384.000000;1.599979
9383.000000;1.602897
9382.000000;1.605012
9381.000000;1.604681
9380.000000;1.601716
9379.000000;1.597981
9378.000000;1.595840
9377.000000;1.595980
9376.000000;1.597032
9375.000000;1.597386
9374.000000;1.596951
9373.000000;1.596730
9372.000000;1.597115
9371.000000;1.597369
9370.000000;1.596697
9369.000000;1.595135
9368.000000;1.593254
9367.000000;1.591593
9366.000000;1.590627
9365.000000;1.590739
9364.000000;1.591691
9363.000000;1.592398
9362.000000;1.591809
9361.000000;1.589967
9360.000000;1.587762
9359.000000;1.585804
9358.000000;1.584060
9357.000000;1.582491
9356.000000;1.581384
9355.000000;1.580878
9354.000000;1.580751
9353.000000;1.580978
9352.000000;1.581877
9351.000000;1.583222
9350.000000;1.583832
9349.000000;1.582790
9348.000000;1.580696
9347.000000;1.578855
9346.000000;1.577506
9345.000000;1.575978
9344.000000;1.574638
9343.000000;1.575237
9342.000000;1.578400
9341.000000;1.581757
9340.000000;1.581927
9339.000000;1.578253
9338.000000;1.573339
9337.000000;1.569961
9336.000000;1.568713
9335.000000;1.568627
9334.000000;1.568760
9333.000000;1.568679
9332.000000;1.568253
9331.000000;1.567787
9330.000000;1.568052
9329.000000;1.569520
9328.000000;1.571603
9327.000000;1.572983
9326.000000;1.572711
9325.000000;1.570837
9324.000000;1.568227
9323.000000;1.566065
9322.000000;1.565218
9321.000000;1.565684
9320.000000;1.566663
9319.000000;1.567283
9318.000000;1.567176
9317.000000;1.566319
9316.000000;1.564801
9315.000000;1.563067
9314.000000;1.561850
9313.000000;1.561377
9312.000000;1.560894
9311.000000;1.559478
9310.000000;1.557394
9309.000000;1.556068
9308.000000;1.556494
9307.000000;1.558068
9306.000000;1.559183
9305.000000;1.558721
9304.000000;1.556782
9303.000000;1.554277
9302.000000;1.552235
9301.000000;1.551389
9300.000000;1.551876
9299.000000;1.553082
9298.000000;1.554141
9297.000000;1.554907
9296.000000;1.556128
9295.000000;1.558238
9294.000000;1.560175
9293.000000;1.560079
9292.000000;1.557420
9291.000000;1.553808
9290.000000;1.551340
9289.000000;1.550724
9288.000000;1.551280
9287.000000;1.552177
9286.000000;1.553007
9285.000000;1.553445
9284.000000;1.553203
9283.000000;1.552402
9282.000000;1.551513
9281.000000;1.550911
9280.000000;1.550734
9279.000000;1.551101
9278.000000;1.552026
9277.000000;1.552984
9276.000000;1.553011
9275.000000;1.551603
9274.000000;1.549350
9273.000000;1.547540
9272.000000;1.547275
9271.000000;1.548797
9270.000000;1.551175
9269.000000;1.552647
9268.000000;1.551922
9267.000000;1.549418
9266.000000;1.546765
9265.000000;1.544985
9264.000000;1.543698
9263.000000;1.542252
9262.000000;1.540910
9261.000000;1.540459
9260.000000;1.541074
9259.000000;1.542118
9258.000000;1.542838
9257.000000;1.542892
9256.000000;1.542371
9255.000000;1.541661
9254.000000;1.541069
9253.000000;1.540226
9252.000000;1.538221
9251.000000;1.534906
9250.000000;1.531872
9249.000000;1.531443
9248.000000;1.534442
9247.000000;1.539116
9246.000000;1.542373
9245.000000;1.542284
9244.000000;1.539548
9243.000000;1.536518
9242.000000;1.534865
9241.000000;1.534333
9240.000000;1.533760
9239.000000;1.532973
9238.000000;1.533069
9237.000000;1.534729
9236.000000;1.536966
9235.000000;1.538080
9234.000000;1.537450
9233.000000;1.535723
9232.000000;1.533650
9231.000000;1.531619
9230.000000;1.530137
9229.000000;1.529773
9228.000000;1.530334
9227.000000;1.530773
9226.000000;1.530384
9225.000000;1.529693
9224.000000;1.529720
9223.000000;1.530600
9222.000000;1.531339
9221.000000;1.530877
9220.000000;1.529175
9219.000000;1.527255
9218.000000;1.526191
9217.000000;1.526141
9216.000000;1.526528
9215.000000;1.526971
9214.000000;1.527542
9213.000000;1.528033
9212.000000;1.527564
9211.000000;1.525493
9210.000000;1.522488
9209.000000;1.520033
9208.000000;1.518894
9207.000000;1.518627
9206.000000;1.518551
9205.000000;1.518561
9204.000000;1.518802
9203.000000;1.519164
9202.000000;1.519521
9201.000000;1.519981
9200.000000;1.520501
9199.000000;1.520668
9198.000000;1.520313
9197.000000;1.520078
9196.000000;1.520834
9195.000000;1.522598
9194.000000;1.524326
9193.000000;1.524704
9192.000000;1.522971
9191.000000;1.519241
9190.000000;1.514482
9189.000000;1.510238
9188.000000;1.507975
9187.000000;1.508338
9186.000000;1.510924
9185.000000;1.514677
9184.000000;1.518467
9183.000000;1.521431
9182.000000;1.523015
9181.000000;1.522831
9180.000000;1.520635
9179.000000;1.516697
9178.000000;1.512209
9177.000000;1.508868
9176.000000;1.507635
9175.000000;1.507872
9174.000000;1.507914
9173.000000;1.506691
9172.000000;1.504760
9171.000000;1.503766
9170.000000;1.504983
9169.000000;1.508222
9168.000000;1.511848
9167.000000;1.513930
9166.000000;1.513690
9165.000000;1.511935
9164.000000;1.510028
9163.000000;1.508630
9162.000000;1.507650
9161.000000;1.507117
9160.000000;1.507416
9159.000000;1.508504
9158.000000;1.509490
9157.000000;1.509566
9156.000000;1.509110
9155.000000;1.509194
9154.000000;1.509992
9153.000000;1.510250
9152.000000;1.508684
9151.000000;1.505600
9150.000000;1.502671
9149.000000;1.501285
9148.000000;1.501496
9147.000000;1.502278
9146.000000;1.502360
9145.000000;1.501018
9144.000000;1.498455
9143.000000;1.495600
9142.000000;1.493500
9141.000000;1.492673
9140.000000;1.492979
9139.000000;1.494073
9138.000000;1.495733
9137.000000;1.497658
9136.000000;1.499269
9135.000000;1.499945
9134.000000;1.499494
9133.000000;1.498313
9132.000000;1.497113
9131.000000;1.496599
9130.000000;1.497193
9129.000000;1.498680
9128.000000;1.500179
9127.000000;1.500760
9126.000000;1.500175
9125.000000;1.498820
9124.000000;1.497124
9123.000000;1.495295
9122.000000;1.493639
9121.000000;1.492708
9120.000000;1.492797
9119.000000;1.493463
9118.000000;1.493802
9117.000000;1.493210
9116.000000;1.491916
9115.000000;1.490786
9114.000000;1.490510
9113.000000;1.490801
9112.000000;1.490567
9111.000000;1.489235
9110.000000;1.487718
9109.000000;1.487492
9108.000000;1.488761
9107.000000;1.490166
9106.000000;1.490506
9105.000000;1.490133
9104.000000;1.490119
9103.000000;1.490614
9102.000000;1.490773
9101.000000;1.490029
9100.000000;1.488761
9099.000000;1.487724
9098.000000;1.487340
9097.000000;1.487620
9096.000000;1.488340
9095.000000;1.489161
9094.000000;1.489884
9093.000000;1.490626
9092.000000;1.491472
9091.000000;1.491998
9090.000000;1.491533
9089.000000;1.489946
9088.000000;1.487812
9087.000000;1.485766
9086.000000;1.484058
9085.000000;1.482837
9084.000000;1.482444
9083.000000;1.483181
9082.000000;1.484916
9081.000000;1.486975
9080.000000;1.488310
9079.000000;1.487948
9078.000000;1.485800
9077.000000;1.483155
9076.000000;1.481922
9075.000000;1.483052
9074.000000;1.485765
9073.000000;1.488376
9072.000000;1.489649
9071.000000;1.489276
9070.000000;1.487562
9069.000000;1.485120
9068.000000;1.482753
9067.000000;1.481182
9066.000000;1.480644
9065.000000;1.480774
9064.000000;1.480929
9063.000000;1.480727
9062.000000;1.480354
9061.000000;1.480307
9060.000000;1.480775
9059.000000;1.481376
9058.000000;1.481620
9057.000000;1.481453
9056.000000;1.481088
9055.000000;1.480503
9054.000000;1.479542
9053.000000;1.478393
