Criado como novo conjunto de dados;"1909daniel.spp","-4252843.1 Secs"
cm-1;Abs
10000.000000;1.856991
9999.000000;1.858159
9998.000000;1.859329
9997.000000;1.860503
9996.000000;1.861678
9995.000000;1.862861
9994.000000;1.864039
9993.000000;1.865234
9992.000000;1.866396
9991.000000;1.868528
9990.000000;1.870558
9989.000000;1.870249
9988.000000;1.866846
9987.000000;1.862520
9986.000000;1.860252
9985.000000;1.860795
9984.000000;1.862533
9983.000000;1.863859
9982.000000;1.864703
9981.000000;1.865827
9980.000000;1.867601
9979.000000;1.869667
9978.000000;1.871185
9977.000000;1.871214
9976.000000;1.869308
9975.000000;1.865742
9974.000000;1.860925
9973.000000;1.855222
9972.000000;1.849829
9971.000000;1.846906
9970.000000;1.847736
9969.000000;1.851036
9968.000000;1.854268
9967.000000;1.856522
9966.000000;1.858605
9965.000000;1.860373
9964.000000;1.860036
9963.000000;1.856968
9962.000000;1.853439
9961.000000;1.851978
9960.000000;1.852369
9959.000000;1.852652
9958.000000;1.852180
9957.000000;1.852113
9956.000000;1.853050
9955.000000;1.853792
9954.000000;1.852848
9953.000000;1.850248
9952.000000;1.847453
9951.000000;1.845967
9950.000000;1.846156
9949.000000;1.846928
9948.000000;1.846619
9947.000000;1.844604
9946.000000;1.841761
9945.000000;1.839090
9944.000000;1.836618
9943.000000;1.834248
9942.000000;1.832786
9941.000000;1.833040
9940.000000;1.834299
9939.000000;1.834899
9938.000000;1.834323
9937.000000;1.833616
9936.000000;1.833434
9935.000000;1.832794
9934.000000;1.830333
9933.000000;1.826284
9932.000000;1.822627
9931.000000;1.821353
9930.000000;1.822661
9929.000000;1.824638
9928.000000;1.824779
9927.000000;1.822377
9926.000000;1.819426
9925.000000;1.818722
9924.000000;1.821028
9923.000000;1.824353
9922.000000;1.826002
9921.000000;1.825013
9920.000000;1.822362
9919.000000;1.819347
9918.000000;1.816550
9917.000000;1.814287
9916.000000;1.813210
9915.000000;1.813799
9914.000000;1.815327
9913.000000;1.815980
9912.000000;1.814556
9911.000000;1.811719
9910.000000;1.809229
9909.000000;1.808376
9908.000000;1.809405
9907.000000;1.811926
9906.000000;1.814900
9905.000000;1.816476
9904.000000;1.815448
9903.000000;1.813055
9902.000000;1.811902
9901.000000;1.812786
9900.000000;1.813856
9899.000000;1.813319
9898.000000;1.811622
9897.000000;1.810265
9896.000000;1.809806
9895.000000;1.809999
9894.000000;1.810641
9893.000000;1.811212
9892.000000;1.810830
9891.000000;1.809632
9890.000000;1.808953
9889.000000;1.809055
9888.000000;1.808019
9887.000000;1.804358
9886.000000;1.799653
9885.000000;1.796687
9884.000000;1.795934
9883.000000;1.795821
9882.000000;1.795781
9881.000000;1.796767
9880.000000;1.798728
9879.000000;1.799895
9878.000000;1.799269
9877.000000;1.797967
9876.000000;1.797242
9875.000000;1.796688
9874.000000;1.795276
9873.000000;1.792975
9872.000000;1.790424
9871.000000;1.788007
9870.000000;1.786079
9869.000000;1.785361
9868.000000;1.786224
9867.000000;1.787971
9866.000000;1.789427
9865.000000;1.789904
9864.000000;1.789343
9863.000000;1.788037
9862.000000;1.786470
9861.000000;1.784831
9860.000000;1.782546
9859.000000;1.779056
9858.000000;1.775122
9857.000000;1.772493
9856.000000;1.771947
9855.000000;1.772558
9854.000000;1.773298
9853.000000;1.774412
9852.000000;1.776391
9851.000000;1.778287
9850.000000;1.778172
9849.000000;1.775329
9848.000000;1.771319
9847.000000;1.768707
9846.000000;1.768978
9845.000000;1.771512
9844.000000;1.774181
9843.000000;1.775026
9842.000000;1.773735
9841.000000;1.771646
9840.000000;1.770463
9839.000000;1.770980
9838.000000;1.772644
9837.000000;1.773972
9836.000000;1.773668
9835.000000;1.771800
9834.000000;1.769675
9833.000000;1.768083
9832.000000;1.766108
9831.000000;1.762476
9830.000000;1.757801
9829.000000;1.754497
9828.000000;1.754363
9827.000000;1.756886
9826.000000;1.759722
9825.000000;1.760291
9824.000000;1.757398
9823.000000;1.752364
9822.000000;1.748496
9821.000000;1.748548
9820.000000;1.752302
9819.000000;1.756774
9818.000000;1.758836
9817.000000;1.757418
9816.000000;1.753452
9815.000000;1.748804
9814.000000;1.745528
9813.000000;1.745004
9812.000000;1.746981
9811.000000;1.749734
9810.000000;1.751483
9809.000000;1.751409
9808.000000;1.749511
9807.000000;1.746461
9806.000000;1.743641
9805.000000;1.742274
9804.000000;1.742193
9803.000000;1.742015
9802.000000;1.740716
9801.000000;1.738442
9800.000000;1.735760
9799.000000;1.733177
9798.000000;1.731598
9797.000000;1.731958
9796.000000;1.733746
9795.000000;1.734921
9794.000000;1.734212
9793.000000;1.732666
9792.000000;1.731875
9791.000000;1.731560
9790.000000;1.730205
9789.000000;1.727681
9788.000000;1.725987
9787.000000;1.727111
9786.000000;1.730710
9785.000000;1.734059
9784.000000;1.734264
9783.000000;1.730794
9782.000000;1.725861
9781.000000;1.722250
9780.000000;1.721084
9779.000000;1.721727
9778.000000;1.723188
9777.000000;1.724820
9776.000000;1.725883
9775.000000;1.725717
9774.000000;1.724769
9773.000000;1.724485
9772.000000;1.725567
9771.000000;1.726968
9770.000000;1.727149
9769.000000;1.725725
9768.000000;1.723232
9767.000000;1.720089
9766.000000;1.716678
9765.000000;1.713841
9764.000000;1.712432
9763.000000;1.712660
9762.000000;1.714200
9761.000000;1.716436
9760.000000;1.718210
9759.000000;1.718074
9758.000000;1.715636
9757.000000;1.712096
9756.000000;1.708826
9755.000000;1.706063
9754.000000;1.703648
9753.000000;1.702210
9752.000000;1.702586
9751.000000;1.704555
9750.000000;1.707140
9749.000000;1.709761
9748.000000;1.712018
9747.000000;1.712745
9746.000000;1.710727
9745.000000;1.706494
9744.000000;1.702302
9743.000000;1.700173
9742.000000;1.700538
9741.000000;1.702563
9740.000000;1.704883
9739.000000;1.705957
9738.000000;1.704747
9737.000000;1.701654
9736.000000;1.698321
9735.000000;1.696135
9734.000000;1.695212
9733.000000;1.694864
9732.000000;1.694603
9731.000000;1.694454
9730.000000;1.694471
9729.000000;1.694137
9728.000000;1.692352
9727.000000;1.688474
9726.000000;1.683694
9725.000000;1.680742
9724.000000;1.681484
9723.000000;1.684943
9722.000000;1.688207
9721.000000;1.689344
9720.000000;1.688744
9719.000000;1.687532
9718.000000;1.685870
9717.000000;1.683459
9716.000000;1.680844
9715.000000;1.679329
9714.000000;1.679651
9713.000000;1.681325
9712.000000;1.683103
9711.000000;1.683827
9710.000000;1.683267
9709.000000;1.682185
9708.000000;1.681510
9707.000000;1.681481
9706.000000;1.681497
9705.000000;1.680841
9704.000000;1.679480
9703.000000;1.678047
9702.000000;1.677134
9701.000000;1.676787
9700.000000;1.676585
9699.000000;1.676093
9698.000000;1.675149
9697.000000;1.673758
9696.000000;1.671903
9695.000000;1.669626
9694.000000;1.667273
9693.000000;1.665446
9692.000000;1.664590
9691.000000;1.664632
9690.000000;1.665028
9689.000000;1.665186
9688.000000;1.664909
9687.000000;1.664560
9686.000000;1.664695
9685.000000;1.665266
9684.000000;1.665279
9683.000000;1.663678
9682.000000;1.660671
9681.000000;1.657816
9680.000000;1.656631
9679.000000;1.657377
9678.000000;1.659079
9677.000000;1.660270
9676.000000;1.659739
9675.000000;1.657369
9674.000000;1.654704
9673.000000;1.654035
9672.000000;1.656123
9671.000000;1.658958
9670.000000;1.659397
9669.000000;1.656327
9668.000000;1.651858
9667.000000;1.649241
9666.000000;1.649962
9665.000000;1.652786
9664.000000;1.655054
9663.000000;1.654953
9662.000000;1.652961
9661.000000;1.651056
9660.000000;1.650629
9659.000000;1.651434
9658.000000;1.652268
9657.000000;1.652210
9656.000000;1.650972
9655.000000;1.648515
9654.000000;1.645022
9653.000000;1.641192
9652.000000;1.638099
9651.000000;1.636716
9650.000000;1.637545
9649.000000;1.640249
9648.000000;1.643385
9647.000000;1.645046
9646.000000;1.644291
9645.000000;1.641747
9644.000000;1.638593
9643.000000;1.635465
9642.000000;1.632751
9641.000000;1.631211
9640.000000;1.631294
9639.000000;1.632146
9638.000000;1.632316
9637.000000;1.631389
9636.000000;1.629997
9635.000000;1.628372
9634.000000;1.626053
9633.000000;1.623236
9632.000000;1.621231
9631.000000;1.620983
9630.000000;1.621961
9629.000000;1.623062
9628.000000;1.623931
9627.000000;1.624678
9626.000000;1.624912
9625.000000;1.623995
9624.000000;1.622082
9623.000000;1.620252
9622.000000;1.619641
9621.000000;1.620698
9620.000000;1.622949
9619.000000;1.625104
9618.000000;1.625793
9617.000000;1.624788
9616.000000;1.623275
9615.000000;1.622375
9614.000000;1.621678
9613.000000;1.619842
9612.000000;1.616536
9611.000000;1.612997
9610.000000;1.610569
9609.000000;1.609470
9608.000000;1.609237
9607.000000;1.609640
9606.000000;1.610543
9605.000000;1.611279
9604.000000;1.611001
9603.000000;1.609765
9602.000000;1.608707
9601.000000;1.608836
9600.000000;1.609875
9599.000000;1.610610
9598.000000;1.610223
9597.000000;1.608871
9596.000000;1.607037
9595.000000;1.604755
9594.000000;1.601788
9593.000000;1.598465
9592.000000;1.595974
9591.000000;1.595549
9590.000000;1.597372
9589.000000;1.600284
9588.000000;1.602558
9587.000000;1.603071
9586.000000;1.601927
9585.000000;1.600080
9584.000000;1.598496
9583.000000;1.597654
9582.000000;1.597586
9581.000000;1.598054
9580.000000;1.598665
9579.000000;1.599107
9578.000000;1.599294
9577.000000;1.598959
9576.000000;1.597432
9575.000000;1.594464
9574.000000;1.591032
9573.000000;1.588656
9572.000000;1.587825
9571.000000;1.587696
9570.000000;1.587538
9569.000000;1.587616
9568.000000;1.588036
9567.000000;1.587715
9566.000000;1.585758
9565.000000;1.583249
9564.000000;1.582136
9563.000000;1.582561
9562.000000;1.582767
9561.000000;1.581777
9560.000000;1.580642
9559.000000;1.580462
9558.000000;1.580706
9557.000000;1.580535
9556.000000;1.580534
9555.000000;1.581606
9554.000000;1.582805
9553.000000;1.582122
9552.000000;1.579464
9551.000000;1.577113
9550.000000;1.576828
9549.000000;1.577948
9548.000000;1.578867
9547.000000;1.579241
9546.000000;1.579767
9545.000000;1.580525
9544.000000;1.580735
9543.000000;1.580046
9542.000000;1.579103
9541.000000;1.578576
9540.000000;1.578193
9539.000000;1.577110
9538.000000;1.575010
9537.000000;1.572610
9536.000000;1.571020
9535.000000;1.570680
9534.000000;1.570941
9533.000000;1.570667
9532.000000;1.569120
9531.000000;1.566209
9530.000000;1.562296
9529.000000;1.558234
9528.000000;1.555358
9527.000000;1.554674
9526.000000;1.555811
9525.000000;1.557259
9524.000000;1.557991
9523.000000;1.558462
9522.000000;1.559544
9521.000000;1.560885
9520.000000;1.560986
9519.000000;1.558976
9518.000000;1.555837
9517.000000;1.553674
9516.000000;1.553931
9515.000000;1.556275
9514.000000;1.558937
9513.000000;1.560171
9512.000000;1.559534
9511.000000;1.557730
9510.000000;1.555511
9509.000000;1.553379
9508.000000;1.552258
9507.000000;1.553308
9506.000000;1.556286
9505.000000;1.558731
9504.000000;1.558043
9503.000000;1.554465
9502.000000;1.550899
9501.000000;1.549632
9500.000000;1.550226
9499.000000;1.550740
9498.000000;1.550083
9497.000000;1.548602
9496.000000;1.547067
9495.000000;1.546054
9494.000000;1.546006
9493.000000;1.547005
9492.000000;1.548321
9491.000000;1.548804
9490.000000;1.548003
9489.000000;1.546604
9488.000000;1.545534
9487.000000;1.544835
9486.000000;1.543634
9485.000000;1.541285
9484.000000;1.538360
9483.000000;1.536280
9482.000000;1.535826
9481.000000;1.536266
9480.000000;1.536220
9479.000000;1.535336
9478.000000;1.534641
9477.000000;1.535052
9476.000000;1.536092
9475.000000;1.536598
9474.000000;1.536172
9473.000000;1.535208
9472.000000;1.533886
9471.000000;1.532025
9470.000000;1.529855
9469.000000;1.528094
9468.000000;1.527067
9467.000000;1.526405
9466.000000;1.525883
9465.000000;1.526004
9464.000000;1.527256
9463.000000;1.529019
9462.000000;1.529815
9461.000000;1.528740
9460.000000;1.526395
9459.000000;1.524277
9458.000000;1.523433
9457.000000;1.523751
9456.000000;1.524423
9455.000000;1.524912
9454.000000;1.525322
9453.000000;1.525875
9452.000000;1.526359
9451.000000;1.526380
9450.000000;1.525910
9449.000000;1.525160
9448.000000;1.524045
9447.000000;1.522327
9446.000000;1.520304
9445.000000;1.518760
9444.000000;1.517960
9443.000000;1.517217
9442.000000;1.515832
9441.000000;1.514145
9440.000000;1.513110
9439.000000;1.513098
9438.000000;1.513561
9437.000000;1.513717
9436.000000;1.513152
9435.000000;1.511796
9434.000000;1.509831
9433.000000;1.507811
9432.000000;1.506494
9431.000000;1.506343
9430.000000;1.507228
9429.000000;1.508569
9428.000000;1.509719
9427.000000;1.510428
9426.000000;1.511014
9425.000000;1.511850
9424.000000;1.512551
9423.000000;1.512032
9422.000000;1.509833
9421.000000;1.507190
9420.000000;1.506069
9419.000000;1.506929
9418.000000;1.508009
9417.000000;1.507316
9416.000000;1.504902
9415.000000;1.502517
9414.000000;1.501435
9413.000000;1.501448
9412.000000;1.501797
9411.000000;1.502219
9410.000000;1.502796
9409.000000;1.503375
9408.000000;1.503606
9407.000000;1.503303
9406.000000;1.502374
9405.000000;1.500514
9404.000000;1.497435
9403.000000;1.493602
9402.000000;1.490425
9401.000000;1.489343
9400.000000;1.490626
9399.000000;1.493111
9398.000000;1.495148
9397.000000;1.495866
9396.000000;1.495548
9395.000000;1.494822
9394.000000;1.493837
9393.000000;1.492444
9392.000000;1.490869
9391.000000;1.489676
9390.000000;1.489045
9389.000000;1.488644
9388.000000;1.488295
9387.000000;1.488307
9386.000000;1.488881
9385.000000;1.489573
9384.000000;1.489808
9383.000000;1.489630
9382.000000;1.489396
9381.000000;1.488899
9380.000000;1.487477
9379.000000;1.485057
9378.000000;1.482584
9377.000000;1.481181
9376.000000;1.481146
9375.000000;1.481812
9374.000000;1.482074
9373.000000;1.481132
9372.000000;1.479216
9371.000000;1.477642
9370.000000;1.477687
9369.000000;1.479208
9368.000000;1.480709
9367.000000;1.480925
9366.000000;1.479958
9365.000000;1.478676
9364.000000;1.477604
9363.000000;1.476840
9362.000000;1.476443
9361.000000;1.476205
9360.000000;1.475424
9359.000000;1.473726
9358.000000;1.471958
9357.000000;1.471513
9356.000000;1.472639
9355.000000;1.473966
9354.000000;1.473864
9353.000000;1.471923
9352.000000;1.469090
9351.000000;1.466781
9350.000000;1.465989
9349.000000;1.466725
9348.000000;1.467944
9347.000000;1.468335
9346.000000;1.467635
9345.000000;1.466975
9344.000000;1.467568
9343.000000;1.469213
9342.000000;1.470286
9341.000000;1.469273
9340.000000;1.466245
9339.000000;1.462767
9338.000000;1.460463
9337.000000;1.459786
9336.000000;1.460094
9335.000000;1.460631
9334.000000;1.461118
9333.000000;1.461368
9332.000000;1.460813
9331.000000;1.459072
9330.000000;1.456867
9329.000000;1.455685
9328.000000;1.456294
9327.000000;1.457930
9326.000000;1.459072
9325.000000;1.458800
9324.000000;1.457328
9323.000000;1.455593
9322.000000;1.454618
9321.000000;1.454930
9320.000000;1.456083
9319.000000;1.456826
9318.000000;1.456241
9317.000000;1.454798
9316.000000;1.453869
9315.000000;1.454057
9314.000000;1.454344
9313.000000;1.453252
9312.000000;1.450846
9311.000000;1.449034
9310.000000;1.449542
9309.000000;1.451837
9308.000000;1.453508
9307.000000;1.452814
9306.000000;1.450404
9305.000000;1.448206
9304.000000;1.447139
9303.000000;1.446527
9302.000000;1.445485
9301.000000;1.444219
9300.000000;1.443755
9299.000000;1.444740
9298.000000;1.446709
9297.000000;1.448354
9296.000000;1.448532
9295.000000;1.447238
9294.000000;1.445548
9293.000000;1.444496
9292.000000;1.444166
9291.000000;1.444019
9290.000000;1.443738
9289.000000;1.443361
9288.000000;1.442781
9287.000000;1.441769
9286.000000;1.440712
9285.000000;1.440704
9284.000000;1.442332
9283.000000;1.444677
9282.000000;1.446019
9281.000000;1.445458
9280.000000;1.443566
9279.000000;1.441639
9278.000000;1.440590
9277.000000;1.440482
9276.000000;1.440772
9275.000000;1.440831
9274.000000;1.440269
9273.000000;1.438942
9272.000000;1.436999
9271.000000;1.435146
9270.000000;1.434511
9269.000000;1.435561
9268.000000;1.437129
9267.000000;1.437267
9266.000000;1.435541
9265.000000;1.433823
9264.000000;1.434161
9263.000000;1.436291
9262.000000;1.437824
9261.000000;1.436862
9260.000000;1.433864
9259.000000;1.430801
9258.000000;1.429114
9257.000000;1.428764
9256.000000;1.428795
9255.000000;1.428430
9254.000000;1.427671
9253.000000;1.427067
9252.000000;1.427135
9251.000000;1.428072
9250.000000;1.429708
9249.000000;1.431334
9248.000000;1.431790
9247.000000;1.430297
9246.000000;1.427419
9245.000000;1.424809
9244.000000;1.423678
9243.000000;1.423700
9242.000000;1.423659
9241.000000;1.422943
9240.000000;1.422045
9239.000000;1.421738
9238.000000;1.422256
9237.000000;1.423300
9236.000000;1.424452
9235.000000;1.425505
9234.000000;1.426494
9233.000000;1.427341
9232.000000;1.427423
9231.000000;1.425897
9230.000000;1.422861
9229.000000;1.419848
9228.000000;1.418526
9227.000000;1.418959
9226.000000;1.419620
9225.000000;1.419192
9224.000000;1.417932
9223.000000;1.417113
9222.000000;1.417587
9221.000000;1.419135
9220.000000;1.420834
9219.000000;1.421720
9218.000000;1.421330
9217.000000;1.419918
9216.000000;1.418172
9215.000000;1.416616
9214.000000;1.415309
9213.000000;1.414041
9212.000000;1.412665
9211.000000;1.411262
9210.000000;1.410220
9209.000000;1.410122
9208.000000;1.411265
9207.000000;1.413164
9206.000000;1.414831
9205.000000;1.415658
9204.000000;1.415752
9203.000000;1.415279
9202.000000;1.413957
9201.000000;1.411648
9200.000000;1.409121
9199.000000;1.407682
9198.000000;1.408031
9197.000000;1.409768
9196.000000;1.411869
9195.000000;1.413336
9194.000000;1.413425
9193.000000;1.411753
9192.000000;1.408606
9191.000000;1.405026
9190.000000;1.402295
9189.000000;1.401296
9188.000000;1.402251
9187.000000;1.404611
9186.000000;1.407015
9185.000000;1.407828
9184.000000;1.406432
9183.000000;1.403981
9182.000000;1.402292
9181.000000;1.401932
9180.000000;1.401881
9179.000000;1.401200
9178.000000;1.400409
9177.000000;1.400614
9176.000000;1.401712
9175.000000;1.402348
9174.000000;1.401698
9173.000000;1.400506
9172.000000;1.399985
9171.000000;1.400325
9170.000000;1.400730
9169.000000;1.400490
9168.000000;1.399530
9167.000000;1.398243
9166.000000;1.397247
9165.000000;1.397119
9164.000000;1.397863
9163.000000;1.398777
9162.000000;1.399292
9161.000000;1.399743
9160.000000;1.400717
9159.000000;1.401744
9158.000000;1.401333
9157.000000;1.398615
9156.000000;1.394499
9155.000000;1.390878
9154.000000;1.389061
9153.000000;1.389144
9152.000000;1.390416
9151.000000;1.391951
9150.000000;1.393019
9149.000000;1.393343
9148.000000;1.393073
9147.000000;1.392488
9146.000000;1.391867
9145.000000;1.391612
9144.000000;1.392086
9143.000000;1.393078
9142.000000;1.393726
9141.000000;1.393356
9140.000000;1.392228
9139.000000;1.391044
9138.000000;1.389927
9137.000000;1.388440
9136.000000;1.386571
9135.000000;1.385061
9134.000000;1.384486
9133.000000;1.384555
9132.000000;1.384742
9131.000000;1.385129
9130.000000;1.385938
9129.000000;1.386487
9128.000000;1.385588
9127.000000;1.383251
9126.000000;1.381160
9125.000000;1.380847
9124.000000;1.381902
9123.000000;1.382637
9122.000000;1.382326
9121.000000;1.381951
9120.000000;1.382626
9119.000000;1.384097
9118.000000;1.385200
9117.000000;1.385249
9116.000000;1.384435
9115.000000;1.383206
9114.000000;1.381922
9113.000000;1.381008
9112.000000;1.380830
9111.000000;1.381283
9110.000000;1.381752
9109.000000;1.381646
9108.000000;1.380892
9107.000000;1.379959
9106.000000;1.379537
9105.000000;1.380103
9104.000000;1.381519
9103.000000;1.382960
9102.000000;1.383437
9101.000000;1.382628
9100.000000;1.381189
9099.000000;1.380165
9098.000000;1.380045
9097.000000;1.380298
9096.000000;1.379840
9095.000000;1.378169
9094.000000;1.376053
9093.000000;1.374861
9092.000000;1.375196
9091.000000;1.376442
9090.000000;1.377680
9089.000000;1.378573
9088.000000;1.379053
9087.000000;1.378637
9086.000000;1.376850
9085.000000;1.374214
9084.000000;1.372119
9083.000000;1.371520
9082.000000;1.372157
9081.000000;1.373143
9080.000000;1.373954
9079.000000;1.374619
9078.000000;1.375226
9077.000000;1.375554
9076.000000;1.375190
9075.000000;1.373940
9074.000000;1.372220
9073.000000;1.370980
9072.000000;1.371014
9071.000000;1.372227
9070.000000;1.373650
9069.000000;1.374207
9068.000000;1.373499
9067.000000;1.372002
9066.000000;1.370658
9065.000000;1.370198
9064.000000;1.370608
9063.000000;1.371203
9062.000000;1.371389
9061.000000;1.371264
9060.000000;1.371229
9059.000000;1.371134
9058.000000;1.370267
9057.000000;1.368311
9056.000000;1.365978
9055.000000;1.364423
9054.000000;1.364170
9053.000000;1.364779
