Criado como novo conjunto de dados;"1909daniel.spp","-4247082.8 Secs"
cm-1;Abs
10000.000000;1.805375
9999.000000;1.801742
9998.000000;1.798125
9997.000000;1.794563
9996.000000;1.790982
9995.000000;1.787839
9994.000000;1.785828
9993.000000;1.785613
9992.000000;1.786971
9991.000000;1.788175
9990.000000;1.787385
9989.000000;1.784439
9988.000000;1.781205
9987.000000;1.779973
9986.000000;1.781549
9985.000000;1.784567
9984.000000;1.786694
9983.000000;1.786806
9982.000000;1.785896
9981.000000;1.785719
9980.000000;1.786933
9979.000000;1.788739
9978.000000;1.789973
9977.000000;1.790074
9976.000000;1.788945
9975.000000;1.786700
9974.000000;1.784144
9973.000000;1.782678
9972.000000;1.782832
9971.000000;1.783309
9970.000000;1.782319
9969.000000;1.779741
9968.000000;1.777225
9967.000000;1.776237
9966.000000;1.776660
9965.000000;1.777174
9964.000000;1.776343
9963.000000;1.773407
9962.000000;1.768814
9961.000000;1.764262
9960.000000;1.761633
9959.000000;1.761497
9958.000000;1.762941
9957.000000;1.764916
9956.000000;1.767021
9955.000000;1.768600
9954.000000;1.768265
9953.000000;1.765509
9952.000000;1.762173
9951.000000;1.760939
9950.000000;1.762444
9949.000000;1.764710
9948.000000;1.765458
9947.000000;1.764321
9946.000000;1.762499
9945.000000;1.761073
9944.000000;1.760180
9943.000000;1.759336
9942.000000;1.758110
9941.000000;1.756544
9940.000000;1.754992
9939.000000;1.753647
9938.000000;1.752453
9937.000000;1.751609
9936.000000;1.751689
9935.000000;1.752779
9934.000000;1.753923
9933.000000;1.754265
9932.000000;1.754461
9931.000000;1.755773
9930.000000;1.757655
9929.000000;1.757512
9928.000000;1.753654
9927.000000;1.747598
9926.000000;1.742548
9925.000000;1.740349
9924.000000;1.740597
9923.000000;1.741959
9922.000000;1.743483
9921.000000;1.744847
9920.000000;1.746130
9919.000000;1.747426
9918.000000;1.748327
9917.000000;1.748006
9916.000000;1.746182
9915.000000;1.743642
9914.000000;1.741255
9913.000000;1.738950
9912.000000;1.736406
9911.000000;1.734333
9910.000000;1.734034
9909.000000;1.735584
9908.000000;1.737264
9907.000000;1.737282
9906.000000;1.735587
9905.000000;1.733529
9904.000000;1.732298
9903.000000;1.732246
9902.000000;1.733204
9901.000000;1.734628
9900.000000;1.735500
9899.000000;1.734778
9898.000000;1.732302
9897.000000;1.729029
9896.000000;1.726101
9895.000000;1.723869
9894.000000;1.722022
9893.000000;1.720429
9892.000000;1.719513
9891.000000;1.719717
9890.000000;1.720666
9889.000000;1.721186
9888.000000;1.720270
9887.000000;1.717827
9886.000000;1.714538
9885.000000;1.711366
9884.000000;1.709301
9883.000000;1.709121
9882.000000;1.710854
9881.000000;1.713449
9880.000000;1.715336
9879.000000;1.715520
9878.000000;1.714085
9877.000000;1.711756
9876.000000;1.709335
9875.000000;1.707560
9874.000000;1.707002
9873.000000;1.707666
9872.000000;1.708791
9871.000000;1.709256
9870.000000;1.708318
9869.000000;1.706194
9868.000000;1.704042
9867.000000;1.703250
9866.000000;1.704338
9865.000000;1.706242
9864.000000;1.706904
9863.000000;1.705141
9862.000000;1.701976
9861.000000;1.699688
9860.000000;1.699620
9859.000000;1.701252
9858.000000;1.703090
9857.000000;1.703845
9856.000000;1.702859
9855.000000;1.700223
9854.000000;1.696979
9853.000000;1.694611
9852.000000;1.693632
9851.000000;1.692958
9850.000000;1.691290
9849.000000;1.688861
9848.000000;1.687035
9847.000000;1.686457
9846.000000;1.686653
9845.000000;1.687364
9844.000000;1.688986
9843.000000;1.691235
9842.000000;1.692619
9841.000000;1.692158
9840.000000;1.690583
9839.000000;1.688771
9838.000000;1.686110
9837.000000;1.681913
9836.000000;1.677713
9835.000000;1.676315
9834.000000;1.678594
9833.000000;1.682582
9832.000000;1.685804
9831.000000;1.687397
9830.000000;1.687655
9829.000000;1.686807
9828.000000;1.685016
9827.000000;1.682718
9826.000000;1.680275
9825.000000;1.677931
9824.000000;1.676390
9823.000000;1.676429
9822.000000;1.677486
9821.000000;1.677767
9820.000000;1.676498
9819.000000;1.674939
9818.000000;1.674286
9817.000000;1.673751
9816.000000;1.671941
9815.000000;1.669292
9814.000000;1.667551
9813.000000;1.667358
9812.000000;1.667805
9811.000000;1.668038
9810.000000;1.667946
9809.000000;1.667358
9808.000000;1.665924
9807.000000;1.664027
9806.000000;1.662729
9805.000000;1.662543
9804.000000;1.663083
9803.000000;1.663906
9802.000000;1.664701
9801.000000;1.664627
9800.000000;1.662759
9799.000000;1.659621
9798.000000;1.657112
9797.000000;1.656286
9796.000000;1.656135
9795.000000;1.655197
9794.000000;1.653645
9793.000000;1.652911
9792.000000;1.653708
9791.000000;1.655213
9790.000000;1.655955
9789.000000;1.654935
9788.000000;1.652124
9787.000000;1.648416
9786.000000;1.644979
9785.000000;1.642394
9784.000000;1.640603
9783.000000;1.639761
9782.000000;1.640507
9781.000000;1.642766
9780.000000;1.644764
9779.000000;1.644257
9778.000000;1.640965
9777.000000;1.637091
9776.000000;1.635220
9775.000000;1.636156
9774.000000;1.638628
9773.000000;1.640596
9772.000000;1.640867
9771.000000;1.639690
9770.000000;1.637978
9769.000000;1.636094
9768.000000;1.633675
9767.000000;1.630762
9766.000000;1.628620
9765.000000;1.628744
9764.000000;1.631089
9763.000000;1.633865
9762.000000;1.635293
9761.000000;1.635200
9760.000000;1.634654
9759.000000;1.634513
9758.000000;1.634762
9757.000000;1.634907
9756.000000;1.634427
9755.000000;1.632929
9754.000000;1.630424
9753.000000;1.627440
9752.000000;1.624631
9751.000000;1.622417
9750.000000;1.621185
9749.000000;1.621545
9748.000000;1.623753
9747.000000;1.626840
9746.000000;1.628950
9745.000000;1.629003
9744.000000;1.627667
9743.000000;1.626289
9742.000000;1.625385
9741.000000;1.624670
9740.000000;1.624075
9739.000000;1.623909
9738.000000;1.624000
9737.000000;1.623404
9736.000000;1.621375
9735.000000;1.618230
9734.000000;1.615075
9733.000000;1.613025
9732.000000;1.612679
9731.000000;1.613714
9730.000000;1.614853
9729.000000;1.614890
9728.000000;1.613988
9727.000000;1.613333
9726.000000;1.613301
9725.000000;1.612848
9724.000000;1.611216
9723.000000;1.609284
9722.000000;1.608234
9721.000000;1.607630
9720.000000;1.606086
9719.000000;1.603550
9718.000000;1.601596
9717.000000;1.601259
9716.000000;1.601709
9715.000000;1.601505
9714.000000;1.600389
9713.000000;1.599251
9712.000000;1.598789
9711.000000;1.598804
9710.000000;1.598664
9709.000000;1.598096
9708.000000;1.597465
9707.000000;1.597289
9706.000000;1.597434
9705.000000;1.596923
9704.000000;1.594926
9703.000000;1.591952
9702.000000;1.589512
9701.000000;1.588535
9700.000000;1.588671
9699.000000;1.589266
9698.000000;1.590319
9697.000000;1.591976
9696.000000;1.593592
9695.000000;1.593962
9694.000000;1.592505
9693.000000;1.589913
9692.000000;1.587521
9691.000000;1.586220
9690.000000;1.585917
9689.000000;1.585723
9688.000000;1.584736
9687.000000;1.582802
9686.000000;1.580501
9685.000000;1.578464
9684.000000;1.577006
9683.000000;1.576428
9682.000000;1.577057
9681.000000;1.578596
9680.000000;1.579996
9679.000000;1.580518
9678.000000;1.580572
9677.000000;1.580801
9676.000000;1.580654
9675.000000;1.578807
9674.000000;1.575160
9673.000000;1.571583
9672.000000;1.570165
9671.000000;1.571240
9670.000000;1.573412
9669.000000;1.575104
9668.000000;1.575658
9667.000000;1.575124
9666.000000;1.573673
9665.000000;1.571597
9664.000000;1.569593
9663.000000;1.568486
9662.000000;1.568442
9661.000000;1.568616
9660.000000;1.567862
9659.000000;1.565918
9658.000000;1.563725
9657.000000;1.562482
9656.000000;1.562541
9655.000000;1.563340
9654.000000;1.564102
9653.000000;1.564332
9652.000000;1.563834
9651.000000;1.562677
9650.000000;1.561168
9649.000000;1.559668
9648.000000;1.558218
9647.000000;1.556417
9646.000000;1.553847
9645.000000;1.550737
9644.000000;1.548106
9643.000000;1.547036
9642.000000;1.547738
9641.000000;1.549348
9640.000000;1.550747
9639.000000;1.551563
9638.000000;1.552139
9637.000000;1.552571
9636.000000;1.552320
9635.000000;1.551025
9634.000000;1.549271
9633.000000;1.547961
9632.000000;1.547051
9631.000000;1.545719
9630.000000;1.543924
9629.000000;1.542905
9628.000000;1.543535
9627.000000;1.544760
9626.000000;1.544551
9625.000000;1.542288
9624.000000;1.539310
9623.000000;1.537130
9622.000000;1.536034
9621.000000;1.535677
9620.000000;1.536146
9619.000000;1.537640
9618.000000;1.539502
9617.000000;1.540487
9616.000000;1.540026
9615.000000;1.538626
9614.000000;1.536961
9613.000000;1.535205
9612.000000;1.533482
9611.000000;1.532370
9610.000000;1.532394
9609.000000;1.533204
9608.000000;1.533773
9607.000000;1.533454
9606.000000;1.532455
9605.000000;1.531315
9604.000000;1.530268
9603.000000;1.529238
9602.000000;1.528293
9601.000000;1.527797
9600.000000;1.527980
9599.000000;1.528536
9598.000000;1.528781
9597.000000;1.528142
9596.000000;1.526493
9595.000000;1.524222
9594.000000;1.522084
9593.000000;1.520861
9592.000000;1.520870
9591.000000;1.521550
9590.000000;1.521760
9589.000000;1.520683
9588.000000;1.518304
9587.000000;1.515038
9586.000000;1.511360
9585.000000;1.508062
9584.000000;1.506346
9583.000000;1.506940
9582.000000;1.508988
9581.000000;1.510383
9580.000000;1.509643
9579.000000;1.507304
9578.000000;1.505170
9577.000000;1.504528
9576.000000;1.505333
9575.000000;1.506728
9574.000000;1.507863
9573.000000;1.508340
9572.000000;1.508311
9571.000000;1.508304
9570.000000;1.508797
9569.000000;1.509831
9568.000000;1.510951
9567.000000;1.511454
9566.000000;1.510776
9565.000000;1.508819
9564.000000;1.506067
9563.000000;1.503310
9562.000000;1.501211
9561.000000;1.500140
9560.000000;1.500188
9559.000000;1.500989
9558.000000;1.501581
9557.000000;1.500961
9556.000000;1.499002
9555.000000;1.496425
9554.000000;1.493781
9553.000000;1.491089
9552.000000;1.488801
9551.000000;1.488257
9550.000000;1.490289
9549.000000;1.493795
9548.000000;1.496565
9547.000000;1.497514
9546.000000;1.497289
9545.000000;1.496653
9544.000000;1.495392
9543.000000;1.493163
9542.000000;1.490444
9541.000000;1.488006
9540.000000;1.486090
9539.000000;1.484708
9538.000000;1.484206
9537.000000;1.484846
9536.000000;1.486076
9535.000000;1.486828
9534.000000;1.486471
9533.000000;1.485101
9532.000000;1.483060
9531.000000;1.480738
9530.000000;1.478793
9529.000000;1.477967
9528.000000;1.478422
9527.000000;1.479465
9526.000000;1.480076
9525.000000;1.479614
9524.000000;1.478136
9523.000000;1.476309
9522.000000;1.474991
9521.000000;1.474584
9520.000000;1.474694
9519.000000;1.474532
9518.000000;1.473678
9517.000000;1.472354
9516.000000;1.471113
9515.000000;1.470575
9514.000000;1.471278
9513.000000;1.473242
9512.000000;1.475548
9511.000000;1.476800
9510.000000;1.476310
9509.000000;1.474671
9508.000000;1.473020
9507.000000;1.471988
9506.000000;1.471488
9505.000000;1.471195
9504.000000;1.470910
9503.000000;1.470604
9502.000000;1.470352
9501.000000;1.470146
9500.000000;1.469672
9499.000000;1.468505
9498.000000;1.466717
9497.000000;1.464974
9496.000000;1.463723
9495.000000;1.462588
9494.000000;1.461039
9493.000000;1.459454
9492.000000;1.458768
9491.000000;1.458992
9490.000000;1.458798
9489.000000;1.457117
9488.000000;1.454678
9487.000000;1.453273
9486.000000;1.453769
9485.000000;1.455441
9484.000000;1.457096
9483.000000;1.458137
9482.000000;1.458300
9481.000000;1.457191
9480.000000;1.454831
9479.000000;1.452288
9478.000000;1.450985
9477.000000;1.451305
9476.000000;1.452257
9475.000000;1.452561
9474.000000;1.451764
9473.000000;1.450293
9472.000000;1.448826
9471.000000;1.447724
9470.000000;1.446769
9469.000000;1.445303
9468.000000;1.442978
9467.000000;1.440529
9466.000000;1.439382
9465.000000;1.440183
9464.000000;1.442010
9463.000000;1.443446
9462.000000;1.444115
9461.000000;1.444598
9460.000000;1.445089
9459.000000;1.445027
9458.000000;1.444182
9457.000000;1.443247
9456.000000;1.442847
9455.000000;1.442608
9454.000000;1.441880
9453.000000;1.440905
9452.000000;1.440442
9451.000000;1.440448
9450.000000;1.440034
9449.000000;1.438870
9448.000000;1.437853
9447.000000;1.437925
9446.000000;1.438706
9445.000000;1.438820
9444.000000;1.437434
9443.000000;1.435043
9442.000000;1.432721
9441.000000;1.431014
9440.000000;1.429753
9439.000000;1.428795
9438.000000;1.428669
9437.000000;1.430138
9436.000000;1.432974
9435.000000;1.435529
9434.000000;1.436035
9433.000000;1.434352
9432.000000;1.431863
9431.000000;1.429695
9430.000000;1.427742
9429.000000;1.425619
9428.000000;1.423737
9427.000000;1.422795
9426.000000;1.422689
9425.000000;1.422670
9424.000000;1.422353
9423.000000;1.421918
9422.000000;1.421471
9421.000000;1.420842
9420.000000;1.420089
9419.000000;1.419605
9418.000000;1.419506
9417.000000;1.419391
9416.000000;1.418857
9415.000000;1.417865
9414.000000;1.416569
9413.000000;1.415292
9412.000000;1.414727
9411.000000;1.415556
9410.000000;1.417610
9409.000000;1.419811
9408.000000;1.421125
9407.000000;1.421190
9406.000000;1.419889
9405.000000;1.417095
9404.000000;1.413360
9403.000000;1.410130
9402.000000;1.408576
9401.000000;1.408572
9400.000000;1.409252
9399.000000;1.410194
9398.000000;1.411433
9397.000000;1.412553
9396.000000;1.412688
9395.000000;1.411617
9394.000000;1.410182
9393.000000;1.409356
9392.000000;1.409312
9391.000000;1.409626
9390.000000;1.409944
9389.000000;1.410072
9388.000000;1.409683
9387.000000;1.408363
9386.000000;1.406020
9385.000000;1.403122
9384.000000;1.400567
9383.000000;1.399273
9382.000000;1.399654
9381.000000;1.401235
9380.000000;1.402743
9379.000000;1.402845
9378.000000;1.401143
9377.000000;1.398634
9376.000000;1.396995
9375.000000;1.397094
9374.000000;1.398073
9373.000000;1.398164
9372.000000;1.396634
9371.000000;1.394567
9370.000000;1.393426
9369.000000;1.393292
9368.000000;1.393031
9367.000000;1.391924
9366.000000;1.390416
9365.000000;1.389243
9364.000000;1.388562
9363.000000;1.388254
9362.000000;1.388512
9361.000000;1.389623
9360.000000;1.391307
9359.000000;1.392686
9358.000000;1.392918
9357.000000;1.391759
9356.000000;1.389670
9355.000000;1.387497
9354.000000;1.385919
9353.000000;1.385013
9352.000000;1.384388
9351.000000;1.383818
9350.000000;1.383543
9349.000000;1.383748
9348.000000;1.383984
9347.000000;1.383508
9346.000000;1.382197
9345.000000;1.380773
9344.000000;1.380035
9343.000000;1.380099
9342.000000;1.380523
9341.000000;1.380949
9340.000000;1.381312
9339.000000;1.381502
9338.000000;1.381203
9337.000000;1.380326
9336.000000;1.379424
9335.000000;1.379243
9334.000000;1.379774
9333.000000;1.380110
9332.000000;1.379485
9331.000000;1.378201
9330.000000;1.377134
9329.000000;1.376507
9328.000000;1.375700
9327.000000;1.374282
9326.000000;1.372635
9325.000000;1.371325
9324.000000;1.370375
9323.000000;1.369593
9322.000000;1.369279
9321.000000;1.370015
9320.000000;1.371800
9319.000000;1.373840
9318.000000;1.375306
9317.000000;1.376012
9316.000000;1.376255
9315.000000;1.376247
9314.000000;1.375931
9313.000000;1.375209
9312.000000;1.374135
9311.000000;1.372864
9310.000000;1.371506
9309.000000;1.370084
9308.000000;1.368701
9307.000000;1.367701
9306.000000;1.367430
9305.000000;1.367682
9304.000000;1.367552
9303.000000;1.366171
9302.000000;1.363684
9301.000000;1.361197
9300.000000;1.359698
9299.000000;1.359312
9298.000000;1.359613
9297.000000;1.360260
9296.000000;1.361026
9295.000000;1.361475
9294.000000;1.361089
9293.000000;1.359808
9292.000000;1.358199
9291.000000;1.356922
9290.000000;1.356156
9289.000000;1.355625
9288.000000;1.355032
9287.000000;1.354421
9286.000000;1.354183
9285.000000;1.354764
9284.000000;1.356200
9283.000000;1.357833
9282.000000;1.358550
9281.000000;1.357516
9280.000000;1.354916
9279.000000;1.352041
9278.000000;1.350448
9277.000000;1.350791
9276.000000;1.352358
9275.000000;1.353830
9274.000000;1.354538
9273.000000;1.354762
9272.000000;1.354810
9271.000000;1.354399
9270.000000;1.353308
9269.000000;1.352148
9268.000000;1.351721
9267.000000;1.351705
9266.000000;1.350799
9265.000000;1.348477
9264.000000;1.345932
9263.000000;1.344707
9262.000000;1.344869
9261.000000;1.345158
9260.000000;1.344711
9259.000000;1.343994
9258.000000;1.343927
9257.000000;1.344656
9256.000000;1.345475
9255.000000;1.345732
9254.000000;1.345596
9253.000000;1.345922
9252.000000;1.347346
9251.000000;1.349412
9250.000000;1.350675
9249.000000;1.349982
9248.000000;1.347704
9247.000000;1.345354
9246.000000;1.343995
9245.000000;1.343350
9244.000000;1.342487
9243.000000;1.341040
9242.000000;1.339543
9241.000000;1.338759
9240.000000;1.338919
9239.000000;1.339564
9238.000000;1.340020
9237.000000;1.340047
9236.000000;1.340057
9235.000000;1.340502
9234.000000;1.341091
9233.000000;1.340920
9232.000000;1.339522
9231.000000;1.337532
9230.000000;1.336138
9229.000000;1.336037
9228.000000;1.337004
9227.000000;1.338178
9226.000000;1.338628
9225.000000;1.337881
9224.000000;1.336225
9223.000000;1.334473
9222.000000;1.333347
9221.000000;1.333157
9220.000000;1.333939
9219.000000;1.335471
9218.000000;1.336950
9217.000000;1.337149
9216.000000;1.335457
9215.000000;1.332675
9214.000000;1.330355
9213.000000;1.329386
9212.000000;1.329503
9211.000000;1.329994
9210.000000;1.330428
9209.000000;1.330578
9208.000000;1.330106
9207.000000;1.328805
9206.000000;1.326992
9205.000000;1.325338
9204.000000;1.324331
9203.000000;1.323977
9202.000000;1.323983
9201.000000;1.324158
9200.000000;1.324532
9199.000000;1.325006
9198.000000;1.325072
9197.000000;1.324241
9196.000000;1.322835
9195.000000;1.321908
9194.000000;1.322090
9193.000000;1.322765
9192.000000;1.322784
9191.000000;1.321869
9190.000000;1.320821
9189.000000;1.320383
9188.000000;1.320475
9187.000000;1.320710
9186.000000;1.321125
9185.000000;1.321955
9184.000000;1.322917
9183.000000;1.323238
9182.000000;1.322493
9181.000000;1.321182
9180.000000;1.320288
9179.000000;1.320297
9178.000000;1.320711
9177.000000;1.320515
9176.000000;1.319197
9175.000000;1.317292
9174.000000;1.315903
9173.000000;1.315715
9172.000000;1.316510
9171.000000;1.317500
9170.000000;1.317879
9169.000000;1.317182
9168.000000;1.315483
9167.000000;1.313422
9166.000000;1.311834
9165.000000;1.311148
9164.000000;1.311131
9163.000000;1.311221
9162.000000;1.311032
9161.000000;1.310560
9160.000000;1.310075
9159.000000;1.309853
9158.000000;1.309878
9157.000000;1.309805
9156.000000;1.309432
9155.000000;1.309158
9154.000000;1.309589
9153.000000;1.310622
9152.000000;1.311359
9151.000000;1.311193
9150.000000;1.310571
9149.000000;1.310263
9148.000000;1.310196
9147.000000;1.309634
9146.000000;1.308401
9145.000000;1.307299
9144.000000;1.307139
9143.000000;1.307878
9142.000000;1.308949
9141.000000;1.309981
9140.000000;1.310782
9139.000000;1.310987
9138.000000;1.310284
9137.000000;1.308902
9136.000000;1.307373
9135.000000;1.305796
9134.000000;1.303817
9133.000000;1.301496
9132.000000;1.299726
9131.000000;1.299421
9130.000000;1.300498
9129.000000;1.301955
9128.000000;1.302917
9127.000000;1.303264
9126.000000;1.303246
9125.000000;1.302900
9124.000000;1.302177
9123.000000;1.301319
9122.000000;1.300751
9121.000000;1.300694
9120.000000;1.301072
9119.000000;1.301728
9118.000000;1.302456
9117.000000;1.302831
9116.000000;1.302349
9115.000000;1.300950
9114.000000;1.299270
9113.000000;1.298216
9112.000000;1.298310
9111.000000;1.299430
9110.000000;1.300923
9109.000000;1.301810
9108.000000;1.301205
9107.000000;1.299071
9106.000000;1.296575
9105.000000;1.295207
9104.000000;1.295321
9103.000000;1.295777
9102.000000;1.295263
9101.000000;1.293839
9100.000000;1.292785
9099.000000;1.293025
9098.000000;1.294162
9097.000000;1.295110
9096.000000;1.295195
9095.000000;1.294408
9094.000000;1.293042
9093.000000;1.291549
9092.000000;1.290541
9091.000000;1.290412
9090.000000;1.290839
9089.000000;1.291032
9088.000000;1.290618
9087.000000;1.290001
9086.000000;1.289702
9085.000000;1.289665
9084.000000;1.289478
9083.000000;1.289105
9082.000000;1.289054
9081.000000;1.289758
9080.000000;1.290985
9079.000000;1.291960
9078.000000;1.292064
9077.000000;1.291463
9076.000000;1.290981
9075.000000;1.291237
9074.000000;1.291908
9073.000000;1.292039
9072.000000;1.291149
9071.000000;1.289807
9070.000000;1.288931
9069.000000;1.288733
9068.000000;1.288579
9067.000000;1.287783
9066.000000;1.286337
9065.000000;1.284911
9064.000000;1.284263
9063.000000;1.284593
9062.000000;1.285330
9061.000000;1.285637
9060.000000;1.285262
9059.000000;1.284739
9058.000000;1.284643
9057.000000;1.284838
9056.000000;1.284655
9055.000000;1.283720
9054.000000;1.282386
9053.000000;1.281335
