Criado como novo conjunto de dados;"1909daniel.spp","-4283085.0 Secs"
cm-1;Abs
10000.000000;1.178377
9999.000000;1.178225
9998.000000;1.177824
9997.000000;1.176848
9996.000000;1.175158
9995.000000;1.173160
9994.000000;1.171534
9993.000000;1.170644
9992.000000;1.170319
9991.000000;1.170110
9990.000000;1.169668
9989.000000;1.168981
9988.000000;1.168307
9987.000000;1.167833
9986.000000;1.167382
9985.000000;1.166569
9984.000000;1.165299
9983.000000;1.163949
9982.000000;1.162943
9981.000000;1.162258
9980.000000;1.161512
9979.000000;1.160489
9978.000000;1.159392
9977.000000;1.158598
9976.000000;1.158227
9975.000000;1.158041
9974.000000;1.157742
9973.000000;1.157326
9972.000000;1.157044
9971.000000;1.156990
9970.000000;1.156823
9969.000000;1.156086
9968.000000;1.154791
9967.000000;1.153527
9966.000000;1.152865
9965.000000;1.152766
9964.000000;1.152617
9963.000000;1.151855
9962.000000;1.150515
9961.000000;1.149189
9960.000000;1.148439
9959.000000;1.148325
9958.000000;1.148517
9957.000000;1.148770
9956.000000;1.149023
9955.000000;1.149006
9954.000000;1.148159
9953.000000;1.146312
9952.000000;1.144235
9951.000000;1.143018
9950.000000;1.142884
9949.000000;1.142929
9948.000000;1.142092
9947.000000;1.140166
9946.000000;1.137860
9945.000000;1.136137
9944.000000;1.135549
9943.000000;1.135875
9942.000000;1.136257
9941.000000;1.135939
9940.000000;1.135038
9939.000000;1.134368
9938.000000;1.134486
9937.000000;1.135118
9936.000000;1.135491
9935.000000;1.134912
9934.000000;1.133025
9933.000000;1.129985
9932.000000;1.126665
9931.000000;1.124323
9930.000000;1.123679
9929.000000;1.124339
9928.000000;1.125289
9927.000000;1.125805
9926.000000;1.125796
9925.000000;1.125455
9924.000000;1.124865
9923.000000;1.123877
9922.000000;1.122278
9921.000000;1.120172
9920.000000;1.118183
9919.000000;1.117052
9918.000000;1.116932
9917.000000;1.117228
9916.000000;1.117171
9915.000000;1.116391
9914.000000;1.114977
9913.000000;1.113329
9912.000000;1.112000
9911.000000;1.111318
9910.000000;1.111045
9909.000000;1.110707
9908.000000;1.110266
9907.000000;1.110022
9906.000000;1.109824
9905.000000;1.109015
9904.000000;1.107422
9903.000000;1.105822
9902.000000;1.104962
9901.000000;1.104607
9900.000000;1.104070
9899.000000;1.103306
9898.000000;1.102886
9897.000000;1.103106
9896.000000;1.103658
9895.000000;1.104028
9894.000000;1.103813
9893.000000;1.102847
9892.000000;1.101451
9891.000000;1.100359
9890.000000;1.099937
9889.000000;1.099620
9888.000000;1.098579
9887.000000;1.096819
9886.000000;1.095131
9885.000000;1.094104
9884.000000;1.093666
9883.000000;1.093477
9882.000000;1.093277
9881.000000;1.092867
9880.000000;1.092226
9879.000000;1.091642
9878.000000;1.091274
9877.000000;1.090681
9876.000000;1.089314
9875.000000;1.087487
9874.000000;1.086199
9873.000000;1.085890
9872.000000;1.085912
9871.000000;1.085435
9870.000000;1.084454
9869.000000;1.083621
9868.000000;1.083389
9867.000000;1.083572
9866.000000;1.083523
9865.000000;1.082648
9864.000000;1.081041
9863.000000;1.079623
9862.000000;1.079303
9861.000000;1.079912
9860.000000;1.080348
9859.000000;1.079843
9858.000000;1.078637
9857.000000;1.077265
9856.000000;1.075736
9855.000000;1.073840
9854.000000;1.071832
9853.000000;1.070328
9852.000000;1.069673
9851.000000;1.069791
9850.000000;1.070477
9849.000000;1.071436
9848.000000;1.072075
9847.000000;1.071680
9846.000000;1.070035
9845.000000;1.067751
9844.000000;1.065850
9843.000000;1.064998
9842.000000;1.065027
9841.000000;1.065159
9840.000000;1.064737
9839.000000;1.063744
9838.000000;1.062569
9837.000000;1.061444
9836.000000;1.060380
9835.000000;1.059522
9834.000000;1.059149
9833.000000;1.059189
9832.000000;1.059132
9831.000000;1.058634
9830.000000;1.057936
9829.000000;1.057407
9828.000000;1.056922
9827.000000;1.056065
9826.000000;1.054825
9825.000000;1.053696
9824.000000;1.053066
9823.000000;1.052791
9822.000000;1.052458
9821.000000;1.051858
9820.000000;1.051053
9819.000000;1.050129
9818.000000;1.049069
9817.000000;1.047886
9816.000000;1.046795
9815.000000;1.046145
9814.000000;1.046127
9813.000000;1.046532
9812.000000;1.046844
9811.000000;1.046592
9810.000000;1.045615
9809.000000;1.044063
9808.000000;1.042301
9807.000000;1.040810
9806.000000;1.039997
9805.000000;1.039923
9804.000000;1.040200
9803.000000;1.040281
9802.000000;1.039911
9801.000000;1.039250
9800.000000;1.038523
9799.000000;1.037639
9798.000000;1.036279
9797.000000;1.034430
9796.000000;1.032671
9795.000000;1.031740
9794.000000;1.031773
9793.000000;1.032145
9792.000000;1.032142
9791.000000;1.031635
9790.000000;1.030943
9789.000000;1.030237
9788.000000;1.029386
9787.000000;1.028362
9786.000000;1.027508
9785.000000;1.027261
9784.000000;1.027668
9783.000000;1.028218
9782.000000;1.028118
9781.000000;1.026827
9780.000000;1.024493
9779.000000;1.021942
9778.000000;1.020112
9777.000000;1.019398
9776.000000;1.019444
9775.000000;1.019525
9774.000000;1.019098
9773.000000;1.018077
9772.000000;1.016741
9771.000000;1.015443
9770.000000;1.014367
9769.000000;1.013500
9768.000000;1.012769
9767.000000;1.012164
9766.000000;1.011732
9765.000000;1.011542
9764.000000;1.011629
9763.000000;1.011895
9762.000000;1.012063
9761.000000;1.011875
9760.000000;1.011350
9759.000000;1.010691
9758.000000;1.009941
9757.000000;1.008956
9756.000000;1.007787
9755.000000;1.006815
9754.000000;1.006336
9753.000000;1.006200
9752.000000;1.006040
9751.000000;1.005591
9750.000000;1.004624
9749.000000;1.002880
9748.000000;1.000509
9747.000000;0.998398
9746.000000;0.997548
9745.000000;0.998051
9744.000000;0.999009
9743.000000;0.999450
9742.000000;0.999075
9741.000000;0.998103
9740.000000;0.996823
9739.000000;0.995514
9738.000000;0.994468
9737.000000;0.993773
9736.000000;0.993130
9735.000000;0.992142
9734.000000;0.990805
9733.000000;0.989596
9732.000000;0.989026
9731.000000;0.989102
9730.000000;0.989254
9729.000000;0.988846
9728.000000;0.987815
9727.000000;0.986721
9726.000000;0.986107
9725.000000;0.985930
9724.000000;0.985693
9723.000000;0.984986
9722.000000;0.983772
9721.000000;0.982311
9720.000000;0.981029
9719.000000;0.980345
9718.000000;0.980316
9717.000000;0.980502
9716.000000;0.980430
9715.000000;0.980172
9714.000000;0.980173
9713.000000;0.980496
9712.000000;0.980578
9711.000000;0.979873
9710.000000;0.978479
9709.000000;0.976925
9708.000000;0.975553
9707.000000;0.974365
9706.000000;0.973371
9705.000000;0.972773
9704.000000;0.972648
9703.000000;0.972590
9702.000000;0.971916
9701.000000;0.970396
9700.000000;0.968665
9699.000000;0.967683
9698.000000;0.967743
9697.000000;0.968227
9696.000000;0.968360
9695.000000;0.967992
9694.000000;0.967496
9693.000000;0.967184
9692.000000;0.967123
9691.000000;0.967275
9690.000000;0.967428
9689.000000;0.967051
9688.000000;0.965675
9687.000000;0.963492
9686.000000;0.961298
9685.000000;0.959765
9684.000000;0.958950
9683.000000;0.958500
9682.000000;0.958078
9681.000000;0.957555
9680.000000;0.957000
9679.000000;0.956561
9678.000000;0.956182
9677.000000;0.955458
9676.000000;0.954000
9675.000000;0.951991
9674.000000;0.950173
9673.000000;0.949220
9672.000000;0.949220
9671.000000;0.949711
9670.000000;0.950024
9669.000000;0.949668
9668.000000;0.948687
9667.000000;0.947663
9666.000000;0.947109
9665.000000;0.946858
9664.000000;0.946325
9663.000000;0.945364
9662.000000;0.944490
9661.000000;0.944158
9660.000000;0.944182
9659.000000;0.944036
9658.000000;0.943442
9657.000000;0.942451
9656.000000;0.941229
9655.000000;0.940029
9654.000000;0.939130
9653.000000;0.938550
9652.000000;0.937984
9651.000000;0.937231
9650.000000;0.936480
9649.000000;0.935922
9648.000000;0.935312
9647.000000;0.934286
9646.000000;0.932959
9645.000000;0.931837
9644.000000;0.931142
9643.000000;0.930608
9642.000000;0.929993
9641.000000;0.929456
9640.000000;0.929237
9639.000000;0.929214
9638.000000;0.928996
9637.000000;0.928369
9636.000000;0.927468
9635.000000;0.926566
9634.000000;0.925827
9633.000000;0.925235
9632.000000;0.924667
9631.000000;0.924043
9630.000000;0.923431
9629.000000;0.922964
9628.000000;0.922613
9627.000000;0.922115
9626.000000;0.921261
9625.000000;0.920204
9624.000000;0.919345
9623.000000;0.918877
9622.000000;0.918596
9621.000000;0.918226
9620.000000;0.917780
9619.000000;0.917456
9618.000000;0.917280
9617.000000;0.917039
9616.000000;0.916547
9615.000000;0.915802
9614.000000;0.914850
9613.000000;0.913691
9612.000000;0.912382
9611.000000;0.911105
9610.000000;0.910043
9609.000000;0.909258
9608.000000;0.908717
9607.000000;0.908310
9606.000000;0.907830
9605.000000;0.907096
9604.000000;0.906211
9603.000000;0.905528
9602.000000;0.905287
9601.000000;0.905367
9600.000000;0.905470
9599.000000;0.905394
9598.000000;0.905044
9597.000000;0.904353
9596.000000;0.903389
9595.000000;0.902403
9594.000000;0.901607
9593.000000;0.900961
9592.000000;0.900304
9591.000000;0.899573
9590.000000;0.898739
9589.000000;0.897734
9588.000000;0.896654
9587.000000;0.895893
9586.000000;0.895747
9585.000000;0.895907
9584.000000;0.895682
9583.000000;0.894764
9582.000000;0.893554
9581.000000;0.892597
9580.000000;0.891942
9579.000000;0.891212
9578.000000;0.890143
9577.000000;0.888930
9576.000000;0.888039
9575.000000;0.887757
9574.000000;0.887898
9573.000000;0.887926
9572.000000;0.887402
9571.000000;0.886323
9570.000000;0.885035
9569.000000;0.883892
9568.000000;0.883041
9567.000000;0.882478
9566.000000;0.882194
9565.000000;0.882168
9564.000000;0.882255
9563.000000;0.882147
9562.000000;0.881554
9561.000000;0.880478
9560.000000;0.879250
9559.000000;0.878204
9558.000000;0.877395
9557.000000;0.876772
9556.000000;0.876486
9555.000000;0.876731
9554.000000;0.877305
9553.000000;0.877667
9552.000000;0.877497
9551.000000;0.876923
9550.000000;0.876100
9549.000000;0.874957
9548.000000;0.873545
9547.000000;0.872264
9546.000000;0.871451
9545.000000;0.871011
9544.000000;0.870711
9543.000000;0.870532
9542.000000;0.870427
9541.000000;0.870041
9540.000000;0.869131
9539.000000;0.868068
9538.000000;0.867439
9537.000000;0.867226
9536.000000;0.866832
9535.000000;0.865892
9534.000000;0.864684
9533.000000;0.863691
9532.000000;0.863124
9531.000000;0.862882
9530.000000;0.862690
9529.000000;0.862202
9528.000000;0.861208
9527.000000;0.859814
9526.000000;0.858303
9525.000000;0.856895
9524.000000;0.855808
9523.000000;0.855336
9522.000000;0.855527
9521.000000;0.855896
9520.000000;0.855854
9519.000000;0.855387
9518.000000;0.854958
9517.000000;0.854783
9516.000000;0.854619
9515.000000;0.854242
9514.000000;0.853706
9513.000000;0.853057
9512.000000;0.852192
9511.000000;0.851124
9510.000000;0.850042
9509.000000;0.849023
9508.000000;0.848024
9507.000000;0.847239
9506.000000;0.847054
9505.000000;0.847460
9504.000000;0.847851
9503.000000;0.847654
9502.000000;0.846925
9501.000000;0.846099
9500.000000;0.845402
9499.000000;0.844713
9498.000000;0.843841
9497.000000;0.842755
9496.000000;0.841638
9495.000000;0.840820
9494.000000;0.840521
9493.000000;0.840569
9492.000000;0.840499
9491.000000;0.839980
9490.000000;0.839026
9489.000000;0.837864
9488.000000;0.836791
9487.000000;0.836151
9486.000000;0.836101
9485.000000;0.836356
9484.000000;0.836401
9483.000000;0.836044
9482.000000;0.835532
9481.000000;0.835099
9480.000000;0.834718
9479.000000;0.834360
9478.000000;0.834107
9477.000000;0.833867
9476.000000;0.833302
9475.000000;0.832247
9474.000000;0.830965
9473.000000;0.829808
9472.000000;0.828870
9471.000000;0.828127
9470.000000;0.827612
9469.000000;0.827251
9468.000000;0.826772
9467.000000;0.826035
9466.000000;0.825267
9465.000000;0.824763
9464.000000;0.824524
9463.000000;0.824371
9462.000000;0.824223
9461.000000;0.824036
9460.000000;0.823634
9459.000000;0.822848
9458.000000;0.821773
9457.000000;0.820720
9456.000000;0.819980
9455.000000;0.819706
9454.000000;0.819834
9453.000000;0.819968
9452.000000;0.819562
9451.000000;0.818430
9450.000000;0.816990
9449.000000;0.815835
9448.000000;0.815194
9447.000000;0.814909
9446.000000;0.814730
9445.000000;0.814414
9444.000000;0.813763
9443.000000;0.812813
9442.000000;0.811912
9441.000000;0.811388
9440.000000;0.811195
9439.000000;0.811049
9438.000000;0.810781
9437.000000;0.810389
9436.000000;0.809852
9435.000000;0.809161
9434.000000;0.808465
9433.000000;0.807958
9432.000000;0.807614
9431.000000;0.807208
9430.000000;0.806603
9429.000000;0.805895
9428.000000;0.805282
9427.000000;0.804895
9426.000000;0.804732
9425.000000;0.804616
9424.000000;0.804257
9423.000000;0.803473
9422.000000;0.802383
9421.000000;0.801316
9420.000000;0.800536
9419.000000;0.800052
9418.000000;0.799647
9417.000000;0.799100
9416.000000;0.798418
9415.000000;0.797833
9414.000000;0.797485
9413.000000;0.797177
9412.000000;0.796626
9411.000000;0.795902
9410.000000;0.795375
9409.000000;0.795203
9408.000000;0.795144
9407.000000;0.794936
9406.000000;0.794587
9405.000000;0.794166
9404.000000;0.793599
9403.000000;0.792879
9402.000000;0.792202
9401.000000;0.791698
9400.000000;0.791225
9399.000000;0.790654
9398.000000;0.790154
9397.000000;0.789906
9396.000000;0.789733
9395.000000;0.789300
9394.000000;0.788569
9393.000000;0.787772
9392.000000;0.787060
9391.000000;0.786447
9390.000000;0.785998
9389.000000;0.785736
9388.000000;0.785420
9387.000000;0.784782
9386.000000;0.784000
9385.000000;0.783634
9384.000000;0.783977
9383.000000;0.784665
9382.000000;0.785010
9381.000000;0.784584
9380.000000;0.783474
9379.000000;0.782133
9378.000000;0.781044
9377.000000;0.780395
9376.000000;0.779977
9375.000000;0.779472
9374.000000;0.778817
9373.000000;0.778196
9372.000000;0.777720
9371.000000;0.777279
9370.000000;0.776726
9369.000000;0.776053
9368.000000;0.775322
9367.000000;0.774563
9366.000000;0.773807
9365.000000;0.773143
9364.000000;0.772686
9363.000000;0.772491
9362.000000;0.772477
9361.000000;0.772410
9360.000000;0.772055
9359.000000;0.771444
9358.000000;0.770927
9357.000000;0.770838
9356.000000;0.771088
9355.000000;0.771206
9354.000000;0.770790
9353.000000;0.769835
9352.000000;0.768651
9351.000000;0.767574
9350.000000;0.766751
9349.000000;0.766099
9348.000000;0.765441
9347.000000;0.764700
9346.000000;0.763982
9345.000000;0.763439
9344.000000;0.763103
9343.000000;0.762894
9342.000000;0.762733
9341.000000;0.762577
9340.000000;0.762384
9339.000000;0.762139
9338.000000;0.761882
9337.000000;0.761671
9336.000000;0.761521
9335.000000;0.761390
9334.000000;0.761156
9333.000000;0.760606
9332.000000;0.759643
9331.000000;0.758546
9330.000000;0.757815
9329.000000;0.757630
9328.000000;0.757598
9327.000000;0.757217
9326.000000;0.756432
9325.000000;0.755539
9324.000000;0.754698
9323.000000;0.753833
9322.000000;0.752995
9321.000000;0.752481
9320.000000;0.752466
9319.000000;0.752710
9318.000000;0.752774
9317.000000;0.752454
9316.000000;0.751913
9315.000000;0.751401
9314.000000;0.750915
9313.000000;0.750188
9312.000000;0.749091
9311.000000;0.747980
9310.000000;0.747453
9309.000000;0.747617
9308.000000;0.747810
9307.000000;0.747264
9306.000000;0.745976
9305.000000;0.744716
9304.000000;0.744192
9303.000000;0.744434
9302.000000;0.744926
9301.000000;0.745129
9300.000000;0.744818
9299.000000;0.744166
9298.000000;0.743530
9297.000000;0.743036
9296.000000;0.742382
9295.000000;0.741256
9294.000000;0.739928
9293.000000;0.739124
9292.000000;0.739233
9291.000000;0.739846
9290.000000;0.740220
9289.000000;0.739985
9288.000000;0.739281
9287.000000;0.738464
9286.000000;0.737899
9285.000000;0.737852
9284.000000;0.738270
9283.000000;0.738685
9282.000000;0.738575
9281.000000;0.737842
9280.000000;0.736867
9279.000000;0.736148
9278.000000;0.735978
9277.000000;0.736317
9276.000000;0.736764
9275.000000;0.736727
9274.000000;0.735921
9273.000000;0.734703
9272.000000;0.733723
9271.000000;0.733169
9270.000000;0.732648
9269.000000;0.731843
9268.000000;0.730978
9267.000000;0.730419
9266.000000;0.730129
9265.000000;0.729850
9264.000000;0.729633
9263.000000;0.729765
9262.000000;0.730162
9261.000000;0.730281
9260.000000;0.729804
9259.000000;0.729050
9258.000000;0.728460
9257.000000;0.727950
9256.000000;0.727137
9255.000000;0.726035
9254.000000;0.725143
9253.000000;0.724813
9252.000000;0.724889
9251.000000;0.725042
9250.000000;0.725188
9249.000000;0.725389
9248.000000;0.725542
9247.000000;0.725365
9246.000000;0.724652
9245.000000;0.723465
9244.000000;0.722163
9243.000000;0.721246
9242.000000;0.720985
9241.000000;0.721091
9240.000000;0.720944
9239.000000;0.720293
9238.000000;0.719565
9237.000000;0.719297
9236.000000;0.719430
9235.000000;0.719439
9234.000000;0.719061
9233.000000;0.718541
9232.000000;0.718134
9231.000000;0.717707
9230.000000;0.717011
9229.000000;0.716139
9228.000000;0.715449
9227.000000;0.715109
9226.000000;0.714952
9225.000000;0.714767
9224.000000;0.714552
9223.000000;0.714412
9222.000000;0.714354
9221.000000;0.714318
9220.000000;0.714331
9219.000000;0.714465
9218.000000;0.714602
9217.000000;0.714387
9216.000000;0.713593
9215.000000;0.712487
9214.000000;0.711658
9213.000000;0.711418
9212.000000;0.711500
9211.000000;0.711411
9210.000000;0.710995
9209.000000;0.710496
9208.000000;0.710157
9207.000000;0.709931
9206.000000;0.709620
9205.000000;0.709148
9204.000000;0.708596
9203.000000;0.708034
9202.000000;0.707391
9201.000000;0.706553
9200.000000;0.705566
9199.000000;0.704732
9198.000000;0.704420
9197.000000;0.704692
9196.000000;0.705166
9195.000000;0.705312
9194.000000;0.704900
9193.000000;0.704127
9192.000000;0.703357
9191.000000;0.702832
9190.000000;0.702595
9189.000000;0.702540
9188.000000;0.702484
9187.000000;0.702268
9186.000000;0.701886
9185.000000;0.701498
9184.000000;0.701248
9183.000000;0.701123
9182.000000;0.701023
9181.000000;0.700909
9180.000000;0.700841
9179.000000;0.700870
9178.000000;0.700922
9177.000000;0.700774
9176.000000;0.700148
9175.000000;0.698948
9174.000000;0.697477
9173.000000;0.696340
9172.000000;0.696007
9171.000000;0.696393
9170.000000;0.696947
9169.000000;0.697151
9168.000000;0.696906
9167.000000;0.696445
9166.000000;0.695998
9165.000000;0.695621
9164.000000;0.695255
9163.000000;0.694833
9162.000000;0.694349
9161.000000;0.693895
9160.000000;0.693585
9159.000000;0.693374
9158.000000;0.693004
9157.000000;0.692325
9156.000000;0.691622
9155.000000;0.691410
9154.000000;0.691800
9153.000000;0.692254
9152.000000;0.692137
9151.000000;0.691415
9150.000000;0.690613
9149.000000;0.690171
9148.000000;0.690049
9147.000000;0.689948
9146.000000;0.689659
9145.000000;0.689134
9144.000000;0.688419
9143.000000;0.687659
9142.000000;0.687070
9141.000000;0.686751
9140.000000;0.686567
9139.000000;0.686314
9138.000000;0.685991
9137.000000;0.685819
9136.000000;0.685964
9135.000000;0.686239
9134.000000;0.686131
9133.000000;0.685224
9132.000000;0.683718
9131.000000;0.682471
9130.000000;0.682340
9129.000000;0.683364
9128.000000;0.684691
9127.000000;0.685353
9126.000000;0.685089
9125.000000;0.684389
9124.000000;0.683871
9123.000000;0.683710
9122.000000;0.683596
9121.000000;0.683107
9120.000000;0.682146
9119.000000;0.681059
9118.000000;0.680358
9117.000000;0.680275
9116.000000;0.680610
9115.000000;0.680983
9114.000000;0.681145
9113.000000;0.681037
9112.000000;0.680692
9111.000000;0.680211
9110.000000;0.679754
9109.000000;0.679449
9108.000000;0.679297
9107.000000;0.679222
9106.000000;0.679143
9105.000000;0.678960
9104.000000;0.678552
9103.000000;0.677894
9102.000000;0.677172
9101.000000;0.676684
9100.000000;0.676631
9099.000000;0.676979
9098.000000;0.677458
9097.000000;0.677668
9096.000000;0.677310
9095.000000;0.676452
9094.000000;0.675515
9093.000000;0.674882
9092.000000;0.674555
9091.000000;0.674272
9090.000000;0.673881
9089.000000;0.673486
9088.000000;0.673241
9087.000000;0.673149
9086.000000;0.673067
9085.000000;0.672820
9084.000000;0.672317
9083.000000;0.671656
9082.000000;0.671126
9081.000000;0.670993
9080.000000;0.671246
9079.000000;0.671560
9078.000000;0.671551
9077.000000;0.671060
9076.000000;0.670252
9075.000000;0.669508
9074.000000;0.669162
9073.000000;0.669251
9072.000000;0.669536
9071.000000;0.669793
9070.000000;0.670010
9069.000000;0.670222
9068.000000;0.670268
9067.000000;0.669901
9066.000000;0.669128
9065.000000;0.668244
9064.000000;0.667490
9063.000000;0.666831
9062.000000;0.666163
9061.000000;0.665591
9060.000000;0.665361
9059.000000;0.665551
9058.000000;0.665968
9057.000000;0.666334
9056.000000;0.666507
9055.000000;0.666493
9054.000000;0.666308
9053.000000;0.665905
