Criado como novo conjunto de dados;"1909daniel.spp","-4292085.2 Secs"
cm-1;Abs
10000.000000;1.045720
9999.000000;1.045276
9998.000000;1.044349
9997.000000;1.042824
9996.000000;1.041022
9995.000000;1.039321
9994.000000;1.037918
9993.000000;1.036924
9992.000000;1.036418
9991.000000;1.036317
9990.000000;1.036367
9989.000000;1.036361
9988.000000;1.036281
9987.000000;1.036164
9986.000000;1.035915
9985.000000;1.035390
9984.000000;1.034648
9983.000000;1.033969
9982.000000;1.033538
9981.000000;1.033135
9980.000000;1.032338
9979.000000;1.031077
9978.000000;1.029822
9977.000000;1.029017
9976.000000;1.028493
9975.000000;1.027722
9974.000000;1.026624
9973.000000;1.025699
9972.000000;1.025235
9971.000000;1.024823
9970.000000;1.024010
9969.000000;1.023164
9968.000000;1.023138
9967.000000;1.024075
9966.000000;1.025029
9965.000000;1.024962
9964.000000;1.023882
9963.000000;1.022716
9962.000000;1.022217
9961.000000;1.022229
9960.000000;1.021981
9959.000000;1.020892
9958.000000;1.019081
9957.000000;1.017184
9956.000000;1.015772
9955.000000;1.014933
9954.000000;1.014320
9953.000000;1.013509
9952.000000;1.012333
9951.000000;1.010993
9950.000000;1.009912
9949.000000;1.009377
9948.000000;1.009201
9947.000000;1.008832
9946.000000;1.007962
9945.000000;1.006959
9944.000000;1.006469
9943.000000;1.006618
9942.000000;1.006838
9941.000000;1.006507
9940.000000;1.005542
9939.000000;1.004281
9938.000000;1.003044
9937.000000;1.002049
9936.000000;1.001555
9935.000000;1.001712
9934.000000;1.002198
9933.000000;1.002284
9932.000000;1.001499
9931.000000;1.000146
9930.000000;0.998968
9929.000000;0.998280
9928.000000;0.997627
9927.000000;0.996422
9926.000000;0.994747
9925.000000;0.993308
9924.000000;0.992654
9923.000000;0.992690
9922.000000;0.992968
9921.000000;0.993177
9920.000000;0.993158
9919.000000;0.992719
9918.000000;0.991770
9917.000000;0.990573
9916.000000;0.989553
9915.000000;0.988827
9914.000000;0.988136
9913.000000;0.987245
9912.000000;0.986196
9911.000000;0.985126
9910.000000;0.984051
9909.000000;0.982946
9908.000000;0.981880
9907.000000;0.980976
9906.000000;0.980335
9905.000000;0.980032
9904.000000;0.980051
9903.000000;0.980177
9902.000000;0.980088
9901.000000;0.979631
9900.000000;0.978948
9899.000000;0.978291
9898.000000;0.977799
9897.000000;0.977448
9896.000000;0.977094
9895.000000;0.976556
9894.000000;0.975762
9893.000000;0.974815
9892.000000;0.973791
9891.000000;0.972577
9890.000000;0.971139
9889.000000;0.969856
9888.000000;0.969244
9887.000000;0.969267
9886.000000;0.969218
9885.000000;0.968477
9884.000000;0.967207
9883.000000;0.966131
9882.000000;0.965747
9881.000000;0.965899
9880.000000;0.965984
9879.000000;0.965458
9878.000000;0.964290
9877.000000;0.963038
9876.000000;0.962303
9875.000000;0.962048
9874.000000;0.961610
9873.000000;0.960513
9872.000000;0.959011
9871.000000;0.957695
9870.000000;0.956815
9869.000000;0.956200
9868.000000;0.955650
9867.000000;0.955103
9866.000000;0.954536
9865.000000;0.953999
9864.000000;0.953664
9863.000000;0.953599
9862.000000;0.953558
9861.000000;0.953196
9860.000000;0.952459
9859.000000;0.951534
9858.000000;0.950518
9857.000000;0.949379
9856.000000;0.948210
9855.000000;0.947271
9854.000000;0.946728
9853.000000;0.946503
9852.000000;0.946387
9851.000000;0.946136
9850.000000;0.945553
9849.000000;0.944649
9848.000000;0.943701
9847.000000;0.942943
9846.000000;0.942230
9845.000000;0.941229
9844.000000;0.939909
9843.000000;0.938601
9842.000000;0.937610
9841.000000;0.936997
9840.000000;0.936718
9839.000000;0.936659
9838.000000;0.936492
9837.000000;0.935799
9836.000000;0.934538
9835.000000;0.933162
9834.000000;0.932169
9833.000000;0.931669
9832.000000;0.931473
9831.000000;0.931361
9830.000000;0.931098
9829.000000;0.930412
9828.000000;0.929223
9827.000000;0.927823
9826.000000;0.926649
9825.000000;0.925913
9824.000000;0.925540
9823.000000;0.925382
9822.000000;0.925328
9821.000000;0.925258
9820.000000;0.925024
9819.000000;0.924541
9818.000000;0.923834
9817.000000;0.923016
9816.000000;0.922241
9815.000000;0.921618
9814.000000;0.921115
9813.000000;0.920604
9812.000000;0.920037
9811.000000;0.919499
9810.000000;0.919032
9809.000000;0.918481
9808.000000;0.917601
9807.000000;0.916315
9806.000000;0.914804
9805.000000;0.913406
9804.000000;0.912450
9803.000000;0.912074
9802.000000;0.912085
9801.000000;0.912033
9800.000000;0.911576
9799.000000;0.910796
9798.000000;0.910063
9797.000000;0.909564
9796.000000;0.909076
9795.000000;0.908253
9794.000000;0.907101
9793.000000;0.906019
9792.000000;0.905367
9791.000000;0.905100
9790.000000;0.904888
9789.000000;0.904500
9788.000000;0.903934
9787.000000;0.903214
9786.000000;0.902289
9785.000000;0.901238
9784.000000;0.900399
9783.000000;0.900051
9782.000000;0.900030
9781.000000;0.899854
9780.000000;0.899264
9779.000000;0.898477
9778.000000;0.897874
9777.000000;0.897549
9776.000000;0.897243
9775.000000;0.896620
9774.000000;0.895576
9773.000000;0.894355
9772.000000;0.893383
9771.000000;0.892877
9770.000000;0.892590
9769.000000;0.892013
9768.000000;0.890907
9767.000000;0.889553
9766.000000;0.888426
9765.000000;0.887755
9764.000000;0.887433
9763.000000;0.887228
9762.000000;0.886950
9761.000000;0.886517
9760.000000;0.885977
9759.000000;0.885467
9758.000000;0.885023
9757.000000;0.884477
9756.000000;0.883644
9755.000000;0.882602
9754.000000;0.881688
9753.000000;0.881167
9752.000000;0.880983
9751.000000;0.880863
9750.000000;0.880559
9749.000000;0.879948
9748.000000;0.878974
9747.000000;0.877667
9746.000000;0.876256
9745.000000;0.875116
9744.000000;0.874479
9743.000000;0.874199
9742.000000;0.873908
9741.000000;0.873400
9740.000000;0.872769
9739.000000;0.872145
9738.000000;0.871463
9737.000000;0.870601
9736.000000;0.869640
9735.000000;0.868830
9734.000000;0.868299
9733.000000;0.867929
9732.000000;0.867510
9731.000000;0.866935
9730.000000;0.866241
9729.000000;0.865569
9728.000000;0.865044
9727.000000;0.864591
9726.000000;0.863919
9725.000000;0.862841
9724.000000;0.861621
9723.000000;0.860789
9722.000000;0.860542
9721.000000;0.860498
9720.000000;0.860149
9719.000000;0.859393
9718.000000;0.858493
9717.000000;0.857675
9716.000000;0.856988
9715.000000;0.856486
9714.000000;0.856270
9713.000000;0.856252
9712.000000;0.856070
9711.000000;0.855392
9710.000000;0.854262
9709.000000;0.853044
9708.000000;0.852030
9707.000000;0.851212
9706.000000;0.850449
9705.000000;0.849756
9704.000000;0.849323
9703.000000;0.849229
9702.000000;0.849259
9701.000000;0.849077
9700.000000;0.848553
9699.000000;0.847814
9698.000000;0.846996
9697.000000;0.846101
9696.000000;0.845152
9695.000000;0.844349
9694.000000;0.843909
9693.000000;0.843805
9692.000000;0.843767
9691.000000;0.843566
9690.000000;0.843158
9689.000000;0.842542
9688.000000;0.841635
9687.000000;0.840376
9686.000000;0.838888
9685.000000;0.837439
9684.000000;0.836267
9683.000000;0.835483
9682.000000;0.835080
9681.000000;0.834928
9680.000000;0.834803
9679.000000;0.834540
9678.000000;0.834195
9677.000000;0.833944
9676.000000;0.833793
9675.000000;0.833471
9674.000000;0.832684
9673.000000;0.831408
9672.000000;0.829890
9671.000000;0.828405
9670.000000;0.827116
9669.000000;0.826096
9668.000000;0.825369
9667.000000;0.824905
9666.000000;0.824645
9665.000000;0.824536
9664.000000;0.824486
9663.000000;0.824294
9662.000000;0.823736
9661.000000;0.822780
9660.000000;0.821658
9659.000000;0.820722
9658.000000;0.820213
9657.000000;0.820144
9656.000000;0.820287
9655.000000;0.820281
9654.000000;0.819855
9653.000000;0.819008
9652.000000;0.817958
9651.000000;0.816934
9650.000000;0.816083
9649.000000;0.815509
9648.000000;0.815279
9647.000000;0.815312
9646.000000;0.815369
9645.000000;0.815194
9644.000000;0.814648
9643.000000;0.813720
9642.000000;0.812521
9641.000000;0.811292
9640.000000;0.810281
9639.000000;0.809549
9638.000000;0.808934
9637.000000;0.808227
9636.000000;0.807322
9635.000000;0.806233
9634.000000;0.805113
9633.000000;0.804246
9632.000000;0.803836
9631.000000;0.803736
9630.000000;0.803556
9629.000000;0.803118
9628.000000;0.802648
9627.000000;0.802408
9626.000000;0.802322
9625.000000;0.802079
9624.000000;0.801476
9623.000000;0.800537
9622.000000;0.799419
9621.000000;0.798390
9620.000000;0.797740
9619.000000;0.797533
9618.000000;0.797488
9617.000000;0.797246
9616.000000;0.796676
9615.000000;0.795816
9614.000000;0.794712
9613.000000;0.793504
9612.000000;0.792539
9611.000000;0.792091
9610.000000;0.792013
9609.000000;0.791898
9608.000000;0.791521
9607.000000;0.790916
9606.000000;0.790077
9605.000000;0.788932
9604.000000;0.787666
9603.000000;0.786734
9602.000000;0.786359
9601.000000;0.786245
9600.000000;0.785955
9599.000000;0.785447
9598.000000;0.785071
9597.000000;0.785086
9596.000000;0.785348
9595.000000;0.785423
9594.000000;0.784952
9593.000000;0.783925
9592.000000;0.782641
9591.000000;0.781430
9590.000000;0.780446
9589.000000;0.779729
9588.000000;0.779344
9587.000000;0.779304
9586.000000;0.779376
9585.000000;0.779161
9584.000000;0.778419
9583.000000;0.777243
9582.000000;0.775912
9581.000000;0.774711
9580.000000;0.773852
9579.000000;0.773375
9578.000000;0.773051
9577.000000;0.772550
9576.000000;0.771801
9575.000000;0.771066
9574.000000;0.770528
9573.000000;0.769969
9572.000000;0.769000
9571.000000;0.767593
9570.000000;0.766211
9569.000000;0.765398
9568.000000;0.765285
9567.000000;0.765523
9566.000000;0.765642
9565.000000;0.765444
9564.000000;0.765039
9563.000000;0.764569
9562.000000;0.764047
9561.000000;0.763499
9560.000000;0.763110
9559.000000;0.763013
9558.000000;0.763014
9557.000000;0.762705
9556.000000;0.761900
9555.000000;0.760812
9554.000000;0.759783
9553.000000;0.758992
9552.000000;0.758473
9551.000000;0.758210
9550.000000;0.758076
9549.000000;0.757810
9548.000000;0.757242
9547.000000;0.756500
9546.000000;0.755875
9545.000000;0.755472
9544.000000;0.755086
9543.000000;0.754450
9542.000000;0.753547
9541.000000;0.752623
9540.000000;0.751921
9539.000000;0.751446
9538.000000;0.751013
9537.000000;0.750461
9536.000000;0.749731
9535.000000;0.748791
9534.000000;0.747630
9533.000000;0.746383
9532.000000;0.745310
9531.000000;0.744530
9530.000000;0.743887
9529.000000;0.743200
9528.000000;0.742521
9527.000000;0.741997
9526.000000;0.741574
9525.000000;0.741062
9524.000000;0.740403
9523.000000;0.739689
9522.000000;0.738937
9521.000000;0.738080
9520.000000;0.737176
9519.000000;0.736401
9518.000000;0.735833
9517.000000;0.735447
9516.000000;0.735345
9515.000000;0.735704
9514.000000;0.736401
9513.000000;0.736913
9512.000000;0.736765
9511.000000;0.735978
9510.000000;0.734976
9509.000000;0.734175
9508.000000;0.733725
9507.000000;0.733466
9506.000000;0.733010
9505.000000;0.731995
9504.000000;0.730452
9503.000000;0.728915
9502.000000;0.728043
9501.000000;0.728094
9500.000000;0.728725
9499.000000;0.729265
9498.000000;0.729227
9497.000000;0.728677
9496.000000;0.728110
9495.000000;0.727887
9494.000000;0.727830
9493.000000;0.727474
9492.000000;0.726610
9491.000000;0.725387
9490.000000;0.723977
9489.000000;0.722479
9488.000000;0.721174
9487.000000;0.720485
9486.000000;0.720480
9485.000000;0.720655
9484.000000;0.720446
9483.000000;0.719805
9482.000000;0.719118
9481.000000;0.718681
9480.000000;0.718450
9479.000000;0.718178
9478.000000;0.717647
9477.000000;0.716843
9476.000000;0.716002
9475.000000;0.715393
9474.000000;0.715019
9473.000000;0.714671
9472.000000;0.714303
9471.000000;0.714071
9470.000000;0.713900
9469.000000;0.713340
9468.000000;0.712148
9467.000000;0.710777
9466.000000;0.709955
9465.000000;0.709877
9464.000000;0.710096
9463.000000;0.710089
9462.000000;0.709696
9461.000000;0.709051
9460.000000;0.708361
9459.000000;0.707763
9458.000000;0.707195
9457.000000;0.706455
9456.000000;0.705572
9455.000000;0.704952
9454.000000;0.704906
9453.000000;0.705119
9452.000000;0.704910
9451.000000;0.704011
9450.000000;0.702779
9449.000000;0.701673
9448.000000;0.700884
9447.000000;0.700483
9446.000000;0.700513
9445.000000;0.700725
9444.000000;0.700589
9443.000000;0.699859
9442.000000;0.698936
9441.000000;0.698373
9440.000000;0.698188
9439.000000;0.697938
9438.000000;0.697419
9437.000000;0.696961
9436.000000;0.696952
9435.000000;0.697244
9434.000000;0.697209
9433.000000;0.696374
9432.000000;0.694916
9431.000000;0.693457
9430.000000;0.692435
9429.000000;0.691751
9428.000000;0.691032
9427.000000;0.690143
9426.000000;0.689273
9425.000000;0.688617
9424.000000;0.688168
9423.000000;0.687857
9422.000000;0.687716
9421.000000;0.687783
9420.000000;0.687908
9419.000000;0.687809
9418.000000;0.687324
9417.000000;0.686567
9416.000000;0.685838
9415.000000;0.685345
9414.000000;0.684970
9413.000000;0.684383
9412.000000;0.683450
9411.000000;0.682484
9410.000000;0.681944
9409.000000;0.681910
9408.000000;0.681998
9407.000000;0.681816
9406.000000;0.681342
9405.000000;0.680788
9404.000000;0.680267
9403.000000;0.679738
9402.000000;0.679162
9401.000000;0.678577
9400.000000;0.678005
9399.000000;0.677384
9398.000000;0.676610
9397.000000;0.675642
9396.000000;0.674590
9395.000000;0.673698
9394.000000;0.673149
9393.000000;0.672881
9392.000000;0.672667
9391.000000;0.672395
9390.000000;0.672173
9389.000000;0.672123
9388.000000;0.672191
9387.000000;0.672222
9386.000000;0.672137
9385.000000;0.671955
9384.000000;0.671725
9383.000000;0.671512
9382.000000;0.671375
9381.000000;0.671248
9380.000000;0.670905
9379.000000;0.670164
9378.000000;0.669104
9377.000000;0.668000
9376.000000;0.667075
9375.000000;0.666372
9374.000000;0.665812
9373.000000;0.665316
9372.000000;0.664866
9371.000000;0.664521
9370.000000;0.664315
9369.000000;0.664142
9368.000000;0.663792
9367.000000;0.663179
9366.000000;0.662455
9365.000000;0.661804
9364.000000;0.661226
9363.000000;0.660607
9362.000000;0.659965
9361.000000;0.659437
9360.000000;0.659084
9359.000000;0.658844
9358.000000;0.658717
9357.000000;0.658818
9356.000000;0.659134
9355.000000;0.659357
9354.000000;0.659104
9353.000000;0.658314
9352.000000;0.657312
9351.000000;0.656468
9350.000000;0.655813
9349.000000;0.655063
9348.000000;0.653998
9347.000000;0.652764
9346.000000;0.651754
9345.000000;0.651227
9344.000000;0.651106
9343.000000;0.651129
9342.000000;0.651091
9341.000000;0.650924
9340.000000;0.650654
9339.000000;0.650385
9338.000000;0.650261
9337.000000;0.650330
9336.000000;0.650425
9335.000000;0.650289
9334.000000;0.649782
9333.000000;0.648931
9332.000000;0.647833
9331.000000;0.646653
9330.000000;0.645703
9329.000000;0.645296
9328.000000;0.645401
9327.000000;0.645573
9326.000000;0.645361
9325.000000;0.644763
9324.000000;0.644153
9323.000000;0.643798
9322.000000;0.643588
9321.000000;0.643272
9320.000000;0.642807
9319.000000;0.642376
9318.000000;0.642125
9317.000000;0.642001
9316.000000;0.641827
9315.000000;0.641424
9314.000000;0.640676
9313.000000;0.639646
9312.000000;0.638674
9311.000000;0.638211
9310.000000;0.638360
9309.000000;0.638629
9308.000000;0.638338
9307.000000;0.637325
9306.000000;0.636105
9305.000000;0.635284
9304.000000;0.634980
9303.000000;0.634900
9302.000000;0.634794
9301.000000;0.634623
9300.000000;0.634362
9299.000000;0.633900
9298.000000;0.633202
9297.000000;0.632422
9296.000000;0.631779
9295.000000;0.631409
9294.000000;0.631348
9293.000000;0.631540
9292.000000;0.631819
9291.000000;0.631965
9290.000000;0.631846
9289.000000;0.631443
9288.000000;0.630749
9287.000000;0.629817
9286.000000;0.628931
9285.000000;0.628529
9284.000000;0.628762
9283.000000;0.629212
9282.000000;0.629218
9281.000000;0.628500
9280.000000;0.627365
9279.000000;0.626354
9278.000000;0.625787
9277.000000;0.625616
9276.000000;0.625568
9275.000000;0.625381
9274.000000;0.625019
9273.000000;0.624702
9272.000000;0.624652
9271.000000;0.624772
9270.000000;0.624664
9269.000000;0.624033
9268.000000;0.623016
9267.000000;0.622043
9266.000000;0.621421
9265.000000;0.621124
9264.000000;0.620938
9263.000000;0.620696
9262.000000;0.620341
9261.000000;0.619852
9260.000000;0.619225
9259.000000;0.618534
9258.000000;0.617921
9257.000000;0.617477
9256.000000;0.617142
9255.000000;0.616811
9254.000000;0.616518
9253.000000;0.616428
9252.000000;0.616614
9251.000000;0.616942
9250.000000;0.617227
9249.000000;0.617425
9248.000000;0.617531
9247.000000;0.617363
9246.000000;0.616637
9245.000000;0.615358
9244.000000;0.614021
9243.000000;0.613265
9242.000000;0.613263
9241.000000;0.613537
9240.000000;0.613424
9239.000000;0.612749
9238.000000;0.611957
9237.000000;0.611564
9236.000000;0.611559
9235.000000;0.611495
9234.000000;0.611117
9233.000000;0.610671
9232.000000;0.610465
9231.000000;0.610335
9230.000000;0.609823
9229.000000;0.608828
9228.000000;0.607771
9227.000000;0.607060
9226.000000;0.606643
9225.000000;0.606261
9224.000000;0.605926
9223.000000;0.605883
9222.000000;0.606184
9221.000000;0.606548
9220.000000;0.606675
9219.000000;0.606498
9218.000000;0.606078
9217.000000;0.605417
9216.000000;0.604541
9215.000000;0.603677
9214.000000;0.603154
9213.000000;0.603098
9212.000000;0.603300
9211.000000;0.603440
9210.000000;0.603376
9209.000000;0.603138
9208.000000;0.602737
9207.000000;0.602115
9206.000000;0.601314
9205.000000;0.600590
9204.000000;0.600218
9203.000000;0.600220
9202.000000;0.600333
9201.000000;0.600256
9200.000000;0.599898
9199.000000;0.599418
9198.000000;0.599080
9197.000000;0.599018
9196.000000;0.599064
9195.000000;0.598825
9194.000000;0.598049
9193.000000;0.596932
9192.000000;0.595980
9191.000000;0.595571
9190.000000;0.595694
9189.000000;0.596089
9188.000000;0.596457
9187.000000;0.596553
9186.000000;0.596258
9185.000000;0.595696
9184.000000;0.595157
9183.000000;0.594792
9182.000000;0.594481
9181.000000;0.594118
9180.000000;0.593888
9179.000000;0.594037
9178.000000;0.594413
9177.000000;0.594452
9176.000000;0.593719
9175.000000;0.592369
9174.000000;0.591011
9173.000000;0.590211
9172.000000;0.590142
9171.000000;0.590559
9170.000000;0.591004
9169.000000;0.591093
9168.000000;0.590755
9167.000000;0.590241
9166.000000;0.589881
9165.000000;0.589786
9164.000000;0.589759
9163.000000;0.589489
9162.000000;0.588866
9161.000000;0.588108
9160.000000;0.587578
9159.000000;0.587416
9158.000000;0.587385
9157.000000;0.587113
9156.000000;0.586500
9155.000000;0.585804
9154.000000;0.585359
9153.000000;0.585263
9152.000000;0.585363
9151.000000;0.585438
9150.000000;0.585319
9149.000000;0.584906
9148.000000;0.584205
9147.000000;0.583410
9146.000000;0.582839
9145.000000;0.582688
9144.000000;0.582817
9143.000000;0.582873
9142.000000;0.582665
9141.000000;0.582342
9140.000000;0.582147
9139.000000;0.582053
9138.000000;0.581794
9137.000000;0.581274
9136.000000;0.580757
9135.000000;0.580553
9134.000000;0.580597
9133.000000;0.580539
9132.000000;0.580206
9131.000000;0.579839
9130.000000;0.579794
9129.000000;0.580090
9128.000000;0.580350
9127.000000;0.580166
9126.000000;0.579497
9125.000000;0.578720
9124.000000;0.578277
9123.000000;0.578267
9122.000000;0.578364
9121.000000;0.578186
9120.000000;0.577711
9119.000000;0.577272
9118.000000;0.577161
9117.000000;0.577312
9116.000000;0.577428
9115.000000;0.577342
9114.000000;0.577183
9113.000000;0.577171
9112.000000;0.577321
9111.000000;0.577379
9110.000000;0.577073
9109.000000;0.576400
9108.000000;0.575667
9107.000000;0.575224
9106.000000;0.575172
9105.000000;0.575312
9104.000000;0.575293
9103.000000;0.574836
9102.000000;0.573920
9101.000000;0.572854
9100.000000;0.572116
9099.000000;0.571986
9098.000000;0.572300
9097.000000;0.572623
9096.000000;0.572661
9095.000000;0.572438
9094.000000;0.572092
9093.000000;0.571656
9092.000000;0.571100
9091.000000;0.570471
9090.000000;0.569886
9089.000000;0.569423
9088.000000;0.569092
9087.000000;0.568869
9086.000000;0.568669
9085.000000;0.568322
9084.000000;0.567720
9083.000000;0.567018
9082.000000;0.566617
9081.000000;0.566836
9080.000000;0.567557
9079.000000;0.568209
9078.000000;0.568178
9077.000000;0.567342
9076.000000;0.566189
9075.000000;0.565355
9074.000000;0.565040
9073.000000;0.564992
9072.000000;0.565047
9071.000000;0.565458
9070.000000;0.566470
9069.000000;0.567708
9068.000000;0.568311
9067.000000;0.567780
9066.000000;0.566465
9065.000000;0.565110
9064.000000;0.564117
9063.000000;0.563421
9062.000000;0.562904
9061.000000;0.562616
9060.000000;0.562584
9059.000000;0.562674
9058.000000;0.562747
9057.000000;0.562789
9056.000000;0.562789
9055.000000;0.562631
9054.000000;0.562247
9053.000000;0.561785
