Criado como novo conjunto de dados;"1909daniel.spp","-4286505.1 Secs"
cm-1;Abs
10000.000000;1.747175
9999.000000;1.742109
9998.000000;1.735888
9997.000000;1.730210
9996.000000;1.727377
9995.000000;1.728347
9994.000000;1.732280
9993.000000;1.736725
9992.000000;1.739476
9991.000000;1.739994
9990.000000;1.739497
9989.000000;1.739150
9988.000000;1.738559
9987.000000;1.736376
9986.000000;1.732432
9985.000000;1.728562
9984.000000;1.726860
9983.000000;1.727628
9982.000000;1.729429
9981.000000;1.730770
9980.000000;1.731114
9979.000000;1.730500
9978.000000;1.729138
9977.000000;1.727623
9976.000000;1.726790
9975.000000;1.726851
9974.000000;1.727083
9973.000000;1.726676
9972.000000;1.725603
9971.000000;1.724337
9970.000000;1.723052
9969.000000;1.721585
9968.000000;1.720035
9967.000000;1.718833
9966.000000;1.718201
9965.000000;1.717971
9964.000000;1.718082
9963.000000;1.718809
9962.000000;1.720041
9961.000000;1.720747
9960.000000;1.719994
9959.000000;1.718480
9958.000000;1.718058
9957.000000;1.719304
9956.000000;1.720294
9955.000000;1.718672
9954.000000;1.714681
9953.000000;1.711069
9952.000000;1.709997
9951.000000;1.711020
9950.000000;1.712171
9949.000000;1.712206
9948.000000;1.711326
9947.000000;1.710251
9946.000000;1.709342
9945.000000;1.708546
9944.000000;1.707745
9943.000000;1.707098
9942.000000;1.707036
9941.000000;1.707763
9940.000000;1.708795
9939.000000;1.709348
9938.000000;1.709256
9937.000000;1.709002
9936.000000;1.708515
9935.000000;1.706567
9934.000000;1.702150
9933.000000;1.696323
9932.000000;1.691943
9931.000000;1.691244
9930.000000;1.693770
9929.000000;1.696745
9928.000000;1.697597
9927.000000;1.696079
9926.000000;1.693779
9925.000000;1.691994
9924.000000;1.690749
9923.000000;1.689684
9922.000000;1.688943
9921.000000;1.688666
9920.000000;1.688287
9919.000000;1.687221
9918.000000;1.686029
9917.000000;1.685987
9916.000000;1.687436
9915.000000;1.689285
9914.000000;1.690249
9913.000000;1.689952
9912.000000;1.688646
9911.000000;1.686471
9910.000000;1.683456
9909.000000;1.679951
9908.000000;1.676798
9907.000000;1.675062
9906.000000;1.675354
9905.000000;1.677051
9904.000000;1.678545
9903.000000;1.678790
9902.000000;1.678253
9901.000000;1.677800
9900.000000;1.677145
9899.000000;1.675396
9898.000000;1.672890
9897.000000;1.671105
9896.000000;1.670660
9895.000000;1.670640
9894.000000;1.670064
9893.000000;1.669034
9892.000000;1.668123
9891.000000;1.667736
9890.000000;1.668574
9889.000000;1.671384
9888.000000;1.675400
9887.000000;1.678055
9886.000000;1.677291
9885.000000;1.673734
9884.000000;1.669822
9883.000000;1.667333
9882.000000;1.666417
9881.000000;1.666223
9880.000000;1.665582
9879.000000;1.663666
9878.000000;1.660903
9877.000000;1.658862
9876.000000;1.658547
9875.000000;1.659258
9874.000000;1.659684
9873.000000;1.659475
9872.000000;1.658937
9871.000000;1.657945
9870.000000;1.656313
9869.000000;1.654709
9868.000000;1.653912
9867.000000;1.653399
9866.000000;1.651922
9865.000000;1.649428
9864.000000;1.647320
9863.000000;1.646725
9862.000000;1.647423
9861.000000;1.648613
9860.000000;1.649824
9859.000000;1.650691
9858.000000;1.650656
9857.000000;1.649481
9856.000000;1.647619
9855.000000;1.645808
9854.000000;1.644604
9853.000000;1.644288
9852.000000;1.644757
9851.000000;1.645372
9850.000000;1.645281
9849.000000;1.644091
9848.000000;1.642053
9847.000000;1.639721
9846.000000;1.637724
9845.000000;1.636655
9844.000000;1.636675
9843.000000;1.637257
9842.000000;1.637651
9841.000000;1.637557
9840.000000;1.637053
9839.000000;1.636099
9838.000000;1.634707
9837.000000;1.633447
9836.000000;1.632972
9835.000000;1.632935
9834.000000;1.632134
9833.000000;1.630089
9832.000000;1.627927
9831.000000;1.627267
9830.000000;1.628555
9829.000000;1.630712
9828.000000;1.632096
9827.000000;1.631624
9826.000000;1.629273
9825.000000;1.625928
9824.000000;1.622787
9823.000000;1.620619
9822.000000;1.619356
9821.000000;1.618392
9820.000000;1.617385
9819.000000;1.616818
9818.000000;1.617565
9817.000000;1.619706
9816.000000;1.622044
9815.000000;1.623291
9814.000000;1.623657
9813.000000;1.624445
9812.000000;1.625842
9811.000000;1.626037
9810.000000;1.623257
9809.000000;1.618252
9808.000000;1.613795
9807.000000;1.611894
9806.000000;1.612194
9805.000000;1.612803
9804.000000;1.612114
9803.000000;1.610038
9802.000000;1.607891
9801.000000;1.607058
9800.000000;1.607477
9799.000000;1.607552
9798.000000;1.605845
9797.000000;1.602726
9796.000000;1.599897
9795.000000;1.598451
9794.000000;1.598043
9793.000000;1.597883
9792.000000;1.597885
9791.000000;1.598600
9790.000000;1.600410
9789.000000;1.603060
9788.000000;1.605749
9787.000000;1.607589
9786.000000;1.608217
9785.000000;1.608009
9784.000000;1.607442
9783.000000;1.606265
9782.000000;1.603717
9781.000000;1.599647
9780.000000;1.595076
9779.000000;1.591476
9778.000000;1.589722
9777.000000;1.589698
9776.000000;1.590531
9775.000000;1.591114
9774.000000;1.590728
9773.000000;1.589376
9772.000000;1.587605
9771.000000;1.586109
9770.000000;1.585393
9769.000000;1.585477
9768.000000;1.585747
9767.000000;1.585435
9766.000000;1.584529
9765.000000;1.583898
9764.000000;1.584064
9763.000000;1.584153
9762.000000;1.582746
9761.000000;1.579762
9760.000000;1.576796
9759.000000;1.575416
9758.000000;1.575722
9757.000000;1.576755
9756.000000;1.577720
9755.000000;1.578330
9754.000000;1.578281
9753.000000;1.577197
9752.000000;1.575385
9751.000000;1.574184
9750.000000;1.575007
9749.000000;1.577888
9748.000000;1.581103
9747.000000;1.582452
9746.000000;1.581147
9745.000000;1.578508
9744.000000;1.576658
9743.000000;1.576528
9742.000000;1.577074
9741.000000;1.576346
9740.000000;1.573325
9739.000000;1.568705
9738.000000;1.564118
9737.000000;1.560825
9736.000000;1.559086
9735.000000;1.558581
9734.000000;1.559123
9733.000000;1.560612
9732.000000;1.562511
9731.000000;1.563873
9730.000000;1.564094
9729.000000;1.563343
9728.000000;1.562066
9727.000000;1.560431
9726.000000;1.558611
9725.000000;1.557312
9724.000000;1.557405
9723.000000;1.558882
9722.000000;1.560510
9721.000000;1.560867
9720.000000;1.559769
9719.000000;1.558473
9718.000000;1.558233
9717.000000;1.558756
9716.000000;1.558372
9715.000000;1.555886
9714.000000;1.552042
9713.000000;1.548795
9712.000000;1.547421
9711.000000;1.547712
9710.000000;1.548645
9709.000000;1.549253
9708.000000;1.548986
9707.000000;1.547962
9706.000000;1.547060
9705.000000;1.547148
9704.000000;1.547947
9703.000000;1.548120
9702.000000;1.546821
9701.000000;1.544657
9700.000000;1.542748
9699.000000;1.541405
9698.000000;1.540254
9697.000000;1.539241
9696.000000;1.538841
9695.000000;1.539300
9694.000000;1.540111
9693.000000;1.540390
9692.000000;1.539638
9691.000000;1.538233
9690.000000;1.537196
9689.000000;1.537155
9688.000000;1.537514
9687.000000;1.537045
9686.000000;1.535361
9685.000000;1.533346
9684.000000;1.531981
9683.000000;1.531348
9682.000000;1.530977
9681.000000;1.530572
9680.000000;1.529879
9679.000000;1.528397
9678.000000;1.525968
9677.000000;1.523407
9676.000000;1.521830
9675.000000;1.521457
9674.000000;1.521643
9673.000000;1.521851
9672.000000;1.521890
9671.000000;1.521319
9670.000000;1.519551
9669.000000;1.516873
9668.000000;1.514734
9667.000000;1.514479
9666.000000;1.515992
9665.000000;1.517850
9664.000000;1.518721
9663.000000;1.518414
9662.000000;1.517612
9661.000000;1.516819
9660.000000;1.515854
9659.000000;1.514497
9658.000000;1.513320
9657.000000;1.513315
9656.000000;1.514544
9655.000000;1.515664
9654.000000;1.515247
9653.000000;1.513390
9652.000000;1.511562
9651.000000;1.511018
9650.000000;1.511806
9649.000000;1.513079
9648.000000;1.513785
9647.000000;1.513112
9646.000000;1.511023
9645.000000;1.508691
9644.000000;1.507911
9643.000000;1.509521
9642.000000;1.512368
9641.000000;1.514103
9640.000000;1.513265
9639.000000;1.510584
9638.000000;1.508117
9637.000000;1.507221
9636.000000;1.507462
9635.000000;1.507305
9634.000000;1.505638
9633.000000;1.502604
9632.000000;1.499203
9631.000000;1.496483
9630.000000;1.495066
9629.000000;1.494959
9628.000000;1.495544
9627.000000;1.495972
9626.000000;1.495795
9625.000000;1.495166
9624.000000;1.494449
9623.000000;1.493874
9622.000000;1.493516
9621.000000;1.493276
9620.000000;1.492798
9619.000000;1.491759
9618.000000;1.490389
9617.000000;1.489354
9616.000000;1.489052
9615.000000;1.489381
9614.000000;1.490205
9613.000000;1.491469
9612.000000;1.492575
9611.000000;1.492355
9610.000000;1.490257
9609.000000;1.487170
9608.000000;1.484371
9607.000000;1.482049
9606.000000;1.479617
9605.000000;1.477168
9604.000000;1.475726
9603.000000;1.475989
9602.000000;1.477440
9601.000000;1.478844
9600.000000;1.479305
9599.000000;1.478752
9598.000000;1.477756
9597.000000;1.477056
9596.000000;1.476987
9595.000000;1.477227
9594.000000;1.477273
9593.000000;1.477118
9592.000000;1.477113
9591.000000;1.477157
9590.000000;1.476490
9589.000000;1.474603
9588.000000;1.472115
9587.000000;1.470341
9586.000000;1.470013
9585.000000;1.470590
9584.000000;1.470850
9583.000000;1.470130
9582.000000;1.468928
9581.000000;1.468343
9580.000000;1.468985
9579.000000;1.470458
9578.000000;1.471758
9577.000000;1.471996
9576.000000;1.470853
9575.000000;1.468594
9574.000000;1.465798
9573.000000;1.463121
9572.000000;1.461112
9571.000000;1.460117
9570.000000;1.460226
9569.000000;1.461145
9568.000000;1.462183
9567.000000;1.462642
9566.000000;1.462269
9565.000000;1.461124
9564.000000;1.459201
9563.000000;1.456648
9562.000000;1.454336
9561.000000;1.453459
9560.000000;1.454105
9559.000000;1.454711
9558.000000;1.453605
9557.000000;1.450977
9556.000000;1.448734
9555.000000;1.448500
9554.000000;1.450267
9553.000000;1.452831
9552.000000;1.454942
9551.000000;1.455914
9550.000000;1.455715
9549.000000;1.454932
9548.000000;1.454426
9547.000000;1.454622
9546.000000;1.455068
9545.000000;1.454813
9544.000000;1.453231
9543.000000;1.450489
9542.000000;1.447362
9541.000000;1.444806
9540.000000;1.443592
9539.000000;1.443952
9538.000000;1.445282
9537.000000;1.446257
9536.000000;1.445609
9535.000000;1.443103
9534.000000;1.439723
9533.000000;1.436820
9532.000000;1.435137
9531.000000;1.434666
9530.000000;1.435138
9529.000000;1.436273
9528.000000;1.437647
9527.000000;1.438696
9526.000000;1.439075
9525.000000;1.438896
9524.000000;1.438436
9523.000000;1.437674
9522.000000;1.436313
9521.000000;1.434272
9520.000000;1.432033
9519.000000;1.430431
9518.000000;1.430033
9517.000000;1.430611
9516.000000;1.431336
9515.000000;1.431603
9514.000000;1.431563
9513.000000;1.431669
9512.000000;1.431846
9511.000000;1.431484
9510.000000;1.430348
9509.000000;1.429138
9508.000000;1.428850
9507.000000;1.429651
9506.000000;1.430555
9505.000000;1.430229
9504.000000;1.428095
9503.000000;1.424703
9502.000000;1.421215
9501.000000;1.418707
9500.000000;1.417836
9499.000000;1.418697
9498.000000;1.420624
9497.000000;1.422354
9496.000000;1.422963
9495.000000;1.422685
9494.000000;1.422306
9493.000000;1.421776
9492.000000;1.420191
9491.000000;1.417440
9490.000000;1.415020
9489.000000;1.414466
9488.000000;1.415499
9487.000000;1.416431
9486.000000;1.416170
9485.000000;1.415006
9484.000000;1.413564
9483.000000;1.411983
9482.000000;1.410289
9481.000000;1.408793
9480.000000;1.407851
9479.000000;1.407669
9478.000000;1.408386
9477.000000;1.409825
9476.000000;1.411267
9475.000000;1.412030
9474.000000;1.412193
9473.000000;1.412129
9472.000000;1.411443
9471.000000;1.409317
9470.000000;1.406021
9469.000000;1.403130
9468.000000;1.401766
9467.000000;1.401342
9466.000000;1.400567
9465.000000;1.399196
9464.000000;1.398217
9463.000000;1.398566
9462.000000;1.400121
9461.000000;1.401749
9460.000000;1.402087
9459.000000;1.400628
9458.000000;1.398250
9457.000000;1.396464
9456.000000;1.396047
9455.000000;1.396578
9454.000000;1.397159
9453.000000;1.397200
9452.000000;1.396515
9451.000000;1.395260
9450.000000;1.393970
9449.000000;1.393163
9448.000000;1.392762
9447.000000;1.392313
9446.000000;1.391798
9445.000000;1.391556
9444.000000;1.391375
9443.000000;1.390493
9442.000000;1.388834
9441.000000;1.387446
9440.000000;1.387248
9439.000000;1.387979
9438.000000;1.388936
9437.000000;1.390072
9436.000000;1.391578
9435.000000;1.392834
9434.000000;1.392780
9433.000000;1.391253
9432.000000;1.389179
9431.000000;1.387358
9430.000000;1.385657
9429.000000;1.383548
9428.000000;1.381012
9427.000000;1.378662
9426.000000;1.377131
9425.000000;1.376478
9424.000000;1.376269
9423.000000;1.376268
9422.000000;1.376843
9421.000000;1.378371
9420.000000;1.380364
9419.000000;1.381682
9418.000000;1.381691
9417.000000;1.380758
9416.000000;1.379552
9415.000000;1.378408
9414.000000;1.377503
9413.000000;1.376986
9412.000000;1.376603
9411.000000;1.375689
9410.000000;1.373945
9409.000000;1.371889
9408.000000;1.370306
9407.000000;1.369602
9406.000000;1.369871
9405.000000;1.370986
9404.000000;1.372378
9403.000000;1.373287
9402.000000;1.373593
9401.000000;1.373856
9400.000000;1.374238
9399.000000;1.374043
9398.000000;1.372763
9397.000000;1.370887
9396.000000;1.369140
9395.000000;1.367557
9394.000000;1.365975
9393.000000;1.364897
9392.000000;1.365023
9391.000000;1.366164
9390.000000;1.367322
9389.000000;1.367728
9388.000000;1.367350
9387.000000;1.366543
9386.000000;1.365678
9385.000000;1.364926
9384.000000;1.363964
9383.000000;1.362207
9382.000000;1.359823
9381.000000;1.358101
9380.000000;1.358142
9379.000000;1.359432
9378.000000;1.360354
9377.000000;1.360018
9376.000000;1.358967
9375.000000;1.358184
9374.000000;1.358066
9373.000000;1.358370
9372.000000;1.358598
9371.000000;1.358351
9370.000000;1.357728
9369.000000;1.357326
9368.000000;1.357501
9367.000000;1.357767
9366.000000;1.357362
9365.000000;1.356282
9364.000000;1.355198
9363.000000;1.354344
9362.000000;1.353103
9361.000000;1.350949
9360.000000;1.348365
9359.000000;1.346540
9358.000000;1.346307
9357.000000;1.347490
9356.000000;1.349037
9355.000000;1.349766
9354.000000;1.349196
9353.000000;1.347797
9352.000000;1.346457
9351.000000;1.345776
9350.000000;1.345861
9349.000000;1.346482
9348.000000;1.347216
9347.000000;1.347601
9346.000000;1.347403
9345.000000;1.346709
9344.000000;1.345747
9343.000000;1.344811
9342.000000;1.344299
9341.000000;1.344442
9340.000000;1.344807
9339.000000;1.344480
9338.000000;1.343097
9337.000000;1.341402
9336.000000;1.340486
9335.000000;1.340671
9334.000000;1.341363
9333.000000;1.341705
9332.000000;1.341154
9331.000000;1.339745
9330.000000;1.338167
9329.000000;1.337280
9328.000000;1.337177
9327.000000;1.336948
9326.000000;1.335720
9325.000000;1.333694
9324.000000;1.331823
9323.000000;1.330781
9322.000000;1.330703
9321.000000;1.331556
9320.000000;1.333115
9319.000000;1.334659
9318.000000;1.335353
9317.000000;1.335056
9316.000000;1.334315
9315.000000;1.333479
9314.000000;1.332287
9313.000000;1.330498
9312.000000;1.328488
9311.000000;1.326888
9310.000000;1.325833
9309.000000;1.324909
9308.000000;1.323822
9307.000000;1.322860
9306.000000;1.322518
9305.000000;1.322765
9304.000000;1.322977
9303.000000;1.322714
9302.000000;1.322278
9301.000000;1.322228
9300.000000;1.322614
9299.000000;1.323108
9298.000000;1.323747
9297.000000;1.324903
9296.000000;1.326407
9295.000000;1.327304
9294.000000;1.326839
9293.000000;1.325289
9292.000000;1.323511
9291.000000;1.322046
9290.000000;1.320969
9289.000000;1.320210
9288.000000;1.319643
9287.000000;1.319126
9286.000000;1.318750
9285.000000;1.318835
9284.000000;1.319416
9283.000000;1.319949
9282.000000;1.319767
9281.000000;1.318663
9280.000000;1.316957
9279.000000;1.315241
9278.000000;1.314198
9277.000000;1.314244
9276.000000;1.315078
9275.000000;1.315783
9274.000000;1.315632
9273.000000;1.314593
9272.000000;1.313060
9271.000000;1.311487
9270.000000;1.310411
9269.000000;1.310260
9268.000000;1.310875
9267.000000;1.311539
9266.000000;1.311752
9265.000000;1.311639
9264.000000;1.311492
9263.000000;1.311386
9262.000000;1.311428
9261.000000;1.311787
9260.000000;1.312198
9259.000000;1.311950
9258.000000;1.310721
9257.000000;1.308996
9256.000000;1.307411
9255.000000;1.306207
9254.000000;1.305532
9253.000000;1.305659
9252.000000;1.306451
9251.000000;1.307215
9250.000000;1.307597
9249.000000;1.308057
9248.000000;1.308943
9247.000000;1.309677
9246.000000;1.309424
9245.000000;1.308097
9244.000000;1.306153
9243.000000;1.303953
9242.000000;1.301893
9241.000000;1.300535
9240.000000;1.299871
9239.000000;1.299003
9238.000000;1.297372
9237.000000;1.295844
9236.000000;1.295712
9235.000000;1.296973
9234.000000;1.298513
9233.000000;1.299617
9232.000000;1.300315
9231.000000;1.300384
9230.000000;1.299236
9229.000000;1.297087
9228.000000;1.295260
9227.000000;1.294816
9226.000000;1.295495
9225.000000;1.296324
9224.000000;1.296762
9223.000000;1.296831
9222.000000;1.296524
9221.000000;1.295615
9220.000000;1.294098
9219.000000;1.292484
9218.000000;1.291445
9217.000000;1.291103
9216.000000;1.290840
9215.000000;1.290058
9214.000000;1.289059
9213.000000;1.288760
9212.000000;1.289526
9211.000000;1.290809
9210.000000;1.292043
9209.000000;1.293217
9208.000000;1.294224
9207.000000;1.294383
9206.000000;1.293266
9205.000000;1.291497
9204.000000;1.290028
9203.000000;1.289013
9202.000000;1.288049
9201.000000;1.287177
9200.000000;1.286887
9199.000000;1.287348
9198.000000;1.288195
9197.000000;1.288843
9196.000000;1.288608
9195.000000;1.286958
9194.000000;1.284331
9193.000000;1.282243
9192.000000;1.281775
9191.000000;1.282266
9190.000000;1.282312
9189.000000;1.281785
9188.000000;1.281809
9187.000000;1.282850
9186.000000;1.283976
9185.000000;1.284242
9184.000000;1.283864
9183.000000;1.283525
9182.000000;1.283288
9181.000000;1.282795
9180.000000;1.282081
9179.000000;1.281661
9178.000000;1.281940
9177.000000;1.282730
9176.000000;1.283262
9175.000000;1.282786
9174.000000;1.281446
9173.000000;1.280381
9172.000000;1.280479
9171.000000;1.281268
9170.000000;1.281542
9169.000000;1.280957
9168.000000;1.280296
9167.000000;1.280130
9166.000000;1.280035
9165.000000;1.279388
9164.000000;1.278279
9163.000000;1.277227
9162.000000;1.276476
9161.000000;1.275978
9160.000000;1.275707
9159.000000;1.275622
9158.000000;1.275487
9157.000000;1.275060
9156.000000;1.274396
9155.000000;1.273858
9154.000000;1.273850
9153.000000;1.274463
9152.000000;1.275248
9151.000000;1.275464
9150.000000;1.274811
9149.000000;1.273787
9148.000000;1.272992
9147.000000;1.272254
9146.000000;1.270950
9145.000000;1.269159
9144.000000;1.267856
9143.000000;1.267735
9142.000000;1.268347
9141.000000;1.268750
9140.000000;1.268677
9139.000000;1.268597
9138.000000;1.268805
9137.000000;1.268995
9136.000000;1.268817
9135.000000;1.268465
9134.000000;1.268373
9133.000000;1.268453
9132.000000;1.268080
9131.000000;1.267046
9130.000000;1.266181
9129.000000;1.266517
9128.000000;1.267951
9127.000000;1.269194
9126.000000;1.269126
9125.000000;1.267792
9124.000000;1.266029
9123.000000;1.264694
9122.000000;1.264418
9121.000000;1.265468
9120.000000;1.267292
9119.000000;1.268634
9118.000000;1.268707
9117.000000;1.267985
9116.000000;1.267351
9115.000000;1.266921
9114.000000;1.266224
9113.000000;1.265087
9112.000000;1.263747
9111.000000;1.262410
9110.000000;1.261326
9109.000000;1.260978
9108.000000;1.261508
9107.000000;1.262156
9106.000000;1.262002
9105.000000;1.261229
9104.000000;1.260943
9103.000000;1.261708
9102.000000;1.262903
9101.000000;1.263599
9100.000000;1.263530
9099.000000;1.263029
9098.000000;1.262476
9097.000000;1.261999
9096.000000;1.261450
9095.000000;1.260613
9094.000000;1.259565
9093.000000;1.258652
9092.000000;1.257922
9091.000000;1.257008
9090.000000;1.255973
9089.000000;1.255799
9088.000000;1.257203
9087.000000;1.259230
9086.000000;1.259906
9085.000000;1.258446
9084.000000;1.256051
9083.000000;1.254403
9082.000000;1.254214
9081.000000;1.255276
9080.000000;1.256962
9079.000000;1.258232
9078.000000;1.258013
9077.000000;1.256270
9076.000000;1.254285
9075.000000;1.253339
9074.000000;1.253393
9073.000000;1.253441
9072.000000;1.252841
9071.000000;1.251859
9070.000000;1.251128
9069.000000;1.251025
9068.000000;1.251536
9067.000000;1.252326
9066.000000;1.252870
9065.000000;1.252809
9064.000000;1.252287
9063.000000;1.251842
9062.000000;1.251873
9061.000000;1.252203
9060.000000;1.252237
9059.000000;1.251614
9058.000000;1.250633
9057.000000;1.249847
9056.000000;1.249269
9055.000000;1.248401
9054.000000;1.247188
9053.000000;1.246458
