Criado como novo conjunto de dados;"1909daniel.spp","-4256263.3 Secs"
cm-1;Abs
10000.000000;1.831178
9999.000000;1.829703
9998.000000;1.826700
9997.000000;1.824892
9996.000000;1.826428
9995.000000;1.829858
9994.000000;1.832601
9993.000000;1.833162
9992.000000;1.832280
9991.000000;1.830899
9990.000000;1.829254
9989.000000;1.827158
9988.000000;1.824694
9987.000000;1.822199
9986.000000;1.820229
9985.000000;1.819468
9984.000000;1.819933
9983.000000;1.820132
9982.000000;1.817934
9981.000000;1.813104
9980.000000;1.808208
9979.000000;1.806088
9978.000000;1.807123
9977.000000;1.809405
9976.000000;1.811093
9975.000000;1.811963
9974.000000;1.812667
9973.000000;1.813216
9972.000000;1.812632
9971.000000;1.810023
9970.000000;1.806041
9969.000000;1.803068
9968.000000;1.803438
9967.000000;1.807133
9966.000000;1.811305
9965.000000;1.812608
9964.000000;1.810260
9963.000000;1.806497
9962.000000;1.804095
9961.000000;1.803901
9960.000000;1.804440
9959.000000;1.803472
9958.000000;1.800195
9957.000000;1.796209
9956.000000;1.794084
9955.000000;1.794897
9954.000000;1.797379
9953.000000;1.799386
9952.000000;1.799650
9951.000000;1.797841
9950.000000;1.794036
9949.000000;1.789460
9948.000000;1.786827
9947.000000;1.788190
9946.000000;1.792372
9945.000000;1.795481
9944.000000;1.794612
9943.000000;1.790625
9942.000000;1.786751
9941.000000;1.785303
9940.000000;1.786177
9939.000000;1.787567
9938.000000;1.787786
9937.000000;1.786997
9936.000000;1.786918
9935.000000;1.788281
9934.000000;1.789409
9933.000000;1.788029
9932.000000;1.784269
9931.000000;1.780907
9930.000000;1.780306
9929.000000;1.781949
9928.000000;1.783517
9927.000000;1.783656
9926.000000;1.782925
9925.000000;1.782387
9924.000000;1.782304
9923.000000;1.782254
9922.000000;1.781759
9921.000000;1.780492
9920.000000;1.778253
9919.000000;1.775058
9918.000000;1.771305
9917.000000;1.768086
9916.000000;1.767002
9915.000000;1.768855
9914.000000;1.772407
9913.000000;1.774962
9912.000000;1.774730
9911.000000;1.772388
9910.000000;1.769859
9909.000000;1.768074
9908.000000;1.766448
9907.000000;1.764092
9906.000000;1.761021
9905.000000;1.758312
9904.000000;1.757218
9903.000000;1.757919
9902.000000;1.759125
9901.000000;1.759405
9900.000000;1.758983
9899.000000;1.759477
9898.000000;1.761584
9897.000000;1.763904
9896.000000;1.764591
9895.000000;1.763393
9894.000000;1.761241
9893.000000;1.758727
9892.000000;1.756078
9891.000000;1.754118
9890.000000;1.753947
9889.000000;1.755301
9888.000000;1.756443
9887.000000;1.756192
9886.000000;1.755053
9885.000000;1.754101
9884.000000;1.753748
9883.000000;1.753917
9882.000000;1.754549
9881.000000;1.755384
9880.000000;1.755764
9879.000000;1.755281
9878.000000;1.754285
9877.000000;1.753359
9876.000000;1.752536
9875.000000;1.751339
9874.000000;1.749387
9873.000000;1.746833
9872.000000;1.744414
9871.000000;1.743074
9870.000000;1.743164
9869.000000;1.743897
9868.000000;1.743999
9867.000000;1.742983
9866.000000;1.741283
9865.000000;1.739273
9864.000000;1.737057
9863.000000;1.735319
9862.000000;1.735292
9861.000000;1.737206
9860.000000;1.739515
9859.000000;1.740464
9858.000000;1.739974
9857.000000;1.739151
9856.000000;1.738395
9855.000000;1.737095
9854.000000;1.734990
9853.000000;1.732695
9852.000000;1.730698
9851.000000;1.728796
9850.000000;1.726949
9849.000000;1.725975
9848.000000;1.726703
9847.000000;1.728629
9846.000000;1.729917
9845.000000;1.728944
9844.000000;1.725895
9843.000000;1.722827
9842.000000;1.722019
9841.000000;1.723866
9840.000000;1.726296
9839.000000;1.726656
9838.000000;1.724370
9837.000000;1.721268
9836.000000;1.719203
9835.000000;1.718190
9834.000000;1.717291
9833.000000;1.716434
9832.000000;1.716478
9831.000000;1.717741
9830.000000;1.719237
9829.000000;1.719528
9828.000000;1.717997
9827.000000;1.715200
9826.000000;1.712400
9825.000000;1.710855
9824.000000;1.711049
9823.000000;1.712372
9822.000000;1.713749
9821.000000;1.714465
9820.000000;1.714140
9819.000000;1.712360
9818.000000;1.709202
9817.000000;1.705979
9816.000000;1.704425
9815.000000;1.704652
9814.000000;1.704589
9813.000000;1.702182
9812.000000;1.697747
9811.000000;1.693441
9810.000000;1.690866
9809.000000;1.690035
9808.000000;1.690380
9807.000000;1.691615
9806.000000;1.693320
9805.000000;1.694562
9804.000000;1.694657
9803.000000;1.693991
9802.000000;1.693603
9801.000000;1.694024
9800.000000;1.694769
9799.000000;1.694828
9798.000000;1.693498
9797.000000;1.691028
9796.000000;1.688656
9795.000000;1.687805
9794.000000;1.688992
9793.000000;1.691484
9792.000000;1.693993
9791.000000;1.695404
9790.000000;1.694823
9789.000000;1.691705
9788.000000;1.686626
9787.000000;1.681449
9786.000000;1.678034
9785.000000;1.676939
9784.000000;1.677589
9783.000000;1.679335
9782.000000;1.681798
9781.000000;1.684233
9780.000000;1.685515
9779.000000;1.685219
9778.000000;1.684044
9777.000000;1.682609
9776.000000;1.680500
9775.000000;1.677187
9774.000000;1.673407
9773.000000;1.670850
9772.000000;1.670582
9771.000000;1.672274
9770.000000;1.674700
9769.000000;1.676442
9768.000000;1.676370
9767.000000;1.674224
9766.000000;1.671131
9765.000000;1.669046
9764.000000;1.669142
9763.000000;1.670848
9762.000000;1.672490
9761.000000;1.672798
9760.000000;1.671930
9759.000000;1.671189
9758.000000;1.671813
9757.000000;1.673694
9756.000000;1.675035
9755.000000;1.673658
9754.000000;1.669054
9753.000000;1.662916
9752.000000;1.657485
9751.000000;1.653880
9750.000000;1.652234
9749.000000;1.652643
9748.000000;1.654890
9747.000000;1.657368
9746.000000;1.657651
9745.000000;1.655094
9744.000000;1.652035
9743.000000;1.651351
9742.000000;1.653325
9741.000000;1.655669
9740.000000;1.656350
9739.000000;1.655493
9738.000000;1.654253
9737.000000;1.653001
9736.000000;1.651452
9735.000000;1.649740
9734.000000;1.648426
9733.000000;1.647723
9732.000000;1.647422
9731.000000;1.647414
9730.000000;1.647599
9729.000000;1.647357
9728.000000;1.645878
9727.000000;1.643297
9726.000000;1.640925
9725.000000;1.639983
9724.000000;1.640327
9723.000000;1.640655
9722.000000;1.639841
9721.000000;1.637979
9720.000000;1.636339
9719.000000;1.636309
9718.000000;1.637984
9717.000000;1.639692
9716.000000;1.639431
9715.000000;1.637080
9714.000000;1.634587
9713.000000;1.633714
9712.000000;1.634260
9711.000000;1.634908
9710.000000;1.635137
9709.000000;1.635384
9708.000000;1.635617
9707.000000;1.634863
9706.000000;1.632545
9705.000000;1.629539
9704.000000;1.627321
9703.000000;1.626443
9702.000000;1.626278
9701.000000;1.626021
9700.000000;1.625499
9699.000000;1.625099
9698.000000;1.625331
9697.000000;1.626428
9696.000000;1.627986
9695.000000;1.628949
9694.000000;1.628259
9693.000000;1.625802
9692.000000;1.622591
9691.000000;1.619895
9690.000000;1.618270
9689.000000;1.617414
9688.000000;1.616703
9687.000000;1.615715
9686.000000;1.614402
9685.000000;1.613038
9684.000000;1.612054
9683.000000;1.611723
9682.000000;1.611941
9681.000000;1.612427
9680.000000;1.613051
9679.000000;1.613702
9678.000000;1.613860
9677.000000;1.612921
9676.000000;1.611283
9675.000000;1.610553
9674.000000;1.611910
9673.000000;1.614457
9672.000000;1.615907
9671.000000;1.614970
9670.000000;1.612355
9669.000000;1.609421
9668.000000;1.606910
9667.000000;1.605209
9666.000000;1.604679
9665.000000;1.604877
9664.000000;1.604268
9663.000000;1.601881
9662.000000;1.598858
9661.000000;1.597235
9660.000000;1.597487
9659.000000;1.598291
9658.000000;1.598437
9657.000000;1.597868
9656.000000;1.596846
9655.000000;1.595391
9654.000000;1.593932
9653.000000;1.593385
9652.000000;1.593942
9651.000000;1.594629
9650.000000;1.594578
9649.000000;1.594000
9648.000000;1.593400
9647.000000;1.592625
9646.000000;1.591333
9645.000000;1.589760
9644.000000;1.588354
9643.000000;1.587230
9642.000000;1.586709
9641.000000;1.587784
9640.000000;1.590989
9639.000000;1.594934
9638.000000;1.596862
9637.000000;1.594946
9636.000000;1.589686
9635.000000;1.583429
9634.000000;1.579214
9633.000000;1.579378
9632.000000;1.583673
9631.000000;1.588462
9630.000000;1.589227
9629.000000;1.584977
9628.000000;1.579297
9627.000000;1.576324
9626.000000;1.576688
9625.000000;1.577831
9624.000000;1.577549
9623.000000;1.576333
9622.000000;1.576170
9621.000000;1.577847
9620.000000;1.579984
9619.000000;1.580521
9618.000000;1.578752
9617.000000;1.575663
9616.000000;1.572632
9615.000000;1.570490
9614.000000;1.569732
9613.000000;1.570674
9612.000000;1.572682
9611.000000;1.573765
9610.000000;1.572023
9609.000000;1.567805
9608.000000;1.563744
9607.000000;1.562370
9606.000000;1.564042
9605.000000;1.567035
9604.000000;1.569105
9603.000000;1.569042
9602.000000;1.567306
9601.000000;1.565409
9600.000000;1.564434
9599.000000;1.564071
9598.000000;1.563321
9597.000000;1.562038
9596.000000;1.561056
9595.000000;1.560751
9594.000000;1.560433
9593.000000;1.559584
9592.000000;1.558865
9591.000000;1.559126
9590.000000;1.559962
9589.000000;1.560048
9588.000000;1.558720
9587.000000;1.556479
9586.000000;1.554074
9585.000000;1.551989
9584.000000;1.550879
9583.000000;1.551470
9582.000000;1.553491
9581.000000;1.555237
9580.000000;1.554862
9579.000000;1.552141
9578.000000;1.548626
9577.000000;1.546114
9576.000000;1.545220
9575.000000;1.545286
9574.000000;1.545279
9573.000000;1.544735
9572.000000;1.544022
9571.000000;1.543874
9570.000000;1.544703
9569.000000;1.546184
9568.000000;1.547264
9567.000000;1.546712
9566.000000;1.544125
9565.000000;1.540511
9564.000000;1.537712
9563.000000;1.537034
9562.000000;1.538190
9561.000000;1.539503
9560.000000;1.539227
9559.000000;1.536898
9558.000000;1.533631
9557.000000;1.531159
9556.000000;1.530484
9555.000000;1.531196
9554.000000;1.531979
9553.000000;1.531878
9552.000000;1.531121
9551.000000;1.530718
9550.000000;1.531346
9549.000000;1.532541
9548.000000;1.532951
9547.000000;1.531578
9546.000000;1.528851
9545.000000;1.526239
9544.000000;1.524745
9543.000000;1.524104
9542.000000;1.523551
9541.000000;1.522947
9540.000000;1.522735
9539.000000;1.523005
9538.000000;1.523259
9537.000000;1.523186
9536.000000;1.523018
9535.000000;1.522879
9534.000000;1.522289
9533.000000;1.520730
9532.000000;1.518486
9531.000000;1.516579
9530.000000;1.515894
9529.000000;1.516574
9528.000000;1.518061
9527.000000;1.519540
9526.000000;1.520532
9525.000000;1.521229
9524.000000;1.522062
9523.000000;1.522868
9522.000000;1.522738
9521.000000;1.520914
9520.000000;1.517664
9519.000000;1.514076
9518.000000;1.511216
9517.000000;1.509640
9516.000000;1.509392
9515.000000;1.510019
9514.000000;1.510711
9513.000000;1.510843
9512.000000;1.510478
9511.000000;1.510171
9510.000000;1.510362
9509.000000;1.511017
9508.000000;1.511702
9507.000000;1.511840
9506.000000;1.511069
9505.000000;1.509506
9504.000000;1.507572
9503.000000;1.505582
9502.000000;1.503762
9501.000000;1.502690
9500.000000;1.503178
9499.000000;1.505161
9498.000000;1.507025
9497.000000;1.506841
9496.000000;1.504452
9495.000000;1.501755
9494.000000;1.500780
9493.000000;1.501928
9492.000000;1.504027
9491.000000;1.505461
9490.000000;1.505168
9489.000000;1.503152
9488.000000;1.500457
9487.000000;1.498424
9486.000000;1.497658
9485.000000;1.497812
9484.000000;1.498340
9483.000000;1.499011
9482.000000;1.499464
9481.000000;1.498814
9480.000000;1.496407
9479.000000;1.492907
9478.000000;1.490072
9477.000000;1.489240
9476.000000;1.490193
9475.000000;1.491558
9474.000000;1.492134
9473.000000;1.491845
9472.000000;1.491614
9471.000000;1.492391
9470.000000;1.494088
9469.000000;1.495431
9468.000000;1.495085
9467.000000;1.492871
9466.000000;1.489776
9465.000000;1.486903
9464.000000;1.484649
9463.000000;1.482926
9462.000000;1.481721
9461.000000;1.481099
9460.000000;1.480866
9459.000000;1.480584
9458.000000;1.479896
9457.000000;1.478652
9456.000000;1.476878
9455.000000;1.474999
9454.000000;1.473899
9453.000000;1.474256
9452.000000;1.475662
9451.000000;1.476810
9450.000000;1.476853
9449.000000;1.476319
9448.000000;1.476239
9447.000000;1.476578
9446.000000;1.476196
9445.000000;1.474407
9444.000000;1.472000
9443.000000;1.470396
9442.000000;1.470155
9441.000000;1.470599
9440.000000;1.470705
9439.000000;1.470086
9438.000000;1.469151
9437.000000;1.468509
9436.000000;1.468342
9435.000000;1.468343
9434.000000;1.468252
9433.000000;1.468282
9432.000000;1.468779
9431.000000;1.469616
9430.000000;1.470249
9429.000000;1.470281
9428.000000;1.469576
9427.000000;1.467940
9426.000000;1.465367
9425.000000;1.462769
9424.000000;1.461649
9423.000000;1.462450
9422.000000;1.463729
9421.000000;1.463729
9420.000000;1.462543
9419.000000;1.461685
9418.000000;1.461656
9417.000000;1.461208
9416.000000;1.459415
9415.000000;1.457313
9414.000000;1.456593
9413.000000;1.457377
9412.000000;1.458222
9411.000000;1.458029
9410.000000;1.457013
9409.000000;1.455800
9408.000000;1.454512
9407.000000;1.453062
9406.000000;1.451724
9405.000000;1.450874
9404.000000;1.450424
9403.000000;1.450049
9402.000000;1.449879
9401.000000;1.450433
9400.000000;1.451815
9399.000000;1.453249
9398.000000;1.453632
9397.000000;1.452566
9396.000000;1.450753
9395.000000;1.449388
9394.000000;1.449212
9393.000000;1.450050
9392.000000;1.451054
9391.000000;1.451294
9390.000000;1.450256
9389.000000;1.448123
9388.000000;1.445712
9387.000000;1.443905
9386.000000;1.442918
9385.000000;1.442224
9384.000000;1.441393
9383.000000;1.440875
9382.000000;1.441585
9381.000000;1.443640
9380.000000;1.445860
9379.000000;1.446667
9378.000000;1.445345
9377.000000;1.442402
9376.000000;1.439008
9375.000000;1.436328
9374.000000;1.435043
9373.000000;1.435119
9372.000000;1.436029
9371.000000;1.437336
9370.000000;1.438867
9369.000000;1.440253
9368.000000;1.440769
9367.000000;1.440087
9366.000000;1.438905
9365.000000;1.438146
9364.000000;1.437537
9363.000000;1.435736
9362.000000;1.432203
9361.000000;1.428326
9360.000000;1.426150
9359.000000;1.426411
9358.000000;1.428284
9357.000000;1.430612
9356.000000;1.432615
9355.000000;1.433442
9354.000000;1.432128
9353.000000;1.428756
9352.000000;1.425154
9351.000000;1.423495
9350.000000;1.424132
9349.000000;1.425360
9348.000000;1.425507
9347.000000;1.424782
9346.000000;1.424590
9345.000000;1.425420
9344.000000;1.426213
9343.000000;1.425941
9342.000000;1.425072
9341.000000;1.424865
9340.000000;1.425568
9339.000000;1.426072
9338.000000;1.425469
9337.000000;1.424322
9336.000000;1.423937
9335.000000;1.424689
9334.000000;1.425565
9333.000000;1.425247
9332.000000;1.423333
9331.000000;1.420445
9330.000000;1.417522
9329.000000;1.415272
9328.000000;1.414157
9327.000000;1.414478
9326.000000;1.416170
9325.000000;1.418472
9324.000000;1.420047
9323.000000;1.419766
9322.000000;1.417594
9321.000000;1.414670
9320.000000;1.412496
9319.000000;1.411930
9318.000000;1.412725
9317.000000;1.413883
9316.000000;1.414542
9315.000000;1.414581
9314.000000;1.414321
9313.000000;1.413792
9312.000000;1.412687
9311.000000;1.411165
9310.000000;1.410218
9309.000000;1.410666
9308.000000;1.411947
9307.000000;1.412458
9306.000000;1.411318
9305.000000;1.409424
9304.000000;1.408423
9303.000000;1.408891
9302.000000;1.409829
9301.000000;1.409841
9300.000000;1.408590
9299.000000;1.407094
9298.000000;1.406642
9297.000000;1.407407
9296.000000;1.408147
9295.000000;1.407394
9294.000000;1.404947
9293.000000;1.402027
9292.000000;1.400041
9291.000000;1.399464
9290.000000;1.399816
9289.000000;1.400219
9288.000000;1.399857
9287.000000;1.398477
9286.000000;1.396868
9285.000000;1.396487
9284.000000;1.398073
9283.000000;1.400723
9282.000000;1.402620
9281.000000;1.402602
9280.000000;1.400818
9279.000000;1.398206
9278.000000;1.395784
9277.000000;1.394249
9276.000000;1.393683
9275.000000;1.393535
9274.000000;1.393214
9273.000000;1.392734
9272.000000;1.392555
9271.000000;1.392831
9270.000000;1.393196
9269.000000;1.393257
9268.000000;1.392906
9267.000000;1.392214
9266.000000;1.391466
9265.000000;1.391196
9264.000000;1.391704
9263.000000;1.392464
9262.000000;1.392543
9261.000000;1.391698
9260.000000;1.390569
9259.000000;1.389671
9258.000000;1.388737
9257.000000;1.387284
9256.000000;1.385360
9255.000000;1.383510
9254.000000;1.382350
9253.000000;1.382352
9252.000000;1.383504
9251.000000;1.384918
9250.000000;1.385320
9249.000000;1.384422
9248.000000;1.383399
9247.000000;1.383504
9246.000000;1.384590
9245.000000;1.385467
9244.000000;1.385403
9243.000000;1.384691
9242.000000;1.383872
9241.000000;1.383066
9240.000000;1.382183
9239.000000;1.381338
9238.000000;1.380837
9237.000000;1.380913
9236.000000;1.381450
9235.000000;1.381857
9234.000000;1.381418
9233.000000;1.380058
9232.000000;1.378571
9231.000000;1.377720
9230.000000;1.377385
9229.000000;1.377051
9228.000000;1.376797
9227.000000;1.377038
9226.000000;1.377436
9225.000000;1.377017
9224.000000;1.375582
9223.000000;1.374206
9222.000000;1.373894
9221.000000;1.374443
9220.000000;1.375088
9219.000000;1.375635
9218.000000;1.376294
9217.000000;1.376827
9216.000000;1.376669
9215.000000;1.375839
9214.000000;1.374995
9213.000000;1.374552
9212.000000;1.374295
9211.000000;1.373942
9210.000000;1.373560
9209.000000;1.373288
9208.000000;1.373059
9207.000000;1.372826
9206.000000;1.372699
9205.000000;1.372678
9204.000000;1.372496
9203.000000;1.371863
9202.000000;1.370726
9201.000000;1.369304
9200.000000;1.368079
9199.000000;1.367692
9198.000000;1.368408
9197.000000;1.369520
9196.000000;1.369724
9195.000000;1.368461
9194.000000;1.366683
9193.000000;1.365923
9192.000000;1.366744
9191.000000;1.368274
9190.000000;1.369129
9189.000000;1.368564
9188.000000;1.366869
9187.000000;1.364964
9186.000000;1.363653
9185.000000;1.363125
9184.000000;1.363097
9183.000000;1.363285
9182.000000;1.363466
9181.000000;1.363131
9180.000000;1.361684
9179.000000;1.359371
9178.000000;1.357550
9177.000000;1.357521
9176.000000;1.359245
9175.000000;1.361484
9174.000000;1.362925
9173.000000;1.362876
9172.000000;1.361362
9171.000000;1.359336
9170.000000;1.358456
9169.000000;1.359573
9168.000000;1.361323
9167.000000;1.361150
9166.000000;1.358202
9165.000000;1.354418
9164.000000;1.352267
9163.000000;1.352285
9162.000000;1.353302
9161.000000;1.354161
9160.000000;1.354385
9159.000000;1.353779
9158.000000;1.352552
9157.000000;1.351694
9156.000000;1.352300
9155.000000;1.354372
9154.000000;1.356809
9153.000000;1.358564
9152.000000;1.359244
9151.000000;1.358614
9150.000000;1.356346
9149.000000;1.352698
9148.000000;1.348942
9147.000000;1.346533
9146.000000;1.345951
9145.000000;1.346531
9144.000000;1.347230
9143.000000;1.347475
9142.000000;1.347441
9141.000000;1.347646
9140.000000;1.348264
9139.000000;1.348856
9138.000000;1.348856
9137.000000;1.348176
9136.000000;1.347111
9135.000000;1.345853
9134.000000;1.344466
9133.000000;1.343253
9132.000000;1.342662
9131.000000;1.342816
9130.000000;1.343508
9129.000000;1.344672
9128.000000;1.346321
9127.000000;1.347904
9126.000000;1.348374
9125.000000;1.347402
9124.000000;1.346090
9123.000000;1.345862
9122.000000;1.346833
9121.000000;1.347816
9120.000000;1.347855
9119.000000;1.347224
9118.000000;1.346702
9117.000000;1.346350
9116.000000;1.345496
9115.000000;1.343832
9114.000000;1.342069
9113.000000;1.341219
9112.000000;1.341405
9111.000000;1.341688
9110.000000;1.341162
9109.000000;1.340003
9108.000000;1.339216
9107.000000;1.339481
9106.000000;1.340546
9105.000000;1.341713
9104.000000;1.342600
9103.000000;1.343204
9102.000000;1.343411
9101.000000;1.342811
9100.000000;1.341112
9099.000000;1.338676
9098.000000;1.336513
9097.000000;1.335586
9096.000000;1.335979
9095.000000;1.336794
9094.000000;1.337059
9093.000000;1.336718
9092.000000;1.336522
9091.000000;1.336964
9090.000000;1.337627
9089.000000;1.337731
9088.000000;1.337086
9087.000000;1.336247
9086.000000;1.335844
9085.000000;1.336051
9084.000000;1.336592
9083.000000;1.337073
9082.000000;1.337286
9081.000000;1.337270
9080.000000;1.337123
9079.000000;1.336768
9078.000000;1.335982
9077.000000;1.334711
9076.000000;1.333236
9075.000000;1.331935
9074.000000;1.330914
9073.000000;1.330037
9072.000000;1.329341
9071.000000;1.329243
9070.000000;1.330105
9069.000000;1.331557
9068.000000;1.332472
9067.000000;1.331929
9066.000000;1.330233
9065.000000;1.328678
9064.000000;1.328183
9063.000000;1.328418
9062.000000;1.328493
9061.000000;1.328187
9060.000000;1.328017
9059.000000;1.328221
9058.000000;1.328300
9057.000000;1.327798
9056.000000;1.327052
9055.000000;1.326737
9054.000000;1.326909
9053.000000;1.326952
