Criado como novo conjunto de dados;"1909daniel.spp","-4260583.5 Secs"
cm-1;Abs
10000.000000;1.960749
9999.000000;1.959079
9998.000000;1.957119
9997.000000;1.955793
9996.000000;1.951428
9995.000000;1.944089
9994.000000;1.937740
9993.000000;1.933415
9992.000000;1.931499
9991.000000;1.931313
9990.000000;1.931787
9989.000000;1.931734
9988.000000;1.931088
9987.000000;1.931058
9986.000000;1.932492
9985.000000;1.934606
9984.000000;1.935825
9983.000000;1.935424
9982.000000;1.933902
9981.000000;1.932217
9980.000000;1.931242
9979.000000;1.931453
9978.000000;1.932182
9977.000000;1.931541
9976.000000;1.928327
9975.000000;1.923924
9974.000000;1.921042
9973.000000;1.920611
9972.000000;1.921153
9971.000000;1.921373
9970.000000;1.922070
9969.000000;1.924518
9968.000000;1.927843
9967.000000;1.929522
9966.000000;1.928367
9965.000000;1.925693
9964.000000;1.923427
9963.000000;1.922328
9962.000000;1.922301
9961.000000;1.923307
9960.000000;1.925114
9959.000000;1.926785
9958.000000;1.927437
9957.000000;1.927410
9956.000000;1.927742
9955.000000;1.928284
9954.000000;1.927303
9953.000000;1.923887
9952.000000;1.920131
9951.000000;1.919414
9950.000000;1.922362
9949.000000;1.925484
9948.000000;1.924474
9947.000000;1.918716
9946.000000;1.911542
9945.000000;1.906413
9944.000000;1.904585
9943.000000;1.905764
9942.000000;1.908653
9941.000000;1.910615
9940.000000;1.909031
9939.000000;1.904484
9938.000000;1.901120
9937.000000;1.902188
9936.000000;1.906143
9935.000000;1.908466
9934.000000;1.906889
9933.000000;1.903118
9932.000000;1.899764
9931.000000;1.897800
9930.000000;1.897095
9929.000000;1.897333
9928.000000;1.897515
9927.000000;1.896027
9926.000000;1.892323
9925.000000;1.887851
9924.000000;1.884668
9923.000000;1.883842
9922.000000;1.885583
9921.000000;1.889783
9920.000000;1.895389
9919.000000;1.900006
9918.000000;1.901545
9917.000000;1.900245
9916.000000;1.898111
9915.000000;1.896531
9914.000000;1.895263
9913.000000;1.893571
9912.000000;1.891535
9911.000000;1.889930
9910.000000;1.889131
9909.000000;1.888453
9908.000000;1.886712
9907.000000;1.883526
9906.000000;1.879887
9905.000000;1.877161
9904.000000;1.875743
9903.000000;1.875131
9902.000000;1.874991
9901.000000;1.875340
9900.000000;1.875703
9899.000000;1.875142
9898.000000;1.873720
9897.000000;1.873075
9896.000000;1.874680
9895.000000;1.877947
9894.000000;1.880653
9893.000000;1.880951
9892.000000;1.878662
9891.000000;1.875107
9890.000000;1.872311
9889.000000;1.871806
9888.000000;1.873191
9887.000000;1.873994
9886.000000;1.872085
9885.000000;1.868323
9884.000000;1.865615
9883.000000;1.865317
9882.000000;1.865775
9881.000000;1.864650
9880.000000;1.861657
9879.000000;1.858362
9878.000000;1.856227
9877.000000;1.855637
9876.000000;1.856260
9875.000000;1.857448
9874.000000;1.858348
9873.000000;1.858273
9872.000000;1.857273
9871.000000;1.856076
9870.000000;1.855360
9869.000000;1.855224
9868.000000;1.855229
9867.000000;1.854889
9866.000000;1.854342
9865.000000;1.854359
9864.000000;1.855403
9863.000000;1.856803
9862.000000;1.857267
9861.000000;1.856156
9860.000000;1.853813
9859.000000;1.850843
9858.000000;1.847885
9857.000000;1.846084
9856.000000;1.846681
9855.000000;1.849298
9854.000000;1.851232
9853.000000;1.849693
9852.000000;1.844980
9851.000000;1.840594
9850.000000;1.840022
9849.000000;1.843737
9848.000000;1.848772
9847.000000;1.850810
9846.000000;1.847506
9845.000000;1.840559
9844.000000;1.834172
9843.000000;1.831166
9842.000000;1.830786
9841.000000;1.830546
9840.000000;1.829818
9839.000000;1.830351
9838.000000;1.833092
9837.000000;1.836071
9836.000000;1.836476
9835.000000;1.834093
9834.000000;1.831210
9833.000000;1.829571
9832.000000;1.829017
9831.000000;1.828929
9830.000000;1.829423
9829.000000;1.830515
9828.000000;1.831077
9827.000000;1.829704
9826.000000;1.826498
9825.000000;1.823363
9824.000000;1.822591
9823.000000;1.825161
9822.000000;1.829826
9821.000000;1.833728
9820.000000;1.834593
9819.000000;1.832675
9818.000000;1.830129
9817.000000;1.828559
9816.000000;1.827916
9815.000000;1.827745
9814.000000;1.828423
9813.000000;1.830336
9812.000000;1.832383
9811.000000;1.832441
9810.000000;1.829468
9809.000000;1.824604
9808.000000;1.820107
9807.000000;1.817645
9806.000000;1.817420
9805.000000;1.818184
9804.000000;1.818062
9803.000000;1.815931
9802.000000;1.812168
9801.000000;1.808053
9800.000000;1.804665
9799.000000;1.802651
9798.000000;1.802518
9797.000000;1.804083
9796.000000;1.806018
9795.000000;1.806886
9794.000000;1.806401
9793.000000;1.805128
9792.000000;1.803338
9791.000000;1.801126
9790.000000;1.799487
9789.000000;1.799868
9788.000000;1.802094
9787.000000;1.803856
9786.000000;1.803233
9785.000000;1.800894
9784.000000;1.798896
9783.000000;1.798235
9782.000000;1.798619
9781.000000;1.799750
9780.000000;1.801426
9779.000000;1.802634
9778.000000;1.801905
9777.000000;1.799183
9776.000000;1.796603
9775.000000;1.796729
9774.000000;1.800231
9773.000000;1.805318
9772.000000;1.809000
9771.000000;1.808935
9770.000000;1.804634
9769.000000;1.797390
9768.000000;1.789339
9767.000000;1.782676
9766.000000;1.779220
9765.000000;1.779718
9764.000000;1.782935
9763.000000;1.786030
9762.000000;1.786956
9761.000000;1.786352
9760.000000;1.786023
9759.000000;1.785935
9758.000000;1.784049
9757.000000;1.779404
9756.000000;1.774226
9755.000000;1.771899
9754.000000;1.773404
9753.000000;1.776569
9752.000000;1.778504
9751.000000;1.778240
9750.000000;1.776889
9749.000000;1.775783
9748.000000;1.775161
9747.000000;1.774465
9746.000000;1.773504
9745.000000;1.773179
9744.000000;1.774698
9743.000000;1.777775
9742.000000;1.779956
9741.000000;1.778564
9740.000000;1.773765
9739.000000;1.769010
9738.000000;1.767813
9737.000000;1.770283
9736.000000;1.773045
9735.000000;1.772635
9734.000000;1.768906
9733.000000;1.764726
9732.000000;1.762761
9731.000000;1.763241
9730.000000;1.764527
9729.000000;1.765031
9728.000000;1.764404
9727.000000;1.763315
9726.000000;1.762558
9725.000000;1.762251
9724.000000;1.761674
9723.000000;1.760070
9722.000000;1.757800
9721.000000;1.756347
9720.000000;1.756772
9719.000000;1.758366
9718.000000;1.759350
9717.000000;1.758931
9716.000000;1.758038
9715.000000;1.757750
9714.000000;1.757784
9713.000000;1.756994
9712.000000;1.754907
9711.000000;1.752261
9710.000000;1.750121
9709.000000;1.748863
9708.000000;1.748069
9707.000000;1.747111
9706.000000;1.745755
9705.000000;1.744364
9704.000000;1.743617
9703.000000;1.743911
9702.000000;1.744922
9701.000000;1.745825
9700.000000;1.746046
9699.000000;1.745707
9698.000000;1.745212
9697.000000;1.744435
9696.000000;1.742594
9695.000000;1.739216
9694.000000;1.735139
9693.000000;1.732155
9692.000000;1.731467
9691.000000;1.732748
9690.000000;1.734785
9689.000000;1.736652
9688.000000;1.737918
9687.000000;1.738150
9686.000000;1.736991
9685.000000;1.734740
9684.000000;1.732288
9683.000000;1.730486
9682.000000;1.729967
9681.000000;1.731142
9680.000000;1.733407
9679.000000;1.734508
9678.000000;1.732224
9677.000000;1.727275
9676.000000;1.723145
9675.000000;1.722105
9674.000000;1.722648
9673.000000;1.721906
9672.000000;1.719659
9671.000000;1.718247
9670.000000;1.718942
9669.000000;1.720446
9668.000000;1.721275
9667.000000;1.721882
9666.000000;1.723369
9665.000000;1.725478
9664.000000;1.727260
9663.000000;1.728762
9662.000000;1.730531
9661.000000;1.731945
9660.000000;1.731612
9659.000000;1.729381
9658.000000;1.726505
9657.000000;1.723702
9656.000000;1.720487
9655.000000;1.716794
9654.000000;1.713866
9653.000000;1.712770
9652.000000;1.713015
9651.000000;1.713379
9650.000000;1.713588
9649.000000;1.714349
9648.000000;1.715915
9647.000000;1.717422
9646.000000;1.717631
9645.000000;1.715853
9644.000000;1.712260
9643.000000;1.707793
9642.000000;1.703700
9641.000000;1.700728
9640.000000;1.698876
9639.000000;1.698035
9638.000000;1.698295
9637.000000;1.699300
9636.000000;1.699957
9635.000000;1.699547
9634.000000;1.698781
9633.000000;1.698804
9632.000000;1.699214
9631.000000;1.698219
9630.000000;1.695142
9629.000000;1.691807
9628.000000;1.690751
9627.000000;1.692510
9626.000000;1.695115
9625.000000;1.696092
9624.000000;1.694635
9623.000000;1.691948
9622.000000;1.689992
9621.000000;1.689960
9620.000000;1.691530
9619.000000;1.693200
9618.000000;1.693368
9617.000000;1.691326
9616.000000;1.687553
9615.000000;1.683446
9614.000000;1.680784
9613.000000;1.680916
9612.000000;1.683896
9611.000000;1.688184
9610.000000;1.691453
9609.000000;1.692208
9608.000000;1.690868
9607.000000;1.689132
9606.000000;1.688165
9605.000000;1.687402
9604.000000;1.685407
9603.000000;1.682077
9602.000000;1.679255
9601.000000;1.678625
9600.000000;1.679614
9599.000000;1.680078
9598.000000;1.678834
9597.000000;1.676610
9596.000000;1.674428
9595.000000;1.672290
9594.000000;1.669997
9593.000000;1.668232
9592.000000;1.667900
9591.000000;1.668813
9590.000000;1.669909
9589.000000;1.670669
9588.000000;1.671534
9587.000000;1.672820
9586.000000;1.673912
9585.000000;1.673778
9584.000000;1.671960
9583.000000;1.668917
9582.000000;1.665635
9581.000000;1.662943
9580.000000;1.661036
9579.000000;1.659605
9578.000000;1.658348
9577.000000;1.657192
9576.000000;1.656147
9575.000000;1.655410
9574.000000;1.655664
9573.000000;1.657595
9572.000000;1.660640
9571.000000;1.662764
9570.000000;1.662306
9569.000000;1.659853
9568.000000;1.657444
9567.000000;1.656236
9566.000000;1.655815
9565.000000;1.655415
9564.000000;1.654813
9563.000000;1.654011
9562.000000;1.653066
9561.000000;1.652569
9560.000000;1.653193
9559.000000;1.654293
9558.000000;1.654055
9557.000000;1.651919
9556.000000;1.649838
9555.000000;1.649910
9554.000000;1.651516
9553.000000;1.652095
9552.000000;1.650541
9551.000000;1.648428
9550.000000;1.647639
9549.000000;1.648225
9548.000000;1.649130
9547.000000;1.649896
9546.000000;1.650719
9545.000000;1.651410
9544.000000;1.651394
9543.000000;1.650583
9542.000000;1.649508
9541.000000;1.648522
9540.000000;1.647480
9539.000000;1.646286
9538.000000;1.645206
9537.000000;1.644415
9536.000000;1.643705
9535.000000;1.642938
9534.000000;1.642386
9533.000000;1.642223
9532.000000;1.641958
9531.000000;1.640881
9530.000000;1.638992
9529.000000;1.637044
9528.000000;1.635669
9527.000000;1.634806
9526.000000;1.634048
9525.000000;1.633221
9524.000000;1.632436
9523.000000;1.631781
9522.000000;1.631175
9521.000000;1.630420
9520.000000;1.629260
9519.000000;1.627497
9518.000000;1.625320
9517.000000;1.623534
9516.000000;1.623076
9515.000000;1.624050
9514.000000;1.625365
9513.000000;1.625661
9512.000000;1.624823
9511.000000;1.624465
9510.000000;1.626499
9509.000000;1.630874
9508.000000;1.634963
9507.000000;1.635833
9506.000000;1.633280
9505.000000;1.629866
9504.000000;1.627913
9503.000000;1.627295
9502.000000;1.626376
9501.000000;1.624382
9500.000000;1.622136
9499.000000;1.620697
9498.000000;1.620171
9497.000000;1.619938
9496.000000;1.619269
9495.000000;1.617517
9494.000000;1.614371
9493.000000;1.610474
9492.000000;1.607441
9491.000000;1.606745
9490.000000;1.608497
9489.000000;1.611356
9488.000000;1.613529
9487.000000;1.613938
9486.000000;1.612752
9485.000000;1.611027
9484.000000;1.609704
9483.000000;1.608816
9482.000000;1.607759
9481.000000;1.606408
9480.000000;1.605665
9479.000000;1.606473
9478.000000;1.608408
9477.000000;1.609718
9476.000000;1.608956
9475.000000;1.606475
9474.000000;1.604092
9473.000000;1.603280
9472.000000;1.603694
9471.000000;1.603434
9470.000000;1.601040
9469.000000;1.597278
9468.000000;1.594585
9467.000000;1.594769
9466.000000;1.597590
9465.000000;1.601336
9464.000000;1.604159
9463.000000;1.604803
9462.000000;1.602877
9461.000000;1.599244
9460.000000;1.595813
9459.000000;1.593972
9458.000000;1.593188
9457.000000;1.591852
9456.000000;1.589542
9455.000000;1.587662
9454.000000;1.587618
9453.000000;1.589105
9452.000000;1.590524
9451.000000;1.590573
9450.000000;1.589163
9449.000000;1.587217
9448.000000;1.585987
9447.000000;1.586207
9446.000000;1.587430
9445.000000;1.588282
9444.000000;1.587760
9443.000000;1.586174
9442.000000;1.584593
9441.000000;1.583623
9440.000000;1.583035
9439.000000;1.582392
9438.000000;1.581679
9437.000000;1.581326
9436.000000;1.581737
9435.000000;1.582652
9434.000000;1.583027
9433.000000;1.581956
9432.000000;1.579877
9431.000000;1.578353
9430.000000;1.578380
9429.000000;1.579297
9428.000000;1.579775
9427.000000;1.579615
9426.000000;1.579913
9425.000000;1.581436
9424.000000;1.583435
9423.000000;1.584331
9422.000000;1.583288
9421.000000;1.580868
9420.000000;1.578242
9419.000000;1.575943
9418.000000;1.573528
9417.000000;1.570568
9416.000000;1.567784
9415.000000;1.566717
9414.000000;1.568094
9413.000000;1.570862
9412.000000;1.573214
9411.000000;1.574393
9410.000000;1.575056
9409.000000;1.576032
9408.000000;1.577283
9407.000000;1.578057
9406.000000;1.577589
9405.000000;1.575621
9404.000000;1.572711
9403.000000;1.570068
9402.000000;1.568714
9401.000000;1.568656
9400.000000;1.568968
9399.000000;1.568652
9398.000000;1.567244
9397.000000;1.564822
9396.000000;1.561935
9395.000000;1.559527
9394.000000;1.558351
9393.000000;1.558277
9392.000000;1.558520
9391.000000;1.558665
9390.000000;1.559052
9389.000000;1.560013
9388.000000;1.561212
9387.000000;1.561977
9386.000000;1.561862
9385.000000;1.560562
9384.000000;1.557756
9383.000000;1.553626
9382.000000;1.549400
9381.000000;1.546915
9380.000000;1.547432
9379.000000;1.550737
9378.000000;1.555104
9377.000000;1.558210
9376.000000;1.558660
9375.000000;1.557001
9374.000000;1.555013
9373.000000;1.553945
9372.000000;1.553724
9371.000000;1.553764
9370.000000;1.553886
9369.000000;1.554106
9368.000000;1.554125
9367.000000;1.553720
9366.000000;1.553318
9365.000000;1.553419
9364.000000;1.553542
9363.000000;1.552551
9362.000000;1.550223
9361.000000;1.547851
9360.000000;1.546951
9359.000000;1.547770
9358.000000;1.549301
9357.000000;1.550343
9356.000000;1.550177
9355.000000;1.548579
9354.000000;1.545799
9353.000000;1.542716
9352.000000;1.540568
9351.000000;1.540078
9350.000000;1.540842
9349.000000;1.541715
9348.000000;1.541783
9347.000000;1.540880
9346.000000;1.539265
9345.000000;1.537180
9344.000000;1.534984
9343.000000;1.533408
9342.000000;1.533085
9341.000000;1.533709
9340.000000;1.534131
9339.000000;1.533568
9338.000000;1.532430
9337.000000;1.531670
9336.000000;1.531635
9335.000000;1.531926
9334.000000;1.532098
9333.000000;1.532067
9332.000000;1.531937
9331.000000;1.531840
9330.000000;1.531926
9329.000000;1.532161
9328.000000;1.532127
9327.000000;1.531407
9326.000000;1.530236
9325.000000;1.529488
9324.000000;1.529874
9323.000000;1.531283
9322.000000;1.532967
9321.000000;1.534248
9320.000000;1.534987
9319.000000;1.535403
9318.000000;1.535492
9317.000000;1.534744
9316.000000;1.532575
9315.000000;1.529127
9314.000000;1.525582
9313.000000;1.523399
9312.000000;1.523210
9311.000000;1.524423
9310.000000;1.525637
9309.000000;1.525503
9308.000000;1.523627
9307.000000;1.520926
9306.000000;1.518990
9305.000000;1.518787
9304.000000;1.519860
9303.000000;1.520821
9302.000000;1.520542
9301.000000;1.518844
9300.000000;1.516363
9299.000000;1.514111
9298.000000;1.513074
9297.000000;1.513737
9296.000000;1.515655
9295.000000;1.517656
9294.000000;1.518678
9293.000000;1.518481
9292.000000;1.517589
9291.000000;1.516676
9290.000000;1.516052
9289.000000;1.515622
9288.000000;1.515229
9287.000000;1.514975
9286.000000;1.515192
9285.000000;1.516085
9284.000000;1.517452
9283.000000;1.518797
9282.000000;1.519508
9281.000000;1.518957
9280.000000;1.517008
9279.000000;1.514657
9278.000000;1.513610
9277.000000;1.514713
9276.000000;1.516921
9275.000000;1.518148
9274.000000;1.517129
9273.000000;1.514230
9272.000000;1.510613
9271.000000;1.507360
9270.000000;1.505287
9269.000000;1.504727
9268.000000;1.505206
9267.000000;1.505807
9266.000000;1.506198
9265.000000;1.506949
9264.000000;1.508490
9263.000000;1.510047
9262.000000;1.510156
9261.000000;1.508370
9260.000000;1.506073
9259.000000;1.505213
9258.000000;1.506267
9257.000000;1.507637
9256.000000;1.507276
9255.000000;1.504879
9254.000000;1.502054
9253.000000;1.500283
9252.000000;1.499383
9251.000000;1.498323
9250.000000;1.496971
9249.000000;1.496293
9248.000000;1.496962
9247.000000;1.498480
9246.000000;1.499759
9245.000000;1.500041
9244.000000;1.499225
9243.000000;1.497850
9242.000000;1.496887
9241.000000;1.496967
9240.000000;1.497627
9239.000000;1.497908
9238.000000;1.497789
9237.000000;1.498271
9236.000000;1.499722
9235.000000;1.500944
9234.000000;1.500469
9233.000000;1.498191
9232.000000;1.495113
9231.000000;1.492130
9230.000000;1.489812
9229.000000;1.488825
9228.000000;1.489409
9227.000000;1.490539
9226.000000;1.490614
9225.000000;1.489368
9224.000000;1.488333
9223.000000;1.488963
9222.000000;1.490904
9221.000000;1.492554
9220.000000;1.492856
9219.000000;1.491960
9218.000000;1.490395
9217.000000;1.488506
9216.000000;1.486804
9215.000000;1.486139
9214.000000;1.486981
9213.000000;1.488701
9212.000000;1.489912
9211.000000;1.489594
9210.000000;1.487775
9209.000000;1.485275
9208.000000;1.483135
9207.000000;1.482157
9206.000000;1.482410
9205.000000;1.482975
9204.000000;1.482667
9203.000000;1.481349
9202.000000;1.480225
9201.000000;1.480621
9200.000000;1.482739
9199.000000;1.485698
9198.000000;1.488319
9197.000000;1.489524
9196.000000;1.488500
9195.000000;1.485349
9194.000000;1.481592
9193.000000;1.479238
9192.000000;1.479037
9191.000000;1.479939
9190.000000;1.480382
9189.000000;1.479861
9188.000000;1.479122
9187.000000;1.479123
9186.000000;1.480021
9185.000000;1.480924
9184.000000;1.480563
9183.000000;1.478523
9182.000000;1.475880
9181.000000;1.474282
9180.000000;1.474385
9179.000000;1.475475
9178.000000;1.476499
9177.000000;1.476964
9176.000000;1.476783
9175.000000;1.475833
9174.000000;1.474014
9173.000000;1.471466
9172.000000;1.468551
9171.000000;1.465861
9170.000000;1.464225
9169.000000;1.464181
9168.000000;1.465312
9167.000000;1.466504
9166.000000;1.467013
9165.000000;1.466895
9164.000000;1.466374
9163.000000;1.465418
9162.000000;1.464173
9161.000000;1.463179
9160.000000;1.462788
9159.000000;1.462847
9158.000000;1.463195
9157.000000;1.463987
9156.000000;1.465180
9155.000000;1.466203
9154.000000;1.466594
9153.000000;1.466603
9152.000000;1.466722
9151.000000;1.467002
9150.000000;1.467161
9149.000000;1.466893
9148.000000;1.465746
9147.000000;1.463339
9146.000000;1.460145
9145.000000;1.457530
9144.000000;1.456452
9143.000000;1.456612
9142.000000;1.457340
9141.000000;1.458630
9140.000000;1.460592
9139.000000;1.462505
9138.000000;1.463423
9137.000000;1.463481
9136.000000;1.463559
9135.000000;1.463792
9134.000000;1.463427
9133.000000;1.462231
9132.000000;1.461074
9131.000000;1.460892
9130.000000;1.461701
9129.000000;1.462707
9128.000000;1.462827
9127.000000;1.461230
9126.000000;1.458161
9125.000000;1.455225
9124.000000;1.454114
9123.000000;1.454938
9122.000000;1.456346
9121.000000;1.457224
9120.000000;1.457560
9119.000000;1.457677
9118.000000;1.457667
9117.000000;1.457802
9116.000000;1.458460
9115.000000;1.459110
9114.000000;1.458263
9113.000000;1.455220
9112.000000;1.451351
9111.000000;1.448953
9110.000000;1.449232
9109.000000;1.451690
9108.000000;1.454863
9107.000000;1.457269
9106.000000;1.458075
9105.000000;1.457470
9104.000000;1.456295
9103.000000;1.455026
9102.000000;1.453465
9101.000000;1.451638
9100.000000;1.450364
9099.000000;1.450344
9098.000000;1.451100
9097.000000;1.451453
9096.000000;1.450780
9095.000000;1.449282
9094.000000;1.447405
9093.000000;1.445680
9092.000000;1.444892
9091.000000;1.445631
9090.000000;1.447550
9089.000000;1.449530
9088.000000;1.450585
9087.000000;1.450238
9086.000000;1.448268
9085.000000;1.444918
9084.000000;1.441447
9083.000000;1.439662
9082.000000;1.440391
9081.000000;1.442581
9080.000000;1.444205
9079.000000;1.444094
9078.000000;1.442845
9077.000000;1.442107
9076.000000;1.443091
9075.000000;1.445434
9074.000000;1.447304
9073.000000;1.447003
9072.000000;1.444748
9071.000000;1.442586
9070.000000;1.442297
9069.000000;1.443665
9068.000000;1.445001
9067.000000;1.445109
9066.000000;1.444272
9065.000000;1.443335
9064.000000;1.442502
9063.000000;1.441459
9062.000000;1.440358
9061.000000;1.440038
9060.000000;1.441079
9059.000000;1.442890
9058.000000;1.444060
9057.000000;1.443743
9056.000000;1.442470
9055.000000;1.441413
9054.000000;1.440949
9053.000000;1.440270
