Criado como novo conjunto de dados;"1909daniel.spp","-4221161.6 Secs"
cm-1;Abs
10000.000000;1.472341
9999.000000;1.473301
9998.000000;1.474262
9997.000000;1.475226
9996.000000;1.476193
9995.000000;1.477160
9994.000000;1.478134
9993.000000;1.479102
9992.000000;1.480083
9991.000000;1.481045
9990.000000;1.482060
9989.000000;1.482770
9988.000000;1.482480
9987.000000;1.480959
9986.000000;1.478579
9985.000000;1.476415
9984.000000;1.475657
9983.000000;1.476434
9982.000000;1.477482
9981.000000;1.477481
9980.000000;1.476549
9979.000000;1.475787
9978.000000;1.475549
9977.000000;1.475022
9976.000000;1.473706
9975.000000;1.472465
9974.000000;1.472520
9973.000000;1.473855
9972.000000;1.475100
9971.000000;1.474810
9970.000000;1.472615
9969.000000;1.469408
9968.000000;1.466818
9967.000000;1.466276
9966.000000;1.468036
9965.000000;1.470896
9964.000000;1.473025
9963.000000;1.473253
9962.000000;1.471660
9961.000000;1.469171
9960.000000;1.466797
9959.000000;1.465106
9958.000000;1.464014
9957.000000;1.463055
9956.000000;1.461955
9955.000000;1.460895
9954.000000;1.460143
9953.000000;1.459579
9952.000000;1.458789
9951.000000;1.457591
9950.000000;1.456289
9949.000000;1.455358
9948.000000;1.454918
9947.000000;1.454576
9946.000000;1.453829
9945.000000;1.452704
9944.000000;1.451894
9943.000000;1.452046
9942.000000;1.452924
9941.000000;1.453581
9940.000000;1.453404
9939.000000;1.452644
9938.000000;1.451848
9937.000000;1.451201
9936.000000;1.450653
9935.000000;1.450284
9934.000000;1.450141
9933.000000;1.449944
9932.000000;1.449403
9931.000000;1.448691
9930.000000;1.448182
9929.000000;1.447686
9928.000000;1.446445
9927.000000;1.444076
9926.000000;1.441256
9925.000000;1.439212
9924.000000;1.438616
9923.000000;1.439064
9922.000000;1.439517
9921.000000;1.439166
9920.000000;1.437971
9919.000000;1.436527
9918.000000;1.435438
9917.000000;1.434805
9916.000000;1.434244
9915.000000;1.433366
9914.000000;1.432209
9913.000000;1.431207
9912.000000;1.430810
9911.000000;1.431144
9910.000000;1.431974
9909.000000;1.432872
9908.000000;1.433386
9907.000000;1.433140
9906.000000;1.431947
9905.000000;1.429951
9904.000000;1.427662
9903.000000;1.425809
9902.000000;1.424942
9901.000000;1.425043
9900.000000;1.425513
9899.000000;1.425664
9898.000000;1.425326
9897.000000;1.424884
9896.000000;1.424656
9895.000000;1.424404
9894.000000;1.423707
9893.000000;1.422683
9892.000000;1.421996
9891.000000;1.422120
9890.000000;1.422860
9889.000000;1.423609
9888.000000;1.423762
9887.000000;1.422836
9886.000000;1.420637
9885.000000;1.417627
9884.000000;1.414800
9883.000000;1.412893
9882.000000;1.411841
9881.000000;1.411164
9880.000000;1.410647
9879.000000;1.410415
9878.000000;1.410599
9877.000000;1.411190
9876.000000;1.412031
9875.000000;1.412722
9874.000000;1.412776
9873.000000;1.412132
9872.000000;1.411263
9871.000000;1.410473
9870.000000;1.409473
9869.000000;1.408078
9868.000000;1.406842
9867.000000;1.406350
9866.000000;1.406239
9865.000000;1.405670
9864.000000;1.404605
9863.000000;1.403791
9862.000000;1.403508
9861.000000;1.403234
9860.000000;1.402638
9859.000000;1.402029
9858.000000;1.401495
9857.000000;1.400446
9856.000000;1.398540
9855.000000;1.396434
9854.000000;1.394991
9853.000000;1.394229
9852.000000;1.393664
9851.000000;1.393303
9850.000000;1.393608
9849.000000;1.394640
9848.000000;1.395810
9847.000000;1.396501
9846.000000;1.396488
9845.000000;1.395721
9844.000000;1.394117
9843.000000;1.391764
9842.000000;1.389170
9841.000000;1.387184
9840.000000;1.386652
9839.000000;1.387850
9838.000000;1.389965
9837.000000;1.391312
9836.000000;1.390563
9835.000000;1.387917
9834.000000;1.384882
9833.000000;1.382904
9832.000000;1.382311
9831.000000;1.382459
9830.000000;1.382607
9829.000000;1.382580
9828.000000;1.382647
9827.000000;1.382893
9826.000000;1.382902
9825.000000;1.382290
9824.000000;1.381384
9823.000000;1.380994
9822.000000;1.381466
9821.000000;1.382274
9820.000000;1.382621
9819.000000;1.382144
9818.000000;1.380882
9817.000000;1.379017
9816.000000;1.376978
9815.000000;1.375420
9814.000000;1.374699
9813.000000;1.374515
9812.000000;1.374306
9811.000000;1.373761
9810.000000;1.372789
9809.000000;1.371334
9808.000000;1.369648
9807.000000;1.368405
9806.000000;1.367974
9805.000000;1.367690
9804.000000;1.366437
9803.000000;1.364055
9802.000000;1.361647
9801.000000;1.360381
9800.000000;1.360429
9799.000000;1.361172
9798.000000;1.362031
9797.000000;1.362817
9796.000000;1.363474
9795.000000;1.363761
9794.000000;1.363252
9793.000000;1.361668
9792.000000;1.359347
9791.000000;1.357255
9790.000000;1.356172
9789.000000;1.355880
9788.000000;1.355469
9787.000000;1.354528
9786.000000;1.353623
9785.000000;1.353423
9784.000000;1.353833
9783.000000;1.354327
9782.000000;1.354738
9781.000000;1.355209
9780.000000;1.355602
9779.000000;1.355520
9778.000000;1.354892
9777.000000;1.353993
9776.000000;1.352855
9775.000000;1.351217
9774.000000;1.349180
9773.000000;1.347427
9772.000000;1.346497
9771.000000;1.346192
9770.000000;1.345984
9769.000000;1.345708
9768.000000;1.345522
9767.000000;1.345377
9766.000000;1.344936
9765.000000;1.344014
9764.000000;1.342804
9763.000000;1.341613
9762.000000;1.340627
9761.000000;1.339936
9760.000000;1.339484
9759.000000;1.339016
9758.000000;1.338394
9757.000000;1.337954
9756.000000;1.338131
9755.000000;1.338758
9754.000000;1.339155
9753.000000;1.338996
9752.000000;1.338734
9751.000000;1.338854
9750.000000;1.339030
9749.000000;1.338451
9748.000000;1.336801
9747.000000;1.334558
9746.000000;1.332437
9745.000000;1.330924
9744.000000;1.330237
9743.000000;1.330230
9742.000000;1.330239
9741.000000;1.329467
9740.000000;1.327808
9739.000000;1.326039
9738.000000;1.325037
9737.000000;1.324969
9736.000000;1.325323
9735.000000;1.325474
9734.000000;1.325026
9733.000000;1.323904
9732.000000;1.322456
9731.000000;1.321345
9730.000000;1.321017
9729.000000;1.321275
9728.000000;1.321613
9727.000000;1.321916
9726.000000;1.322443
9725.000000;1.323026
9724.000000;1.322775
9723.000000;1.321012
9722.000000;1.318262
9721.000000;1.315768
9720.000000;1.314115
9719.000000;1.312887
9718.000000;1.311813
9717.000000;1.311613
9716.000000;1.313158
9715.000000;1.316011
9714.000000;1.318403
9713.000000;1.318844
9712.000000;1.317470
9711.000000;1.315636
9710.000000;1.314503
9709.000000;1.314219
9708.000000;1.314143
9707.000000;1.313561
9706.000000;1.312297
9705.000000;1.310773
9704.000000;1.309419
9703.000000;1.308121
9702.000000;1.306450
9701.000000;1.304458
9700.000000;1.302856
9699.000000;1.302160
9698.000000;1.301959
9697.000000;1.301374
9696.000000;1.300083
9695.000000;1.298611
9694.000000;1.297699
9693.000000;1.297671
9692.000000;1.298318
9691.000000;1.299065
9690.000000;1.299305
9689.000000;1.298868
9688.000000;1.298212
9687.000000;1.297945
9686.000000;1.298108
9685.000000;1.298125
9684.000000;1.297456
9683.000000;1.296123
9682.000000;1.294583
9681.000000;1.293305
9680.000000;1.292540
9679.000000;1.292301
9678.000000;1.292368
9677.000000;1.292309
9676.000000;1.291578
9675.000000;1.289784
9674.000000;1.287122
9673.000000;1.284592
9672.000000;1.283480
9671.000000;1.284313
9670.000000;1.286328
9669.000000;1.288128
9668.000000;1.288838
9667.000000;1.288485
9666.000000;1.287445
9665.000000;1.285968
9664.000000;1.284305
9663.000000;1.282882
9662.000000;1.282060
9661.000000;1.281822
9660.000000;1.281811
9659.000000;1.281596
9658.000000;1.280913
9657.000000;1.279806
9656.000000;1.278617
9655.000000;1.277640
9654.000000;1.276711
9653.000000;1.275365
9652.000000;1.273512
9651.000000;1.271747
9650.000000;1.270772
9649.000000;1.270637
9648.000000;1.270784
9647.000000;1.270727
9646.000000;1.270439
9645.000000;1.270078
9644.000000;1.269659
9643.000000;1.269182
9642.000000;1.268810
9641.000000;1.268636
9640.000000;1.268366
9639.000000;1.267519
9638.000000;1.265974
9637.000000;1.264133
9636.000000;1.262486
9635.000000;1.261255
9634.000000;1.260550
9633.000000;1.260525
9632.000000;1.261084
9631.000000;1.261679
9630.000000;1.261795
9629.000000;1.261550
9628.000000;1.261515
9627.000000;1.261989
9626.000000;1.262753
9625.000000;1.263505
9624.000000;1.264067
9623.000000;1.264114
9622.000000;1.263240
9621.000000;1.261544
9620.000000;1.259747
9619.000000;1.258486
9618.000000;1.257818
9617.000000;1.257590
9616.000000;1.257815
9615.000000;1.258347
9614.000000;1.258559
9613.000000;1.257882
9612.000000;1.256493
9611.000000;1.255037
9610.000000;1.253829
9609.000000;1.252749
9608.000000;1.251767
9607.000000;1.251117
9606.000000;1.250977
9605.000000;1.251213
9604.000000;1.251412
9603.000000;1.251013
9602.000000;1.249572
9601.000000;1.247219
9600.000000;1.244783
9599.000000;1.243177
9598.000000;1.242696
9597.000000;1.243051
9596.000000;1.243845
9595.000000;1.244668
9594.000000;1.244922
9593.000000;1.244076
9592.000000;1.242248
9591.000000;1.240205
9590.000000;1.238754
9589.000000;1.238383
9588.000000;1.239231
9587.000000;1.240876
9586.000000;1.242203
9585.000000;1.242129
9584.000000;1.240711
9583.000000;1.239066
9582.000000;1.238013
9581.000000;1.237228
9580.000000;1.236000
9579.000000;1.234416
9578.000000;1.233310
9577.000000;1.233149
9576.000000;1.233414
9575.000000;1.233155
9574.000000;1.231978
9573.000000;1.230408
9572.000000;1.229329
9571.000000;1.229122
9570.000000;1.229353
9569.000000;1.229312
9568.000000;1.228728
9567.000000;1.227867
9566.000000;1.226977
9565.000000;1.225979
9564.000000;1.224774
9563.000000;1.223595
9562.000000;1.222812
9561.000000;1.222519
9560.000000;1.222417
9559.000000;1.222052
9558.000000;1.221127
9557.000000;1.219745
9556.000000;1.218471
9555.000000;1.218068
9554.000000;1.218921
9553.000000;1.220593
9552.000000;1.222007
9551.000000;1.222222
9550.000000;1.221112
9549.000000;1.219315
9548.000000;1.217578
9547.000000;1.216224
9546.000000;1.215211
9545.000000;1.214500
9544.000000;1.214061
9543.000000;1.213596
9542.000000;1.212681
9541.000000;1.211438
9540.000000;1.210740
9539.000000;1.211357
9538.000000;1.212971
9537.000000;1.214313
9536.000000;1.214325
9535.000000;1.213014
9534.000000;1.211206
9533.000000;1.209744
9532.000000;1.208967
9531.000000;1.208692
9530.000000;1.208523
9529.000000;1.208249
9528.000000;1.207967
9527.000000;1.207882
9526.000000;1.208084
9525.000000;1.208481
9524.000000;1.208774
9523.000000;1.208451
9522.000000;1.207038
9521.000000;1.204647
9520.000000;1.202150
9519.000000;1.200519
9518.000000;1.199985
9517.000000;1.199992
9516.000000;1.199929
9515.000000;1.199703
9514.000000;1.199592
9513.000000;1.199731
9512.000000;1.199847
9511.000000;1.199477
9510.000000;1.198421
9509.000000;1.197004
9508.000000;1.195806
9507.000000;1.195088
9506.000000;1.194633
9505.000000;1.194179
9504.000000;1.193700
9503.000000;1.193111
9502.000000;1.192136
9501.000000;1.190864
9500.000000;1.190110
9499.000000;1.190638
9498.000000;1.192100
9497.000000;1.193225
9496.000000;1.193135
9495.000000;1.192054
9494.000000;1.190666
9493.000000;1.189255
9492.000000;1.187756
9491.000000;1.186292
9490.000000;1.185261
9489.000000;1.184950
9488.000000;1.185239
9487.000000;1.185701
9486.000000;1.185994
9485.000000;1.186116
9484.000000;1.186225
9483.000000;1.186202
9482.000000;1.185621
9481.000000;1.184276
9480.000000;1.182556
9479.000000;1.181090
9478.000000;1.180215
9477.000000;1.179940
9476.000000;1.180118
9475.000000;1.180359
9474.000000;1.180079
9473.000000;1.179076
9472.000000;1.177892
9471.000000;1.177174
9470.000000;1.176826
9469.000000;1.176246
9468.000000;1.175272
9467.000000;1.174382
9466.000000;1.173997
9465.000000;1.174067
9464.000000;1.174340
9463.000000;1.174538
9462.000000;1.174291
9461.000000;1.173400
9460.000000;1.172187
9459.000000;1.171096
9458.000000;1.169988
9457.000000;1.168439
9456.000000;1.166756
9455.000000;1.165948
9454.000000;1.166493
9453.000000;1.167740
9452.000000;1.168753
9451.000000;1.169146
9450.000000;1.168865
9449.000000;1.167856
9448.000000;1.166445
9447.000000;1.165453
9446.000000;1.165357
9445.000000;1.165719
9444.000000;1.165897
9443.000000;1.165918
9442.000000;1.166134
9441.000000;1.166387
9440.000000;1.166116
9439.000000;1.165098
9438.000000;1.163580
9437.000000;1.161917
9436.000000;1.160519
9435.000000;1.159881
9434.000000;1.160082
9433.000000;1.160442
9432.000000;1.160176
9431.000000;1.159247
9430.000000;1.158129
9429.000000;1.156971
9428.000000;1.155653
9427.000000;1.154500
9426.000000;1.154192
9425.000000;1.154858
9424.000000;1.155860
9423.000000;1.156627
9422.000000;1.157155
9421.000000;1.157505
9420.000000;1.157376
9419.000000;1.156572
9418.000000;1.155498
9417.000000;1.154748
9416.000000;1.154431
9415.000000;1.154175
9414.000000;1.153616
9413.000000;1.152616
9412.000000;1.151158
9411.000000;1.149298
9410.000000;1.147298
9409.000000;1.145643
9408.000000;1.144777
9407.000000;1.144808
9406.000000;1.145402
9405.000000;1.145973
9404.000000;1.146098
9403.000000;1.145787
9402.000000;1.145305
9401.000000;1.144787
9400.000000;1.144173
9399.000000;1.143521
9398.000000;1.143113
9397.000000;1.143056
9396.000000;1.142941
9395.000000;1.142147
9394.000000;1.140581
9393.000000;1.138982
9392.000000;1.138309
9391.000000;1.138777
9390.000000;1.139609
9389.000000;1.139843
9388.000000;1.139293
9387.000000;1.138543
9386.000000;1.138060
9385.000000;1.137677
9384.000000;1.137092
9383.000000;1.136506
9382.000000;1.136405
9381.000000;1.136877
9380.000000;1.137471
9379.000000;1.137726
9378.000000;1.137518
9377.000000;1.136889
9376.000000;1.135867
9375.000000;1.134599
9374.000000;1.133402
9373.000000;1.132505
9372.000000;1.131875
9371.000000;1.131412
9370.000000;1.131170
9369.000000;1.131242
9368.000000;1.131480
9367.000000;1.131492
9366.000000;1.130941
9365.000000;1.129813
9364.000000;1.128418
9363.000000;1.127154
9362.000000;1.126227
9361.000000;1.125592
9360.000000;1.125129
9359.000000;1.124805
9358.000000;1.124650
9357.000000;1.124676
9356.000000;1.124881
9355.000000;1.125267
9354.000000;1.125746
9353.000000;1.126010
9352.000000;1.125699
9351.000000;1.124720
9350.000000;1.123360
9349.000000;1.122062
9348.000000;1.121106
9347.000000;1.120444
9346.000000;1.119742
9345.000000;1.118672
9344.000000;1.117311
9343.000000;1.116166
9342.000000;1.115710
9341.000000;1.115928
9340.000000;1.116442
9339.000000;1.116944
9338.000000;1.117333
9337.000000;1.117536
9336.000000;1.117474
9335.000000;1.117197
9334.000000;1.116751
9333.000000;1.115935
9332.000000;1.114532
9331.000000;1.112879
9330.000000;1.111851
9329.000000;1.111997
9328.000000;1.112883
9327.000000;1.113539
9326.000000;1.113428
9325.000000;1.112748
9324.000000;1.111949
9323.000000;1.111242
9322.000000;1.110597
9321.000000;1.109937
9320.000000;1.109262
9319.000000;1.108719
9318.000000;1.108546
9317.000000;1.108780
9316.000000;1.109018
9315.000000;1.108688
9314.000000;1.107657
9313.000000;1.106455
9312.000000;1.105748
9311.000000;1.105633
9310.000000;1.105520
9309.000000;1.104714
9308.000000;1.103145
9307.000000;1.101555
9306.000000;1.100971
9305.000000;1.101880
9304.000000;1.103765
9303.000000;1.105449
9302.000000;1.106010
9301.000000;1.105410
9300.000000;1.104334
9299.000000;1.103549
9298.000000;1.103453
9297.000000;1.103934
9296.000000;1.104399
9295.000000;1.104064
9294.000000;1.102578
9293.000000;1.100506
9292.000000;1.098965
9291.000000;1.098566
9290.000000;1.098808
9289.000000;1.098677
9288.000000;1.097785
9287.000000;1.096748
9286.000000;1.096436
9285.000000;1.097050
9284.000000;1.097977
9283.000000;1.098366
9282.000000;1.097753
9281.000000;1.096337
9280.000000;1.094847
9279.000000;1.094080
9278.000000;1.094353
9277.000000;1.095288
9276.000000;1.096173
9275.000000;1.096535
9274.000000;1.096381
9273.000000;1.095993
9272.000000;1.095585
9271.000000;1.095109
9270.000000;1.094341
9269.000000;1.093239
9268.000000;1.092221
9267.000000;1.091875
9266.000000;1.092262
9265.000000;1.092697
9264.000000;1.092486
9263.000000;1.091780
9262.000000;1.091367
9261.000000;1.091682
9260.000000;1.092366
9259.000000;1.092793
9258.000000;1.092623
9257.000000;1.091740
9256.000000;1.090093
9255.000000;1.087951
9254.000000;1.086017
9253.000000;1.084918
9252.000000;1.084672
9251.000000;1.084883
9250.000000;1.085286
9249.000000;1.085814
9248.000000;1.086296
9247.000000;1.086510
9246.000000;1.086444
9245.000000;1.086138
9244.000000;1.085350
9243.000000;1.083842
9242.000000;1.082017
9241.000000;1.080756
9240.000000;1.080462
9239.000000;1.080617
9238.000000;1.080507
9237.000000;1.080055
9236.000000;1.079685
9235.000000;1.079609
9234.000000;1.079621
9233.000000;1.079465
9232.000000;1.079112
9231.000000;1.078706
9230.000000;1.078459
9229.000000;1.078536
9228.000000;1.078850
9227.000000;1.079013
9226.000000;1.078647
9225.000000;1.077782
9224.000000;1.076835
9223.000000;1.076285
9222.000000;1.076405
9221.000000;1.077147
9220.000000;1.078086
9219.000000;1.078556
9218.000000;1.078085
9217.000000;1.076729
9216.000000;1.074964
9215.000000;1.073329
9214.000000;1.072246
9213.000000;1.071929
9212.000000;1.072239
9211.000000;1.072746
9210.000000;1.073133
9209.000000;1.073427
9208.000000;1.073648
9207.000000;1.073457
9206.000000;1.072495
9205.000000;1.070996
9204.000000;1.069682
9203.000000;1.068981
9202.000000;1.068640
9201.000000;1.068207
9200.000000;1.067630
9199.000000;1.067277
9198.000000;1.067497
9197.000000;1.068229
9196.000000;1.068926
9195.000000;1.068905
9194.000000;1.068022
9193.000000;1.066987
9192.000000;1.066753
9191.000000;1.067534
9190.000000;1.068653
9189.000000;1.069348
9188.000000;1.069388
9187.000000;1.068836
9186.000000;1.067663
9185.000000;1.065998
9184.000000;1.064461
9183.000000;1.063774
9182.000000;1.064034
9181.000000;1.064653
9180.000000;1.065050
9179.000000;1.065125
9178.000000;1.065015
9177.000000;1.064624
9176.000000;1.063672
9175.000000;1.062214
9174.000000;1.060893
9173.000000;1.060491
9172.000000;1.061199
9171.000000;1.062466
9170.000000;1.063568
9169.000000;1.064118
9168.000000;1.063926
9167.000000;1.062760
9166.000000;1.060738
9165.000000;1.058806
9164.000000;1.058151
9163.000000;1.058906
9162.000000;1.059849
9161.000000;1.059720
9160.000000;1.058557
9159.000000;1.057407
9158.000000;1.056946
9157.000000;1.056871
9156.000000;1.056583
9155.000000;1.056023
9154.000000;1.055672
9153.000000;1.055921
9152.000000;1.056558
9151.000000;1.056863
9150.000000;1.056265
9149.000000;1.054995
9148.000000;1.053972
9147.000000;1.053921
9146.000000;1.054681
9145.000000;1.055436
9144.000000;1.055491
9143.000000;1.054712
9142.000000;1.053444
9141.000000;1.052289
9140.000000;1.051859
9139.000000;1.052364
9138.000000;1.053338
9137.000000;1.053960
9136.000000;1.053709
9135.000000;1.052701
9134.000000;1.051455
9133.000000;1.050488
9132.000000;1.050093
9131.000000;1.050284
9130.000000;1.050858
9129.000000;1.051577
9128.000000;1.052256
9127.000000;1.052625
9126.000000;1.052286
9125.000000;1.051047
9124.000000;1.049277
9123.000000;1.047713
9122.000000;1.046856
9121.000000;1.046673
9120.000000;1.046823
9119.000000;1.047020
9118.000000;1.047207
9117.000000;1.047536
9116.000000;1.048170
9115.000000;1.048983
9114.000000;1.049519
9113.000000;1.049407
9112.000000;1.048715
9111.000000;1.047721
9110.000000;1.046526
9109.000000;1.045250
9108.000000;1.044487
9107.000000;1.044975
9106.000000;1.046619
9105.000000;1.048229
9104.000000;1.048605
9103.000000;1.047711
9102.000000;1.046456
9101.000000;1.045508
9100.000000;1.044747
9099.000000;1.043842
9098.000000;1.042933
9097.000000;1.042531
9096.000000;1.042942
9095.000000;1.043948
9094.000000;1.044964
9093.000000;1.045408
9092.000000;1.044986
9091.000000;1.043769
9090.000000;1.042123
9089.000000;1.040558
9088.000000;1.039569
9087.000000;1.039448
9086.000000;1.040074
9085.000000;1.040863
9084.000000;1.041061
9083.000000;1.040307
9082.000000;1.038983
9081.000000;1.037922
9080.000000;1.037644
9079.000000;1.037894
9078.000000;1.037996
9077.000000;1.037632
9076.000000;1.037149
9075.000000;1.037038
9074.000000;1.037288
9073.000000;1.037472
9072.000000;1.037408
9071.000000;1.037471
9070.000000;1.038134
9069.000000;1.039328
9068.000000;1.040404
9067.000000;1.040755
9066.000000;1.040382
9065.000000;1.039767
9064.000000;1.039218
9063.000000;1.038497
9062.000000;1.037219
9061.000000;1.035554
9060.000000;1.034252
9059.000000;1.033891
9058.000000;1.034303
9057.000000;1.034879
9056.000000;1.035243
9055.000000;1.035365
9054.000000;1.035211
9053.000000;1.034726
