Criado como novo conjunto de dados;"1909daniel.spp","-4212521.0 Secs"
cm-1;Abs
10000.000000;1.213599
9999.000000;1.212439
9998.000000;1.211282
9997.000000;1.210128
9996.000000;1.208977
9995.000000;1.207829
9994.000000;1.206685
9993.000000;1.205541
9992.000000;1.204410
9991.000000;1.202998
9990.000000;1.201296
9989.000000;1.199549
9988.000000;1.198271
9987.000000;1.197726
9986.000000;1.197579
9985.000000;1.197285
9984.000000;1.196647
9983.000000;1.195774
9982.000000;1.194707
9981.000000;1.193421
9980.000000;1.192103
9979.000000;1.191117
9978.000000;1.190624
9977.000000;1.190421
9976.000000;1.190174
9975.000000;1.189691
9974.000000;1.189009
9973.000000;1.188309
9972.000000;1.187750
9971.000000;1.187277
9970.000000;1.186672
9969.000000;1.185846
9968.000000;1.184958
9967.000000;1.184146
9966.000000;1.183291
9965.000000;1.182230
9964.000000;1.181103
9963.000000;1.180268
9962.000000;1.179907
9961.000000;1.179888
9960.000000;1.179944
9959.000000;1.179832
9958.000000;1.179328
9957.000000;1.178266
9956.000000;1.176701
9955.000000;1.175000
9954.000000;1.173735
9953.000000;1.173381
9952.000000;1.173937
9951.000000;1.174760
9950.000000;1.174954
9949.000000;1.174114
9948.000000;1.172617
9947.000000;1.171099
9946.000000;1.169785
9945.000000;1.168511
9944.000000;1.167251
9943.000000;1.166346
9942.000000;1.166103
9941.000000;1.166290
9940.000000;1.166173
9939.000000;1.165150
9938.000000;1.163361
9937.000000;1.161624
9936.000000;1.160722
9935.000000;1.160764
9934.000000;1.161265
9933.000000;1.161686
9932.000000;1.161696
9931.000000;1.161031
9930.000000;1.159518
9929.000000;1.157386
9928.000000;1.155307
9927.000000;1.153918
9926.000000;1.153381
9925.000000;1.153399
9924.000000;1.153491
9923.000000;1.153178
9922.000000;1.152200
9921.000000;1.150771
9920.000000;1.149476
9919.000000;1.148714
9918.000000;1.148330
9917.000000;1.147901
9916.000000;1.147220
9915.000000;1.146351
9914.000000;1.145412
9913.000000;1.144492
9912.000000;1.143638
9911.000000;1.142778
9910.000000;1.141781
9909.000000;1.140737
9908.000000;1.140000
9907.000000;1.139743
9906.000000;1.139689
9905.000000;1.139481
9904.000000;1.139115
9903.000000;1.138729
9902.000000;1.138150
9901.000000;1.137049
9900.000000;1.135524
9899.000000;1.134171
9898.000000;1.133502
9897.000000;1.133488
9896.000000;1.133665
9895.000000;1.133530
9894.000000;1.132846
9893.000000;1.131764
9892.000000;1.130634
9891.000000;1.129621
9890.000000;1.128605
9889.000000;1.127553
9888.000000;1.126742
9887.000000;1.126366
9886.000000;1.126146
9885.000000;1.125714
9884.000000;1.125220
9883.000000;1.125065
9882.000000;1.125049
9881.000000;1.124329
9880.000000;1.122488
9879.000000;1.120253
9878.000000;1.118825
9877.000000;1.118688
9876.000000;1.119292
9875.000000;1.119747
9874.000000;1.119586
9873.000000;1.118878
9872.000000;1.117842
9871.000000;1.116536
9870.000000;1.114949
9869.000000;1.113274
9868.000000;1.111921
9867.000000;1.111204
9866.000000;1.111167
9865.000000;1.111739
9864.000000;1.112808
9863.000000;1.113964
9862.000000;1.114410
9861.000000;1.113545
9860.000000;1.111592
9859.000000;1.109342
9858.000000;1.107344
9857.000000;1.105642
9856.000000;1.104208
9855.000000;1.103200
9854.000000;1.102734
9853.000000;1.102689
9852.000000;1.102822
9851.000000;1.102890
9850.000000;1.102676
9849.000000;1.102175
9848.000000;1.101686
9847.000000;1.101337
9846.000000;1.100608
9845.000000;1.098868
9844.000000;1.096501
9843.000000;1.094898
9842.000000;1.094939
9841.000000;1.095883
9840.000000;1.096164
9839.000000;1.095047
9838.000000;1.093137
9837.000000;1.091464
9836.000000;1.090542
9835.000000;1.090218
9834.000000;1.089964
9833.000000;1.089224
9832.000000;1.087827
9831.000000;1.086166
9830.000000;1.084868
9829.000000;1.084227
9828.000000;1.084053
9827.000000;1.083971
9826.000000;1.083699
9825.000000;1.083141
9824.000000;1.082423
9823.000000;1.081824
9822.000000;1.081475
9821.000000;1.081176
9820.000000;1.080681
9819.000000;1.080042
9818.000000;1.079459
9817.000000;1.078874
9816.000000;1.078005
9815.000000;1.076802
9814.000000;1.075597
9813.000000;1.074734
9812.000000;1.074235
9811.000000;1.073846
9810.000000;1.073236
9809.000000;1.072163
9808.000000;1.070680
9807.000000;1.069234
9806.000000;1.068314
9805.000000;1.067904
9804.000000;1.067490
9803.000000;1.066733
9802.000000;1.065930
9801.000000;1.065618
9800.000000;1.065837
9799.000000;1.066025
9798.000000;1.065639
9797.000000;1.064702
9796.000000;1.063685
9795.000000;1.062946
9794.000000;1.062366
9793.000000;1.061563
9792.000000;1.060412
9791.000000;1.059247
9790.000000;1.058448
9789.000000;1.057924
9788.000000;1.057191
9787.000000;1.055979
9786.000000;1.054605
9785.000000;1.053648
9784.000000;1.053376
9783.000000;1.053576
9782.000000;1.053768
9781.000000;1.053477
9780.000000;1.052453
9779.000000;1.050882
9778.000000;1.049377
9777.000000;1.048545
9776.000000;1.048490
9775.000000;1.048786
9774.000000;1.048862
9773.000000;1.048343
9772.000000;1.047109
9771.000000;1.045304
9770.000000;1.043393
9769.000000;1.041967
9768.000000;1.041293
9767.000000;1.041094
9766.000000;1.040858
9765.000000;1.040354
9764.000000;1.039778
9763.000000;1.039446
9762.000000;1.039449
9761.000000;1.039565
9760.000000;1.039446
9759.000000;1.038899
9758.000000;1.038021
9757.000000;1.037031
9756.000000;1.035972
9755.000000;1.034718
9754.000000;1.033324
9753.000000;1.032215
9752.000000;1.031820
9751.000000;1.032068
9750.000000;1.032392
9749.000000;1.032239
9748.000000;1.031405
9747.000000;1.029914
9746.000000;1.027858
9745.000000;1.025541
9744.000000;1.023532
9743.000000;1.022349
9742.000000;1.022104
9741.000000;1.022540
9740.000000;1.023342
9739.000000;1.024186
9738.000000;1.024564
9737.000000;1.023928
9736.000000;1.022232
9735.000000;1.020195
9734.000000;1.018787
9733.000000;1.018418
9732.000000;1.018671
9731.000000;1.018773
9730.000000;1.018228
9729.000000;1.017058
9728.000000;1.015665
9727.000000;1.014567
9726.000000;1.014076
9725.000000;1.013984
9724.000000;1.013635
9723.000000;1.012530
9722.000000;1.010911
9721.000000;1.009537
9720.000000;1.008846
9719.000000;1.008545
9718.000000;1.008104
9717.000000;1.007425
9716.000000;1.006789
9715.000000;1.006348
9714.000000;1.005984
9713.000000;1.005583
9712.000000;1.005118
9711.000000;1.004446
9710.000000;1.003362
9709.000000;1.001940
9708.000000;1.000610
9707.000000;0.999765
9706.000000;0.999479
9705.000000;0.999613
9704.000000;0.999920
9703.000000;0.999963
9702.000000;0.999277
9701.000000;0.997862
9700.000000;0.996307
9699.000000;0.995172
9698.000000;0.994446
9697.000000;0.993814
9696.000000;0.993214
9695.000000;0.992785
9694.000000;0.992416
9693.000000;0.991774
9692.000000;0.990823
9691.000000;0.989938
9690.000000;0.989417
9689.000000;0.989174
9688.000000;0.989017
9687.000000;0.988862
9686.000000;0.988513
9685.000000;0.987568
9684.000000;0.985906
9683.000000;0.984104
9682.000000;0.983018
9681.000000;0.982936
9680.000000;0.983327
9679.000000;0.983420
9678.000000;0.982865
9677.000000;0.981815
9676.000000;0.980618
9675.000000;0.979557
9674.000000;0.978771
9673.000000;0.978236
9672.000000;0.977805
9671.000000;0.977364
9670.000000;0.976937
9669.000000;0.976602
9668.000000;0.976306
9667.000000;0.975833
9666.000000;0.974994
9665.000000;0.973830
9664.000000;0.972588
9663.000000;0.971494
9662.000000;0.970558
9661.000000;0.969638
9660.000000;0.968733
9659.000000;0.968140
9658.000000;0.968166
9657.000000;0.968623
9656.000000;0.968770
9655.000000;0.967994
9654.000000;0.966503
9653.000000;0.965123
9652.000000;0.964378
9651.000000;0.964020
9650.000000;0.963546
9649.000000;0.962854
9648.000000;0.962164
9647.000000;0.961508
9646.000000;0.960683
9645.000000;0.959653
9644.000000;0.958663
9643.000000;0.957884
9642.000000;0.957216
9641.000000;0.956490
9640.000000;0.955675
9639.000000;0.954833
9638.000000;0.954063
9637.000000;0.953492
9636.000000;0.953126
9635.000000;0.952731
9634.000000;0.952178
9633.000000;0.951836
9632.000000;0.952141
9631.000000;0.952675
9630.000000;0.952267
9629.000000;0.950401
9628.000000;0.948109
9627.000000;0.946947
9626.000000;0.947330
9625.000000;0.948328
9624.000000;0.948830
9623.000000;0.948387
9622.000000;0.947092
9621.000000;0.945308
9620.000000;0.943637
9619.000000;0.942606
9618.000000;0.942114
9617.000000;0.941550
9616.000000;0.940650
9615.000000;0.939885
9614.000000;0.939692
9613.000000;0.939678
9612.000000;0.938997
9611.000000;0.937409
9610.000000;0.935607
9609.000000;0.934487
9608.000000;0.934302
9607.000000;0.934504
9606.000000;0.934297
9605.000000;0.933390
9604.000000;0.932256
9603.000000;0.931627
9602.000000;0.931719
9601.000000;0.932052
9600.000000;0.932026
9599.000000;0.931481
9598.000000;0.930609
9597.000000;0.929567
9596.000000;0.928392
9595.000000;0.927175
9594.000000;0.926024
9593.000000;0.924860
9592.000000;0.923493
9591.000000;0.921962
9590.000000;0.920686
9589.000000;0.920132
9588.000000;0.920343
9587.000000;0.920859
9586.000000;0.921157
9585.000000;0.921142
9584.000000;0.921116
9583.000000;0.921240
9582.000000;0.921214
9581.000000;0.920632
9580.000000;0.919518
9579.000000;0.918249
9578.000000;0.917040
9577.000000;0.915826
9576.000000;0.914664
9575.000000;0.913858
9574.000000;0.913510
9573.000000;0.913230
9572.000000;0.912573
9571.000000;0.911580
9570.000000;0.910643
9569.000000;0.910001
9568.000000;0.909621
9567.000000;0.909447
9566.000000;0.909398
9565.000000;0.909173
9564.000000;0.908420
9563.000000;0.907205
9562.000000;0.906061
9561.000000;0.905436
9560.000000;0.905238
9559.000000;0.905038
9558.000000;0.904577
9557.000000;0.903934
9556.000000;0.903260
9555.000000;0.902485
9554.000000;0.901412
9553.000000;0.900042
9552.000000;0.898711
9551.000000;0.897772
9550.000000;0.897188
9549.000000;0.896590
9548.000000;0.895800
9547.000000;0.895096
9546.000000;0.894823
9545.000000;0.894923
9544.000000;0.895066
9543.000000;0.895104
9542.000000;0.895068
9541.000000;0.894767
9540.000000;0.893788
9539.000000;0.892078
9538.000000;0.890286
9537.000000;0.889264
9536.000000;0.889280
9535.000000;0.889817
9534.000000;0.890050
9533.000000;0.889474
9532.000000;0.888193
9531.000000;0.886734
9530.000000;0.885590
9529.000000;0.884858
9528.000000;0.884308
9527.000000;0.883737
9526.000000;0.883119
9525.000000;0.882455
9524.000000;0.881695
9523.000000;0.880909
9522.000000;0.880340
9521.000000;0.880089
9520.000000;0.879874
9519.000000;0.879347
9518.000000;0.878583
9517.000000;0.877993
9516.000000;0.877761
9515.000000;0.877624
9514.000000;0.877276
9513.000000;0.876772
9512.000000;0.876345
9511.000000;0.875989
9510.000000;0.875424
9509.000000;0.874455
9508.000000;0.873217
9507.000000;0.872075
9506.000000;0.871385
9505.000000;0.871338
9504.000000;0.871898
9503.000000;0.872747
9502.000000;0.873322
9501.000000;0.873054
9500.000000;0.871716
9499.000000;0.869592
9498.000000;0.867362
9497.000000;0.865752
9496.000000;0.865166
9495.000000;0.865506
9494.000000;0.866256
9493.000000;0.866752
9492.000000;0.866482
9491.000000;0.865314
9490.000000;0.863579
9489.000000;0.861938
9488.000000;0.860980
9487.000000;0.860799
9486.000000;0.860928
9485.000000;0.860769
9484.000000;0.860098
9483.000000;0.859151
9482.000000;0.858274
9481.000000;0.857578
9480.000000;0.856941
9479.000000;0.856220
9478.000000;0.855406
9477.000000;0.854625
9476.000000;0.854068
9475.000000;0.853864
9474.000000;0.853946
9473.000000;0.854030
9472.000000;0.853798
9471.000000;0.853113
9470.000000;0.852049
9469.000000;0.850799
9468.000000;0.849625
9467.000000;0.848858
9466.000000;0.848723
9465.000000;0.849054
9464.000000;0.849261
9463.000000;0.848748
9462.000000;0.847453
9461.000000;0.845946
9460.000000;0.844959
9459.000000;0.844757
9458.000000;0.844940
9457.000000;0.844847
9456.000000;0.844188
9455.000000;0.843239
9454.000000;0.842456
9453.000000;0.841995
9452.000000;0.841696
9451.000000;0.841392
9450.000000;0.841023
9449.000000;0.840509
9448.000000;0.839800
9447.000000;0.839114
9446.000000;0.838856
9445.000000;0.839069
9444.000000;0.839189
9443.000000;0.838619
9442.000000;0.837444
9441.000000;0.836261
9440.000000;0.835374
9439.000000;0.834530
9438.000000;0.833505
9437.000000;0.832565
9436.000000;0.832111
9435.000000;0.832136
9434.000000;0.832267
9433.000000;0.832207
9432.000000;0.831839
9431.000000;0.831009
9430.000000;0.829558
9429.000000;0.827664
9428.000000;0.825935
9427.000000;0.825005
9426.000000;0.825064
9425.000000;0.825794
9424.000000;0.826649
9423.000000;0.827166
9422.000000;0.827126
9421.000000;0.826558
9420.000000;0.825638
9419.000000;0.824556
9418.000000;0.823468
9417.000000;0.822517
9416.000000;0.821811
9415.000000;0.821369
9414.000000;0.821115
9413.000000;0.820933
9412.000000;0.820729
9411.000000;0.820469
9410.000000;0.820183
9409.000000;0.819890
9408.000000;0.819503
9407.000000;0.818876
9406.000000;0.818022
9405.000000;0.817196
9404.000000;0.816667
9403.000000;0.816436
9402.000000;0.816276
9401.000000;0.815992
9400.000000;0.815525
9399.000000;0.814865
9398.000000;0.814039
9397.000000;0.813197
9396.000000;0.812515
9395.000000;0.811935
9394.000000;0.811183
9393.000000;0.810138
9392.000000;0.809060
9391.000000;0.808319
9390.000000;0.808004
9389.000000;0.807924
9388.000000;0.807899
9387.000000;0.807883
9386.000000;0.807843
9385.000000;0.807679
9384.000000;0.807311
9383.000000;0.806746
9382.000000;0.806052
9381.000000;0.805358
9380.000000;0.804868
9379.000000;0.804706
9378.000000;0.804681
9377.000000;0.804315
9376.000000;0.803264
9375.000000;0.801705
9374.000000;0.800193
9373.000000;0.799136
9372.000000;0.798501
9371.000000;0.798047
9370.000000;0.797681
9369.000000;0.797454
9368.000000;0.797253
9367.000000;0.796751
9366.000000;0.795783
9365.000000;0.794648
9364.000000;0.793869
9363.000000;0.793660
9362.000000;0.793763
9361.000000;0.793775
9360.000000;0.793474
9359.000000;0.792829
9358.000000;0.791880
9357.000000;0.790777
9356.000000;0.789824
9355.000000;0.789283
9354.000000;0.789132
9353.000000;0.789081
9352.000000;0.788803
9351.000000;0.788107
9350.000000;0.787005
9349.000000;0.785739
9348.000000;0.784706
9347.000000;0.784214
9346.000000;0.784253
9345.000000;0.784550
9344.000000;0.784830
9343.000000;0.784966
9342.000000;0.784921
9341.000000;0.784700
9340.000000;0.784379
9339.000000;0.784054
9338.000000;0.783712
9337.000000;0.783255
9336.000000;0.782704
9335.000000;0.782243
9334.000000;0.781933
9333.000000;0.781509
9332.000000;0.780631
9331.000000;0.779336
9330.000000;0.778073
9329.000000;0.777282
9328.000000;0.777018
9327.000000;0.777023
9326.000000;0.777016
9325.000000;0.776839
9324.000000;0.776443
9323.000000;0.775888
9322.000000;0.775363
9321.000000;0.775062
9320.000000;0.774963
9319.000000;0.774794
9318.000000;0.774299
9317.000000;0.773555
9316.000000;0.772921
9315.000000;0.772598
9314.000000;0.772307
9313.000000;0.771556
9312.000000;0.770290
9311.000000;0.769113
9310.000000;0.768701
9309.000000;0.769044
9308.000000;0.769434
9307.000000;0.769222
9306.000000;0.768415
9305.000000;0.767488
9304.000000;0.766820
9303.000000;0.766479
9302.000000;0.766399
9301.000000;0.766475
9300.000000;0.766486
9299.000000;0.766161
9298.000000;0.765435
9297.000000;0.764543
9296.000000;0.763780
9295.000000;0.763247
9294.000000;0.762875
9293.000000;0.762575
9292.000000;0.762311
9291.000000;0.762066
9290.000000;0.761808
9289.000000;0.761444
9288.000000;0.760828
9287.000000;0.759910
9286.000000;0.758929
9285.000000;0.758327
9284.000000;0.758352
9283.000000;0.758766
9282.000000;0.759020
9281.000000;0.758700
9280.000000;0.757808
9279.000000;0.756709
9278.000000;0.755846
9277.000000;0.755404
9276.000000;0.755170
9275.000000;0.754800
9274.000000;0.754252
9273.000000;0.753813
9272.000000;0.753628
9271.000000;0.753380
9270.000000;0.752693
9269.000000;0.751722
9268.000000;0.751023
9267.000000;0.750848
9266.000000;0.750880
9265.000000;0.750785
9264.000000;0.750694
9263.000000;0.750882
9262.000000;0.751159
9261.000000;0.750970
9260.000000;0.750113
9259.000000;0.749062
9258.000000;0.748429
9257.000000;0.748300
9256.000000;0.748251
9255.000000;0.747933
9254.000000;0.747394
9253.000000;0.746850
9252.000000;0.746326
9251.000000;0.745709
9250.000000;0.745019
9249.000000;0.744416
9248.000000;0.743926
9247.000000;0.743359
9246.000000;0.742598
9245.000000;0.741872
9244.000000;0.741558
9243.000000;0.741727
9242.000000;0.742003
9241.000000;0.741929
9240.000000;0.741407
9239.000000;0.740732
9238.000000;0.740256
9237.000000;0.740051
9236.000000;0.739884
9235.000000;0.739487
9234.000000;0.738813
9233.000000;0.738022
9232.000000;0.737260
9231.000000;0.736500
9230.000000;0.735639
9229.000000;0.734708
9228.000000;0.733922
9227.000000;0.733526
9226.000000;0.733576
9225.000000;0.733837
9224.000000;0.733912
9223.000000;0.733539
9222.000000;0.732873
9221.000000;0.732394
9220.000000;0.732438
9219.000000;0.732811
9218.000000;0.732936
9217.000000;0.732386
9216.000000;0.731257
9215.000000;0.730061
9214.000000;0.729327
9213.000000;0.729299
9212.000000;0.729864
9211.000000;0.730698
9210.000000;0.731472
9209.000000;0.731977
9208.000000;0.732091
9207.000000;0.731719
9206.000000;0.730827
9205.000000;0.729550
9204.000000;0.728210
9203.000000;0.727176
9202.000000;0.726642
9201.000000;0.726500
9200.000000;0.726440
9199.000000;0.726252
9198.000000;0.726001
9197.000000;0.725838
9196.000000;0.725663
9195.000000;0.725166
9194.000000;0.724273
9193.000000;0.723358
9192.000000;0.722868
9191.000000;0.722834
9190.000000;0.722909
9189.000000;0.722807
9188.000000;0.722537
9187.000000;0.722251
9186.000000;0.722050
9185.000000;0.721915
9184.000000;0.721696
9183.000000;0.721198
9182.000000;0.720443
9181.000000;0.719814
9180.000000;0.719711
9179.000000;0.720017
9178.000000;0.720110
9177.000000;0.719492
9176.000000;0.718287
9175.000000;0.717056
9174.000000;0.716270
9173.000000;0.716041
9172.000000;0.716217
9171.000000;0.716549
9170.000000;0.716822
9169.000000;0.716940
9168.000000;0.716935
9167.000000;0.716863
9166.000000;0.716701
9165.000000;0.716331
9164.000000;0.715623
9163.000000;0.714572
9162.000000;0.713434
9161.000000;0.712638
9160.000000;0.712407
9159.000000;0.712461
9158.000000;0.712279
9157.000000;0.711695
9156.000000;0.711090
9155.000000;0.710928
9154.000000;0.711220
9153.000000;0.711534
9152.000000;0.711430
9151.000000;0.710816
9150.000000;0.709964
9149.000000;0.709259
9148.000000;0.708875
9147.000000;0.708628
9146.000000;0.708219
9145.000000;0.707635
9144.000000;0.707186
9143.000000;0.707083
9142.000000;0.707123
9141.000000;0.706939
9140.000000;0.706423
9139.000000;0.705808
9138.000000;0.705398
9137.000000;0.705324
9136.000000;0.705477
9135.000000;0.705526
9134.000000;0.705106
9133.000000;0.704163
9132.000000;0.703129
9131.000000;0.702600
9130.000000;0.702782
9129.000000;0.703283
9128.000000;0.703457
9127.000000;0.702953
9126.000000;0.702008
9125.000000;0.701261
9124.000000;0.701201
9123.000000;0.701695
9122.000000;0.702113
9121.000000;0.701991
9120.000000;0.701477
9119.000000;0.701033
9118.000000;0.700855
9117.000000;0.700763
9116.000000;0.700583
9115.000000;0.700369
9114.000000;0.700225
9113.000000;0.700098
9112.000000;0.699868
9111.000000;0.699490
9110.000000;0.698976
9109.000000;0.698346
9108.000000;0.697712
9107.000000;0.697310
9106.000000;0.697298
9105.000000;0.697534
9104.000000;0.697636
9103.000000;0.697300
9102.000000;0.696552
9101.000000;0.695703
9100.000000;0.695105
9099.000000;0.694908
9098.000000;0.694987
9097.000000;0.695073
9096.000000;0.694952
9095.000000;0.694595
9094.000000;0.694138
9093.000000;0.693756
9092.000000;0.693514
9091.000000;0.693307
9090.000000;0.692966
9089.000000;0.692439
9088.000000;0.691853
9087.000000;0.691352
9086.000000;0.690923
9085.000000;0.690437
9084.000000;0.689874
9083.000000;0.689417
9082.000000;0.689297
9081.000000;0.689573
9080.000000;0.690031
9079.000000;0.690254
9078.000000;0.689872
9077.000000;0.688871
9076.000000;0.687721
9075.000000;0.687023
9074.000000;0.686942
9073.000000;0.687070
9072.000000;0.686975
9071.000000;0.686758
9070.000000;0.686889
9069.000000;0.687487
9068.000000;0.688054
9067.000000;0.688039
9066.000000;0.687484
9065.000000;0.686866
9064.000000;0.686399
9063.000000;0.685789
9062.000000;0.684770
9061.000000;0.683641
9060.000000;0.683051
9059.000000;0.683321
9058.000000;0.684102
9057.000000;0.684712
9056.000000;0.684700
9055.000000;0.684127
9054.000000;0.683408
9053.000000;0.682933
