Criado como novo conjunto de dados;"1909daniel.spp","-4246722.7 Secs"
cm-1;Abs
10000.000000;1.785738
9999.000000;1.785355
9998.000000;1.784539
9997.000000;1.783069
9996.000000;1.781058
9995.000000;1.778755
9994.000000;1.776744
9993.000000;1.775914
9992.000000;1.776599
9991.000000;1.777682
9990.000000;1.777684
9989.000000;1.776958
9988.000000;1.777589
9987.000000;1.780674
9986.000000;1.784573
9985.000000;1.786422
9984.000000;1.784983
9983.000000;1.781424
9982.000000;1.777532
9981.000000;1.773943
9980.000000;1.770168
9979.000000;1.765937
9978.000000;1.762170
9977.000000;1.760373
9976.000000;1.760991
9975.000000;1.762699
9974.000000;1.763751
9973.000000;1.763799
9972.000000;1.763774
9971.000000;1.764242
9970.000000;1.764694
9969.000000;1.764496
9968.000000;1.763754
9967.000000;1.763021
9966.000000;1.762706
9965.000000;1.763037
9964.000000;1.764018
9963.000000;1.765021
9962.000000;1.764967
9961.000000;1.763383
9960.000000;1.760913
9959.000000;1.758486
9958.000000;1.756387
9957.000000;1.754442
9956.000000;1.752781
9955.000000;1.751866
9954.000000;1.751824
9953.000000;1.752175
9952.000000;1.752349
9951.000000;1.752196
9950.000000;1.751889
9949.000000;1.751476
9948.000000;1.750743
9947.000000;1.749526
9946.000000;1.747944
9945.000000;1.746129
9944.000000;1.743901
9943.000000;1.740989
9942.000000;1.737645
9941.000000;1.734798
9940.000000;1.733349
9939.000000;1.733361
9938.000000;1.734053
9937.000000;1.734489
9936.000000;1.734302
9935.000000;1.734062
9934.000000;1.734840
9933.000000;1.736800
9932.000000;1.738190
9931.000000;1.736522
9930.000000;1.731567
9929.000000;1.726453
9928.000000;1.724748
9927.000000;1.727045
9926.000000;1.730940
9925.000000;1.733808
9924.000000;1.734782
9923.000000;1.734188
9922.000000;1.732494
9921.000000;1.730248
9920.000000;1.727964
9919.000000;1.725689
9918.000000;1.723307
9917.000000;1.721477
9916.000000;1.721433
9915.000000;1.723320
9914.000000;1.725535
9913.000000;1.726504
9912.000000;1.726498
9911.000000;1.726705
9910.000000;1.727060
9909.000000;1.726197
9908.000000;1.723488
9907.000000;1.720031
9906.000000;1.717361
9905.000000;1.716012
9904.000000;1.715602
9903.000000;1.715620
9902.000000;1.715579
9901.000000;1.714888
9900.000000;1.713228
9899.000000;1.710919
9898.000000;1.708753
9897.000000;1.707490
9896.000000;1.707389
9895.000000;1.708051
9894.000000;1.708671
9893.000000;1.708676
9892.000000;1.708363
9891.000000;1.708717
9890.000000;1.710179
9889.000000;1.711674
9888.000000;1.711389
9887.000000;1.708743
9886.000000;1.705198
9885.000000;1.702751
9884.000000;1.701910
9883.000000;1.701461
9882.000000;1.700076
9881.000000;1.697709
9880.000000;1.695299
9879.000000;1.693647
9878.000000;1.692934
9877.000000;1.692941
9876.000000;1.693312
9875.000000;1.693696
9874.000000;1.694000
9873.000000;1.694534
9872.000000;1.695608
9871.000000;1.696811
9870.000000;1.696984
9869.000000;1.695273
9868.000000;1.692162
9867.000000;1.689111
9866.000000;1.687212
9865.000000;1.686546
9864.000000;1.686747
9863.000000;1.687571
9862.000000;1.688603
9861.000000;1.689024
9860.000000;1.688317
9859.000000;1.687002
9858.000000;1.686112
9857.000000;1.685867
9856.000000;1.685473
9855.000000;1.684427
9854.000000;1.683309
9853.000000;1.682754
9852.000000;1.682299
9851.000000;1.681013
9850.000000;1.678890
9849.000000;1.676705
9848.000000;1.674650
9847.000000;1.672178
9846.000000;1.669363
9845.000000;1.667424
9844.000000;1.667373
9843.000000;1.668620
9842.000000;1.669379
9841.000000;1.668375
9840.000000;1.666007
9839.000000;1.663988
9838.000000;1.663802
9837.000000;1.665138
9836.000000;1.665913
9835.000000;1.664480
9834.000000;1.661720
9833.000000;1.660066
9832.000000;1.660546
9831.000000;1.661913
9830.000000;1.662821
9829.000000;1.663444
9828.000000;1.664102
9827.000000;1.663667
9826.000000;1.661014
9825.000000;1.657387
9824.000000;1.655527
9823.000000;1.656435
9822.000000;1.658407
9821.000000;1.659455
9820.000000;1.659372
9819.000000;1.658832
9818.000000;1.657727
9817.000000;1.655425
9816.000000;1.652169
9815.000000;1.649413
9814.000000;1.648873
9813.000000;1.651353
9812.000000;1.655922
9811.000000;1.660032
9810.000000;1.661174
9809.000000;1.658922
9808.000000;1.654923
9807.000000;1.650938
9806.000000;1.647699
9805.000000;1.645550
9804.000000;1.644885
9803.000000;1.645363
9802.000000;1.645616
9801.000000;1.644587
9800.000000;1.642606
9799.000000;1.640502
9798.000000;1.638336
9797.000000;1.635890
9796.000000;1.633943
9795.000000;1.633860
9794.000000;1.635968
9793.000000;1.639196
9792.000000;1.642275
9791.000000;1.644601
9790.000000;1.645694
9789.000000;1.644700
9788.000000;1.641208
9787.000000;1.636212
9786.000000;1.631722
9785.000000;1.629580
9784.000000;1.630460
9783.000000;1.633256
9782.000000;1.635245
9781.000000;1.633825
9780.000000;1.628947
9779.000000;1.623428
9778.000000;1.620345
9777.000000;1.620416
9776.000000;1.622002
9775.000000;1.623159
9774.000000;1.623236
9773.000000;1.622692
9772.000000;1.622148
9771.000000;1.621909
9770.000000;1.621887
9769.000000;1.621646
9768.000000;1.620808
9767.000000;1.619599
9766.000000;1.618789
9765.000000;1.618988
9764.000000;1.620092
9763.000000;1.621363
9762.000000;1.621870
9761.000000;1.620873
9760.000000;1.618283
9759.000000;1.615065
9758.000000;1.612784
9757.000000;1.612159
9756.000000;1.612343
9755.000000;1.612106
9754.000000;1.611390
9753.000000;1.610974
9752.000000;1.610954
9751.000000;1.610563
9750.000000;1.609578
9749.000000;1.608869
9748.000000;1.609085
9747.000000;1.609642
9746.000000;1.609659
9745.000000;1.609208
9744.000000;1.608767
9743.000000;1.607912
9742.000000;1.605624
9741.000000;1.601962
9740.000000;1.598623
9739.000000;1.597297
9738.000000;1.597907
9737.000000;1.598821
9736.000000;1.598434
9735.000000;1.596433
9734.000000;1.593943
9733.000000;1.592654
9732.000000;1.593486
9731.000000;1.595750
9730.000000;1.597716
9729.000000;1.598214
9728.000000;1.597526
9727.000000;1.596586
9726.000000;1.595795
9725.000000;1.595069
9724.000000;1.594619
9723.000000;1.594909
9722.000000;1.595705
9721.000000;1.595808
9720.000000;1.594426
9719.000000;1.592578
9718.000000;1.592251
9717.000000;1.593943
9716.000000;1.595630
9715.000000;1.594713
9714.000000;1.590811
9713.000000;1.585914
9712.000000;1.582054
9711.000000;1.579717
9710.000000;1.578498
9709.000000;1.578293
9708.000000;1.579192
9707.000000;1.580676
9706.000000;1.581698
9705.000000;1.581594
9704.000000;1.580533
9703.000000;1.579125
9702.000000;1.577863
9701.000000;1.576867
9700.000000;1.575933
9699.000000;1.574887
9698.000000;1.573988
9697.000000;1.573700
9696.000000;1.573792
9695.000000;1.573060
9694.000000;1.570653
9693.000000;1.567493
9692.000000;1.565621
9691.000000;1.565935
9690.000000;1.567000
9689.000000;1.566470
9688.000000;1.563540
9687.000000;1.559705
9686.000000;1.557200
9685.000000;1.557040
9684.000000;1.558566
9683.000000;1.560586
9682.000000;1.562395
9681.000000;1.563434
9680.000000;1.562686
9679.000000;1.559513
9678.000000;1.555124
9677.000000;1.552023
9676.000000;1.551510
9675.000000;1.552460
9674.000000;1.553126
9673.000000;1.553390
9672.000000;1.554148
9671.000000;1.555109
9670.000000;1.554724
9669.000000;1.552432
9668.000000;1.549758
9667.000000;1.548679
9666.000000;1.549770
9665.000000;1.552163
9664.000000;1.554416
9663.000000;1.555098
9662.000000;1.553501
9661.000000;1.550517
9660.000000;1.548243
9659.000000;1.548052
9658.000000;1.549232
9657.000000;1.549879
9656.000000;1.548841
9655.000000;1.546349
9654.000000;1.543252
9653.000000;1.540462
9652.000000;1.538782
9651.000000;1.538475
9650.000000;1.538947
9649.000000;1.539204
9648.000000;1.538668
9647.000000;1.537526
9646.000000;1.536555
9645.000000;1.536615
9644.000000;1.537960
9643.000000;1.539810
9642.000000;1.540836
9641.000000;1.540351
9640.000000;1.538784
9639.000000;1.536883
9638.000000;1.534962
9637.000000;1.533165
9636.000000;1.531825
9635.000000;1.531007
9634.000000;1.530058
9633.000000;1.528305
9632.000000;1.526074
9631.000000;1.524489
9630.000000;1.524293
9629.000000;1.525184
9628.000000;1.526160
9627.000000;1.526266
9626.000000;1.525220
9625.000000;1.523632
9624.000000;1.522499
9623.000000;1.522248
9622.000000;1.522392
9621.000000;1.522416
9620.000000;1.522653
9619.000000;1.523669
9618.000000;1.524975
9617.000000;1.525149
9616.000000;1.523416
9615.000000;1.520649
9614.000000;1.518551
9613.000000;1.518145
9612.000000;1.519158
9611.000000;1.520451
9610.000000;1.520913
9609.000000;1.520280
9608.000000;1.519225
9607.000000;1.518453
9606.000000;1.517852
9605.000000;1.516855
9604.000000;1.515422
9603.000000;1.514107
9602.000000;1.513104
9601.000000;1.511839
9600.000000;1.509946
9599.000000;1.508109
9598.000000;1.507249
9597.000000;1.507138
9596.000000;1.506493
9595.000000;1.504579
9594.000000;1.502174
9593.000000;1.500575
9592.000000;1.500070
9591.000000;1.499893
9590.000000;1.499508
9589.000000;1.499330
9588.000000;1.499921
9587.000000;1.500863
9586.000000;1.500994
9585.000000;1.499801
9584.000000;1.498069
9583.000000;1.496885
9582.000000;1.496411
9581.000000;1.496012
9580.000000;1.495365
9579.000000;1.494890
9578.000000;1.495013
9577.000000;1.495489
9576.000000;1.495768
9575.000000;1.495694
9574.000000;1.495379
9573.000000;1.494552
9572.000000;1.492613
9571.000000;1.489544
9570.000000;1.486338
9569.000000;1.484220
9568.000000;1.483599
9567.000000;1.484007
9566.000000;1.484791
9565.000000;1.485424
9564.000000;1.485288
9563.000000;1.483883
9562.000000;1.481612
9561.000000;1.479839
9560.000000;1.479583
9559.000000;1.480286
9558.000000;1.480322
9557.000000;1.478831
9556.000000;1.476723
9555.000000;1.475706
9554.000000;1.476593
9553.000000;1.478620
9552.000000;1.480163
9551.000000;1.480035
9550.000000;1.478314
9549.000000;1.476113
9548.000000;1.474573
9547.000000;1.474059
9546.000000;1.474235
9545.000000;1.474633
9544.000000;1.474928
9543.000000;1.474816
9542.000000;1.474056
9541.000000;1.472782
9540.000000;1.471529
9539.000000;1.470838
9538.000000;1.470980
9537.000000;1.472039
9536.000000;1.473841
9535.000000;1.475603
9534.000000;1.476027
9533.000000;1.474310
9532.000000;1.471126
9531.000000;1.468289
9530.000000;1.467246
9529.000000;1.467863
9528.000000;1.468588
9527.000000;1.467840
9526.000000;1.465467
9525.000000;1.462855
9524.000000;1.461542
9523.000000;1.461742
9522.000000;1.462271
9521.000000;1.461810
9520.000000;1.460139
9519.000000;1.458159
9518.000000;1.456909
9517.000000;1.456665
9516.000000;1.456849
9515.000000;1.456714
9514.000000;1.456135
9513.000000;1.455560
9512.000000;1.455154
9511.000000;1.454414
9510.000000;1.452989
9509.000000;1.451539
9508.000000;1.451059
9507.000000;1.451450
9506.000000;1.451530
9505.000000;1.450646
9504.000000;1.449514
9503.000000;1.449066
9502.000000;1.449205
9501.000000;1.449194
9500.000000;1.448685
9499.000000;1.447703
9498.000000;1.446150
9497.000000;1.444221
9496.000000;1.442969
9495.000000;1.443429
9494.000000;1.445136
9493.000000;1.446279
9492.000000;1.445567
9491.000000;1.443378
9490.000000;1.440978
9489.000000;1.439344
9488.000000;1.438845
9487.000000;1.439249
9486.000000;1.439689
9485.000000;1.439170
9484.000000;1.437563
9483.000000;1.435769
9482.000000;1.434613
9481.000000;1.434060
9480.000000;1.433810
9479.000000;1.434112
9478.000000;1.435344
9477.000000;1.437078
9476.000000;1.438309
9475.000000;1.438637
9474.000000;1.438557
9473.000000;1.438452
9472.000000;1.437916
9471.000000;1.436436
9470.000000;1.434324
9469.000000;1.432496
9468.000000;1.431429
9467.000000;1.430654
9466.000000;1.429386
9465.000000;1.427585
9464.000000;1.426168
9463.000000;1.426031
9462.000000;1.426953
9461.000000;1.427627
9460.000000;1.426885
9459.000000;1.424857
9458.000000;1.422764
9457.000000;1.421665
9456.000000;1.421737
9455.000000;1.422477
9454.000000;1.423092
9453.000000;1.422831
9452.000000;1.421555
9451.000000;1.420108
9450.000000;1.419616
9449.000000;1.420129
9448.000000;1.420355
9447.000000;1.419174
9446.000000;1.417136
9445.000000;1.415865
9444.000000;1.416182
9443.000000;1.417401
9442.000000;1.418328
9441.000000;1.418394
9440.000000;1.417752
9439.000000;1.416859
9438.000000;1.416221
9437.000000;1.416062
9436.000000;1.415882
9435.000000;1.414748
9434.000000;1.412429
9433.000000;1.409901
9432.000000;1.408326
9431.000000;1.407852
9430.000000;1.407759
9429.000000;1.407491
9428.000000;1.407021
9427.000000;1.406445
9426.000000;1.405870
9425.000000;1.405680
9424.000000;1.406208
9423.000000;1.407021
9422.000000;1.407060
9421.000000;1.405672
9420.000000;1.403150
9419.000000;1.400289
9418.000000;1.397897
9417.000000;1.396771
9416.000000;1.397341
9415.000000;1.398886
9414.000000;1.399687
9413.000000;1.398626
9412.000000;1.396361
9411.000000;1.394448
9410.000000;1.393641
9409.000000;1.393521
9408.000000;1.393453
9407.000000;1.393353
9406.000000;1.393567
9405.000000;1.394403
9404.000000;1.395719
9403.000000;1.396719
9402.000000;1.396360
9401.000000;1.394416
9400.000000;1.391975
9399.000000;1.390441
9398.000000;1.390142
9397.000000;1.390244
9396.000000;1.389808
9395.000000;1.388536
9394.000000;1.386671
9393.000000;1.384775
9392.000000;1.383596
9391.000000;1.383559
9390.000000;1.384336
9389.000000;1.385277
9388.000000;1.386238
9387.000000;1.387426
9386.000000;1.388344
9385.000000;1.387838
9384.000000;1.385717
9383.000000;1.383547
9382.000000;1.383154
9381.000000;1.384725
9380.000000;1.386831
9379.000000;1.387922
9378.000000;1.387375
9377.000000;1.385459
9376.000000;1.383113
9375.000000;1.381665
9374.000000;1.381908
9373.000000;1.383114
9372.000000;1.383531
9371.000000;1.382256
9370.000000;1.380141
9369.000000;1.378470
9368.000000;1.377297
9367.000000;1.375718
9366.000000;1.373558
9365.000000;1.371958
9364.000000;1.372015
9363.000000;1.373456
9362.000000;1.375086
9361.000000;1.376156
9360.000000;1.376668
9359.000000;1.376512
9358.000000;1.375184
9357.000000;1.372751
9356.000000;1.370434
9355.000000;1.369521
9354.000000;1.369849
9353.000000;1.369971
9352.000000;1.368930
9351.000000;1.367463
9350.000000;1.367138
9349.000000;1.368557
9348.000000;1.370674
9347.000000;1.371707
9346.000000;1.370626
9345.000000;1.367914
9344.000000;1.365007
9343.000000;1.363025
9342.000000;1.362101
9341.000000;1.361908
9340.000000;1.362402
9339.000000;1.363544
9338.000000;1.364473
9337.000000;1.363848
9336.000000;1.361399
9335.000000;1.358501
9334.000000;1.356660
9333.000000;1.355937
9332.000000;1.355399
9331.000000;1.354750
9330.000000;1.354745
9329.000000;1.355965
9328.000000;1.357866
9327.000000;1.359218
9326.000000;1.359105
9325.000000;1.357485
9324.000000;1.355246
9323.000000;1.353812
9322.000000;1.354165
9321.000000;1.355891
9320.000000;1.357403
9319.000000;1.357488
9318.000000;1.356473
9317.000000;1.355607
9316.000000;1.355589
9315.000000;1.355979
9314.000000;1.355898
9313.000000;1.355044
9312.000000;1.354002
9311.000000;1.353669
9310.000000;1.354296
9309.000000;1.355063
9308.000000;1.354763
9307.000000;1.352977
9306.000000;1.350407
9305.000000;1.348087
9304.000000;1.346545
9303.000000;1.345751
9302.000000;1.345457
9301.000000;1.345296
9300.000000;1.344856
9299.000000;1.344042
9298.000000;1.343261
9297.000000;1.342906
9296.000000;1.342779
9295.000000;1.342392
9294.000000;1.341796
9293.000000;1.341662
9292.000000;1.342319
9291.000000;1.343042
9290.000000;1.342633
9289.000000;1.340751
9288.000000;1.338432
9287.000000;1.337150
9286.000000;1.337440
9285.000000;1.338536
9284.000000;1.339270
9283.000000;1.339129
9282.000000;1.338350
9281.000000;1.337337
9280.000000;1.336411
9279.000000;1.336040
9278.000000;1.336683
9277.000000;1.338095
9276.000000;1.339291
9275.000000;1.339617
9274.000000;1.339326
9273.000000;1.338680
9272.000000;1.337103
9271.000000;1.334031
9270.000000;1.330360
9269.000000;1.328084
9268.000000;1.328220
9267.000000;1.329709
9266.000000;1.330762
9265.000000;1.330881
9264.000000;1.330904
9263.000000;1.331363
9262.000000;1.331664
9261.000000;1.331029
9260.000000;1.329648
9259.000000;1.328482
9258.000000;1.328164
9257.000000;1.328432
9256.000000;1.328582
9255.000000;1.328242
9254.000000;1.327590
9253.000000;1.327008
9252.000000;1.326755
9251.000000;1.326901
9250.000000;1.327331
9249.000000;1.327676
9248.000000;1.327451
9247.000000;1.326474
9246.000000;1.325126
9245.000000;1.324085
9244.000000;1.323758
9243.000000;1.323936
9242.000000;1.323856
9241.000000;1.322623
9240.000000;1.319999
9239.000000;1.317050
9238.000000;1.315684
9237.000000;1.316914
9236.000000;1.319548
9235.000000;1.321170
9234.000000;1.320712
9233.000000;1.319479
9232.000000;1.319268
9231.000000;1.320102
9230.000000;1.320480
9229.000000;1.319518
9228.000000;1.317891
9227.000000;1.316516
9226.000000;1.315213
9225.000000;1.313293
9224.000000;1.310944
9223.000000;1.309283
9222.000000;1.309072
9221.000000;1.309958
9220.000000;1.311127
9219.000000;1.312258
9218.000000;1.313513
9217.000000;1.314826
9216.000000;1.315678
9215.000000;1.315680
9214.000000;1.315135
9213.000000;1.314818
9212.000000;1.315195
9211.000000;1.315887
9210.000000;1.315939
9209.000000;1.314695
9208.000000;1.312379
9207.000000;1.309776
9206.000000;1.307452
9205.000000;1.305541
9204.000000;1.304244
9203.000000;1.304008
9202.000000;1.304884
9201.000000;1.306007
9200.000000;1.306234
9199.000000;1.305250
9198.000000;1.303595
9197.000000;1.301737
9196.000000;1.299748
9195.000000;1.297953
9194.000000;1.297127
9193.000000;1.297708
9192.000000;1.299313
9191.000000;1.301349
9190.000000;1.303542
9189.000000;1.305427
9188.000000;1.305940
9187.000000;1.304372
9186.000000;1.301492
9185.000000;1.298945
9184.000000;1.297688
9183.000000;1.297626
9182.000000;1.298426
9181.000000;1.299829
9180.000000;1.301233
9179.000000;1.301875
9178.000000;1.301598
9177.000000;1.300861
9176.000000;1.299842
9175.000000;1.298285
9174.000000;1.296511
9173.000000;1.295748
9172.000000;1.296825
9171.000000;1.298955
9170.000000;1.300337
9169.000000;1.299821
9168.000000;1.297691
9167.000000;1.295121
9166.000000;1.293235
9165.000000;1.292425
9164.000000;1.292174
9163.000000;1.291674
9162.000000;1.290808
9161.000000;1.290232
9160.000000;1.290345
9159.000000;1.290641
9158.000000;1.290435
9157.000000;1.289875
9156.000000;1.289774
9155.000000;1.290615
9154.000000;1.292108
9153.000000;1.293527
9152.000000;1.294156
9151.000000;1.293604
9150.000000;1.292108
9149.000000;1.290460
9148.000000;1.289347
9147.000000;1.288832
9146.000000;1.288591
9145.000000;1.288356
9144.000000;1.287902
9143.000000;1.286988
9142.000000;1.285768
9141.000000;1.285011
9140.000000;1.285370
9139.000000;1.286486
9138.000000;1.287256
9137.000000;1.287029
9136.000000;1.286178
9135.000000;1.285485
9134.000000;1.285331
9133.000000;1.285501
9132.000000;1.285438
9131.000000;1.284682
9130.000000;1.283314
9129.000000;1.281992
9128.000000;1.281364
9127.000000;1.281516
9126.000000;1.282100
9125.000000;1.282753
9124.000000;1.283125
9123.000000;1.282847
9122.000000;1.281966
9121.000000;1.281222
9120.000000;1.281320
9119.000000;1.281946
9118.000000;1.282038
9117.000000;1.281109
9116.000000;1.279775
9115.000000;1.278838
9114.000000;1.278421
9113.000000;1.278203
9112.000000;1.278054
9111.000000;1.278099
9110.000000;1.278390
9109.000000;1.278766
9108.000000;1.278900
9107.000000;1.278489
9106.000000;1.277624
9105.000000;1.276917
9104.000000;1.276849
9103.000000;1.277024
9102.000000;1.276551
9101.000000;1.275271
9100.000000;1.274066
9099.000000;1.273638
9098.000000;1.273534
9097.000000;1.272841
9096.000000;1.271487
9095.000000;1.270319
9094.000000;1.270048
9093.000000;1.270621
9092.000000;1.271502
9091.000000;1.272150
9090.000000;1.272288
9089.000000;1.272098
9088.000000;1.272137
9087.000000;1.272695
9086.000000;1.273232
9085.000000;1.272823
9084.000000;1.271221
9083.000000;1.269155
9082.000000;1.267554
9081.000000;1.266838
9080.000000;1.267015
9079.000000;1.267973
9078.000000;1.269355
9077.000000;1.270406
9076.000000;1.270365
9075.000000;1.269091
9074.000000;1.267184
9073.000000;1.265554
9072.000000;1.264964
9071.000000;1.265767
9070.000000;1.267688
9069.000000;1.269828
9068.000000;1.271175
9067.000000;1.271332
9066.000000;1.270679
9065.000000;1.269749
9064.000000;1.268598
9063.000000;1.266918
9062.000000;1.264709
9061.000000;1.262666
9060.000000;1.261762
9059.000000;1.262401
9058.000000;1.263968
9057.000000;1.265276
9056.000000;1.265492
9055.000000;1.264655
9054.000000;1.263356
9053.000000;1.262100
