Criado como novo conjunto de dados;"1909daniel.spp","-4252663.3 Secs"
cm-1;Abs
10000.000000;1.928843
9999.000000;1.926613
9998.000000;1.924375
9997.000000;1.922185
9996.000000;1.919942
9995.000000;1.917830
9994.000000;1.915432
9993.000000;1.913022
9992.000000;1.913160
9991.000000;1.916164
9990.000000;1.919900
9989.000000;1.920874
9988.000000;1.917489
9987.000000;1.911538
9986.000000;1.906354
9985.000000;1.903858
9984.000000;1.903659
9983.000000;1.904292
9982.000000;1.904788
9981.000000;1.904876
9980.000000;1.904307
9979.000000;1.902993
9978.000000;1.901739
9977.000000;1.901798
9976.000000;1.903433
9975.000000;1.905430
9974.000000;1.906183
9973.000000;1.905175
9972.000000;1.903307
9971.000000;1.901860
9970.000000;1.901498
9969.000000;1.902072
9968.000000;1.902796
9967.000000;1.902519
9966.000000;1.900485
9965.000000;1.897320
9964.000000;1.894914
9963.000000;1.894864
9962.000000;1.896975
9961.000000;1.899291
9960.000000;1.899582
9959.000000;1.897052
9958.000000;1.892918
9957.000000;1.889327
9956.000000;1.887368
9955.000000;1.886063
9954.000000;1.883706
9953.000000;1.880338
9952.000000;1.878408
9951.000000;1.880437
9950.000000;1.886214
9949.000000;1.892513
9948.000000;1.895601
9947.000000;1.894111
9946.000000;1.889527
9945.000000;1.884253
9944.000000;1.879851
9943.000000;1.876912
9942.000000;1.875706
9941.000000;1.876175
9940.000000;1.877365
9939.000000;1.877744
9938.000000;1.876627
9937.000000;1.874968
9936.000000;1.874262
9935.000000;1.874903
9934.000000;1.876152
9933.000000;1.877453
9932.000000;1.878938
9931.000000;1.880526
9930.000000;1.881166
9929.000000;1.879533
9928.000000;1.875327
9927.000000;1.869751
9926.000000;1.865266
9925.000000;1.864524
9924.000000;1.868091
9923.000000;1.872893
9922.000000;1.874363
9921.000000;1.871138
9920.000000;1.866377
9919.000000;1.863617
9918.000000;1.862919
9917.000000;1.861935
9916.000000;1.859462
9915.000000;1.856544
9914.000000;1.854812
9913.000000;1.855207
9912.000000;1.857843
9911.000000;1.861598
9910.000000;1.864074
9909.000000;1.863602
9908.000000;1.861177
9907.000000;1.858811
9906.000000;1.856372
9905.000000;1.852044
9904.000000;1.846139
9903.000000;1.842221
9902.000000;1.843300
9901.000000;1.848464
9900.000000;1.854258
9899.000000;1.858402
9898.000000;1.860926
9897.000000;1.862103
9896.000000;1.861102
9895.000000;1.857178
9894.000000;1.851077
9893.000000;1.844701
9892.000000;1.839865
9891.000000;1.837446
9890.000000;1.837135
9889.000000;1.837790
9888.000000;1.838370
9887.000000;1.838569
9886.000000;1.838364
9885.000000;1.837420
9884.000000;1.835511
9883.000000;1.833329
9882.000000;1.832225
9881.000000;1.832959
9880.000000;1.834981
9879.000000;1.836967
9878.000000;1.837883
9877.000000;1.837609
9876.000000;1.836790
9875.000000;1.836088
9874.000000;1.835302
9873.000000;1.833421
9872.000000;1.830003
9871.000000;1.826308
9870.000000;1.824378
9869.000000;1.824848
9868.000000;1.826303
9867.000000;1.827017
9866.000000;1.826529
9865.000000;1.825072
9864.000000;1.822636
9863.000000;1.819801
9862.000000;1.818644
9861.000000;1.820988
9860.000000;1.825586
9859.000000;1.828507
9858.000000;1.827272
9857.000000;1.823580
9856.000000;1.820831
9855.000000;1.820134
9854.000000;1.819926
9853.000000;1.818552
9852.000000;1.815778
9851.000000;1.812187
9850.000000;1.808683
9849.000000;1.806621
9848.000000;1.806910
9847.000000;1.808637
9846.000000;1.809753
9845.000000;1.809594
9844.000000;1.809474
9843.000000;1.810182
9842.000000;1.810274
9841.000000;1.807949
9840.000000;1.803737
9839.000000;1.800128
9838.000000;1.799134
9837.000000;1.801047
9836.000000;1.804770
9835.000000;1.808245
9834.000000;1.809176
9833.000000;1.806965
9832.000000;1.803799
9831.000000;1.802605
9830.000000;1.804102
9829.000000;1.806554
9828.000000;1.808034
9827.000000;1.807886
9826.000000;1.806123
9825.000000;1.802896
9824.000000;1.799031
9823.000000;1.795952
9822.000000;1.794440
9821.000000;1.794143
9820.000000;1.794567
9819.000000;1.795597
9818.000000;1.796747
9817.000000;1.797075
9816.000000;1.796385
9815.000000;1.795571
9814.000000;1.795199
9813.000000;1.794513
9812.000000;1.792526
9811.000000;1.789491
9810.000000;1.786554
9809.000000;1.784372
9808.000000;1.782804
9807.000000;1.781684
9806.000000;1.780995
9805.000000;1.780294
9804.000000;1.778953
9803.000000;1.777116
9802.000000;1.775770
9801.000000;1.775761
9800.000000;1.777124
9799.000000;1.779239
9798.000000;1.781202
9797.000000;1.782240
9796.000000;1.782262
9795.000000;1.781834
9794.000000;1.781209
9793.000000;1.779798
9792.000000;1.777185
9791.000000;1.774316
9790.000000;1.772833
9789.000000;1.773237
9788.000000;1.774436
9787.000000;1.775087
9786.000000;1.774516
9785.000000;1.772455
9784.000000;1.769028
9783.000000;1.765393
9782.000000;1.763449
9781.000000;1.764113
9780.000000;1.766331
9779.000000;1.768345
9778.000000;1.769394
9777.000000;1.769511
9776.000000;1.768415
9775.000000;1.765870
9774.000000;1.762859
9773.000000;1.761099
9772.000000;1.761231
9771.000000;1.762337
9770.000000;1.763317
9769.000000;1.763980
9768.000000;1.764598
9767.000000;1.765207
9766.000000;1.765700
9765.000000;1.765937
9764.000000;1.765276
9763.000000;1.762747
9762.000000;1.758343
9761.000000;1.753594
9760.000000;1.750222
9759.000000;1.748537
9758.000000;1.747519
9757.000000;1.746164
9756.000000;1.744374
9755.000000;1.742834
9754.000000;1.742464
9753.000000;1.743649
9752.000000;1.745523
9751.000000;1.746316
9750.000000;1.745174
9749.000000;1.743379
9748.000000;1.742900
9747.000000;1.743815
9746.000000;1.744134
9745.000000;1.742518
9744.000000;1.740250
9743.000000;1.739748
9742.000000;1.741732
9741.000000;1.744413
9740.000000;1.745328
9739.000000;1.743605
9738.000000;1.740297
9737.000000;1.737008
9736.000000;1.734659
9735.000000;1.733370
9734.000000;1.732949
9733.000000;1.733128
9732.000000;1.733397
9731.000000;1.733104
9730.000000;1.732074
9729.000000;1.730934
9728.000000;1.730403
9727.000000;1.730256
9726.000000;1.729400
9725.000000;1.727162
9724.000000;1.724154
9723.000000;1.721655
9722.000000;1.720556
9721.000000;1.721183
9720.000000;1.723571
9719.000000;1.727189
9718.000000;1.730494
9717.000000;1.731659
9716.000000;1.730358
9715.000000;1.728303
9714.000000;1.727309
9713.000000;1.727141
9712.000000;1.725932
9711.000000;1.722723
9710.000000;1.718907
9709.000000;1.716763
9708.000000;1.717016
9707.000000;1.718259
9706.000000;1.718515
9705.000000;1.716902
9704.000000;1.713814
9703.000000;1.710206
9702.000000;1.707142
9701.000000;1.705565
9700.000000;1.705969
9699.000000;1.708227
9698.000000;1.711655
9697.000000;1.714988
9696.000000;1.716528
9695.000000;1.715163
9694.000000;1.711731
9693.000000;1.708876
9692.000000;1.709028
9691.000000;1.712560
9690.000000;1.717791
9689.000000;1.722245
9688.000000;1.723874
9687.000000;1.721885
9686.000000;1.717230
9685.000000;1.712060
9684.000000;1.708098
9683.000000;1.705558
9682.000000;1.703738
9681.000000;1.702170
9680.000000;1.700711
9679.000000;1.699068
9678.000000;1.697119
9677.000000;1.695478
9676.000000;1.694912
9675.000000;1.695312
9674.000000;1.696013
9673.000000;1.697006
9672.000000;1.698810
9671.000000;1.700945
9670.000000;1.701600
9669.000000;1.699524
9668.000000;1.695683
9667.000000;1.692439
9666.000000;1.691489
9665.000000;1.692868
9664.000000;1.695225
9663.000000;1.696521
9662.000000;1.695181
9661.000000;1.691556
9660.000000;1.687960
9659.000000;1.686545
9658.000000;1.687327
9657.000000;1.688570
9656.000000;1.688696
9655.000000;1.687383
9654.000000;1.685160
9653.000000;1.682715
9652.000000;1.680830
9651.000000;1.680358
9650.000000;1.681630
9649.000000;1.683859
9648.000000;1.685434
9647.000000;1.684998
9646.000000;1.682321
9645.000000;1.678262
9644.000000;1.674091
9643.000000;1.670883
9642.000000;1.669276
9641.000000;1.669361
9640.000000;1.670604
9639.000000;1.672041
9638.000000;1.672850
9637.000000;1.672825
9636.000000;1.672282
9635.000000;1.671641
9634.000000;1.671163
9633.000000;1.670808
9632.000000;1.670172
9631.000000;1.668913
9630.000000;1.667354
9629.000000;1.666304
9628.000000;1.666154
9627.000000;1.666475
9626.000000;1.666637
9625.000000;1.666422
9624.000000;1.665700
9623.000000;1.664175
9622.000000;1.662188
9621.000000;1.661112
9620.000000;1.661864
9619.000000;1.663419
9618.000000;1.663835
9617.000000;1.662594
9616.000000;1.660843
9615.000000;1.659359
9614.000000;1.657608
9613.000000;1.655149
9612.000000;1.652768
9611.000000;1.651540
9610.000000;1.651554
9609.000000;1.652176
9608.000000;1.652866
9607.000000;1.653239
9606.000000;1.653032
9605.000000;1.652632
9604.000000;1.652971
9603.000000;1.654167
9602.000000;1.654872
9601.000000;1.653693
9600.000000;1.650981
9599.000000;1.648359
9598.000000;1.646732
9597.000000;1.645658
9596.000000;1.644383
9595.000000;1.642670
9594.000000;1.640732
9593.000000;1.639117
9592.000000;1.638643
9591.000000;1.639743
9590.000000;1.641766
9589.000000;1.643441
9588.000000;1.644058
9587.000000;1.643732
9586.000000;1.642630
9585.000000;1.640720
9584.000000;1.638384
9583.000000;1.636504
9582.000000;1.635696
9581.000000;1.635854
9580.000000;1.636483
9579.000000;1.637263
9578.000000;1.638181
9577.000000;1.639290
9576.000000;1.640423
9575.000000;1.640992
9574.000000;1.640170
9573.000000;1.637658
9572.000000;1.634249
9571.000000;1.631289
9570.000000;1.629592
9569.000000;1.629195
9568.000000;1.629975
9567.000000;1.631806
9566.000000;1.633973
9565.000000;1.635133
9564.000000;1.634405
9563.000000;1.632144
9562.000000;1.629320
9561.000000;1.626576
9560.000000;1.624271
9559.000000;1.622952
9558.000000;1.623156
9557.000000;1.624734
9556.000000;1.626701
9555.000000;1.627836
9554.000000;1.627269
9553.000000;1.624706
9552.000000;1.620733
9551.000000;1.616995
9550.000000;1.615425
9549.000000;1.616690
9548.000000;1.619351
9547.000000;1.620958
9546.000000;1.620352
9545.000000;1.618737
9544.000000;1.618170
9543.000000;1.619255
9542.000000;1.620572
9541.000000;1.620164
9540.000000;1.617516
9539.000000;1.614012
9538.000000;1.611515
9537.000000;1.610772
9536.000000;1.611004
9535.000000;1.610733
9534.000000;1.609082
9533.000000;1.606511
9532.000000;1.604269
9531.000000;1.603045
9530.000000;1.602283
9529.000000;1.601029
9528.000000;1.599421
9527.000000;1.598809
9526.000000;1.600179
9525.000000;1.602821
9524.000000;1.604791
9523.000000;1.604586
9522.000000;1.602298
9521.000000;1.599313
9520.000000;1.597223
9519.000000;1.596924
9518.000000;1.598226
9517.000000;1.600034
9516.000000;1.601129
9515.000000;1.600998
9514.000000;1.599856
9513.000000;1.597953
9512.000000;1.595351
9511.000000;1.592539
9510.000000;1.590691
9509.000000;1.590681
9508.000000;1.591939
9507.000000;1.592772
9506.000000;1.592082
9505.000000;1.590462
9504.000000;1.589431
9503.000000;1.590001
9502.000000;1.592062
9501.000000;1.594632
9500.000000;1.596446
9499.000000;1.596473
9498.000000;1.594311
9497.000000;1.590394
9496.000000;1.585761
9495.000000;1.581604
9494.000000;1.578970
9493.000000;1.578538
9492.000000;1.580274
9491.000000;1.583223
9490.000000;1.585873
9489.000000;1.586990
9488.000000;1.586268
9487.000000;1.584334
9486.000000;1.582169
9485.000000;1.580451
9484.000000;1.579305
9483.000000;1.578518
9482.000000;1.577813
9481.000000;1.576873
9480.000000;1.575407
9479.000000;1.573503
9478.000000;1.571738
9477.000000;1.570590
9476.000000;1.569954
9475.000000;1.569585
9474.000000;1.569690
9473.000000;1.570538
9472.000000;1.571652
9471.000000;1.572222
9470.000000;1.572401
9469.000000;1.573217
9468.000000;1.574818
9467.000000;1.575709
9466.000000;1.574513
9465.000000;1.571845
9464.000000;1.569461
9463.000000;1.567938
9462.000000;1.566219
9461.000000;1.563393
9460.000000;1.560198
9459.000000;1.558504
9458.000000;1.559590
9457.000000;1.562861
9456.000000;1.566012
9455.000000;1.566863
9454.000000;1.565485
9453.000000;1.563983
9452.000000;1.563817
9451.000000;1.564051
9450.000000;1.562890
9449.000000;1.560298
9448.000000;1.557976
9447.000000;1.557087
9446.000000;1.557198
9445.000000;1.557311
9444.000000;1.556846
9443.000000;1.555540
9442.000000;1.553427
9441.000000;1.551349
9440.000000;1.550584
9439.000000;1.551483
9438.000000;1.553023
9437.000000;1.553963
9436.000000;1.553828
9435.000000;1.552637
9434.000000;1.550532
9433.000000;1.548161
9432.000000;1.546660
9431.000000;1.546632
9430.000000;1.547528
9429.000000;1.548313
9428.000000;1.548336
9427.000000;1.547466
9426.000000;1.546089
9425.000000;1.545159
9424.000000;1.545405
9423.000000;1.546117
9422.000000;1.545567
9421.000000;1.543219
9420.000000;1.540718
9419.000000;1.539961
9418.000000;1.541073
9417.000000;1.543025
9416.000000;1.545313
9415.000000;1.547806
9414.000000;1.549568
9413.000000;1.549348
9412.000000;1.547272
9411.000000;1.544810
9410.000000;1.542827
9409.000000;1.540738
9408.000000;1.537854
9407.000000;1.534592
9406.000000;1.531907
9405.000000;1.530314
9404.000000;1.529858
9403.000000;1.530355
9402.000000;1.531260
9401.000000;1.531833
9400.000000;1.531891
9399.000000;1.532057
9398.000000;1.532853
9397.000000;1.533894
9396.000000;1.534380
9395.000000;1.534021
9394.000000;1.533044
9393.000000;1.531570
9392.000000;1.529648
9391.000000;1.527781
9390.000000;1.526733
9389.000000;1.526675
9388.000000;1.526984
9387.000000;1.527077
9386.000000;1.527092
9385.000000;1.527471
9384.000000;1.528149
9383.000000;1.528569
9382.000000;1.528414
9381.000000;1.527967
9380.000000;1.527738
9379.000000;1.527977
9378.000000;1.528573
9377.000000;1.529226
9376.000000;1.529589
9375.000000;1.529445
9374.000000;1.528884
9373.000000;1.528125
9372.000000;1.527081
9371.000000;1.525442
9370.000000;1.523450
9369.000000;1.522123
9368.000000;1.522173
9367.000000;1.522903
9366.000000;1.522715
9365.000000;1.520813
9364.000000;1.518023
9363.000000;1.515793
9362.000000;1.514781
9361.000000;1.514535
9360.000000;1.514168
9359.000000;1.513119
9358.000000;1.511539
9357.000000;1.510207
9356.000000;1.509973
9355.000000;1.511117
9354.000000;1.513174
9353.000000;1.515202
9352.000000;1.516135
9351.000000;1.515239
9350.000000;1.512824
9349.000000;1.510455
9348.000000;1.509780
9347.000000;1.510869
9346.000000;1.512041
9345.000000;1.511630
9344.000000;1.509681
9343.000000;1.507523
9342.000000;1.506198
9341.000000;1.505795
9340.000000;1.505888
9339.000000;1.505925
9338.000000;1.505268
9337.000000;1.503471
9336.000000;1.500789
9335.000000;1.498133
9334.000000;1.496339
9333.000000;1.495658
9332.000000;1.495928
9331.000000;1.496929
9330.000000;1.498428
9329.000000;1.500045
9328.000000;1.501282
9327.000000;1.501774
9326.000000;1.501520
9325.000000;1.500776
9324.000000;1.499702
9323.000000;1.498283
9322.000000;1.496665
9321.000000;1.495380
9320.000000;1.495020
9319.000000;1.495645
9318.000000;1.496636
9317.000000;1.497131
9316.000000;1.496594
9315.000000;1.495163
9314.000000;1.493551
9313.000000;1.492577
9312.000000;1.492548
9311.000000;1.492929
9310.000000;1.492729
9309.000000;1.491280
9308.000000;1.488618
9307.000000;1.485302
9306.000000;1.482137
9305.000000;1.479960
9304.000000;1.479214
9303.000000;1.479619
9302.000000;1.480452
9301.000000;1.481227
9300.000000;1.481935
9299.000000;1.482721
9298.000000;1.483581
9297.000000;1.484401
9296.000000;1.484991
9295.000000;1.485193
9294.000000;1.485200
9293.000000;1.485557
9292.000000;1.486441
9291.000000;1.487122
9290.000000;1.486719
9289.000000;1.485442
9288.000000;1.484413
9287.000000;1.484246
9286.000000;1.484472
9285.000000;1.484396
9284.000000;1.483775
9283.000000;1.482519
9282.000000;1.480652
9281.000000;1.478956
9280.000000;1.478755
9279.000000;1.480381
9278.000000;1.482375
9277.000000;1.482885
9276.000000;1.481473
9275.000000;1.479012
9274.000000;1.476445
9273.000000;1.474480
9272.000000;1.473923
9271.000000;1.475164
9270.000000;1.477361
9269.000000;1.478925
9268.000000;1.478981
9267.000000;1.477893
9266.000000;1.476441
9265.000000;1.475160
9264.000000;1.474434
9263.000000;1.474448
9262.000000;1.474783
9261.000000;1.474618
9260.000000;1.473608
9259.000000;1.472245
9258.000000;1.471211
9257.000000;1.470682
9256.000000;1.470422
9255.000000;1.470214
9254.000000;1.469960
9253.000000;1.469522
9252.000000;1.468673
9251.000000;1.467273
9250.000000;1.465569
9249.000000;1.464259
9248.000000;1.463972
9247.000000;1.464526
9246.000000;1.464938
9245.000000;1.464389
9244.000000;1.463040
9243.000000;1.461712
9242.000000;1.461035
9241.000000;1.461227
9240.000000;1.462318
9239.000000;1.464068
9238.000000;1.465799
9237.000000;1.466823
9236.000000;1.467068
9235.000000;1.466914
9234.000000;1.466491
9233.000000;1.465575
9232.000000;1.464100
9231.000000;1.462373
9230.000000;1.460844
9229.000000;1.459908
9228.000000;1.459674
9227.000000;1.459581
9226.000000;1.458701
9225.000000;1.456959
9224.000000;1.455760
9223.000000;1.456606
9222.000000;1.459031
9221.000000;1.460618
9220.000000;1.459405
9219.000000;1.455789
9218.000000;1.451852
9217.000000;1.449472
9216.000000;1.449369
9215.000000;1.451119
9214.000000;1.453521
9213.000000;1.455350
9212.000000;1.456240
9211.000000;1.456592
9210.000000;1.456489
9209.000000;1.455260
9208.000000;1.452510
9207.000000;1.449179
9206.000000;1.447013
9205.000000;1.447085
9204.000000;1.449035
9203.000000;1.451473
9202.000000;1.452937
9201.000000;1.452863
9200.000000;1.451970
9199.000000;1.451513
9198.000000;1.451958
9197.000000;1.452575
9196.000000;1.452448
9195.000000;1.451513
9194.000000;1.450317
9193.000000;1.449139
9192.000000;1.447849
9191.000000;1.446457
9190.000000;1.445402
9189.000000;1.445242
9188.000000;1.446189
9187.000000;1.447739
9186.000000;1.448712
9185.000000;1.448147
9184.000000;1.446496
9183.000000;1.445481
9182.000000;1.446250
9181.000000;1.447992
9180.000000;1.448852
9179.000000;1.448012
9178.000000;1.446241
9177.000000;1.444526
9176.000000;1.443049
9175.000000;1.441669
9174.000000;1.440643
9173.000000;1.440426
9172.000000;1.441111
9171.000000;1.442350
9170.000000;1.443516
9169.000000;1.443784
9168.000000;1.442487
9167.000000;1.439820
9166.000000;1.436971
9165.000000;1.435188
9164.000000;1.434748
9163.000000;1.435004
9162.000000;1.435236
9161.000000;1.435185
9160.000000;1.434948
9159.000000;1.434729
9158.000000;1.434753
9157.000000;1.435136
9156.000000;1.435633
9155.000000;1.435578
9154.000000;1.434320
9153.000000;1.431937
9152.000000;1.429490
9151.000000;1.428263
9150.000000;1.428533
9149.000000;1.429287
9148.000000;1.429459
9147.000000;1.429301
9146.000000;1.429988
9145.000000;1.431806
9144.000000;1.433404
9143.000000;1.433300
9142.000000;1.431688
9141.000000;1.430059
9140.000000;1.429382
9139.000000;1.429347
9138.000000;1.429205
9137.000000;1.428724
9136.000000;1.428137
9135.000000;1.427530
9134.000000;1.426683
9133.000000;1.425517
9132.000000;1.424510
9131.000000;1.424534
9130.000000;1.426063
9129.000000;1.428389
9128.000000;1.429818
9127.000000;1.429057
9126.000000;1.426522
9125.000000;1.424051
9124.000000;1.423228
9123.000000;1.424032
9122.000000;1.425044
9121.000000;1.424854
9120.000000;1.423328
9119.000000;1.421639
9118.000000;1.421077
9117.000000;1.421797
9116.000000;1.422826
9115.000000;1.423237
9114.000000;1.422973
9113.000000;1.422377
9112.000000;1.421432
9111.000000;1.420077
9110.000000;1.418936
9109.000000;1.418972
9108.000000;1.420344
9107.000000;1.422263
9106.000000;1.424011
9105.000000;1.425410
9104.000000;1.426051
9103.000000;1.424989
9102.000000;1.422009
9101.000000;1.418646
9100.000000;1.417018
9099.000000;1.417691
9098.000000;1.419206
9097.000000;1.419677
9096.000000;1.418537
9095.000000;1.416797
9094.000000;1.415964
9093.000000;1.416753
9092.000000;1.418530
9091.000000;1.419940
9090.000000;1.420237
9089.000000;1.419843
9088.000000;1.419452
9087.000000;1.419016
9086.000000;1.418099
9085.000000;1.416903
9084.000000;1.416184
9083.000000;1.416121
9082.000000;1.416014
9081.000000;1.415349
9080.000000;1.414539
9079.000000;1.414176
9078.000000;1.414026
9077.000000;1.413327
9076.000000;1.411871
9075.000000;1.410357
9074.000000;1.409658
9073.000000;1.410049
9072.000000;1.411124
9071.000000;1.412235
9070.000000;1.412944
9069.000000;1.413156
9068.000000;1.412907
9067.000000;1.412119
9066.000000;1.410707
9065.000000;1.408966
9064.000000;1.407563
9063.000000;1.406886
9062.000000;1.406569
9061.000000;1.405963
9060.000000;1.404978
9059.000000;1.404197
9058.000000;1.404162
9057.000000;1.404796
9056.000000;1.405616
9055.000000;1.406318
9054.000000;1.406988
9053.000000;1.407757
