Criado como novo conjunto de dados;"1909daniel.spp","-4250323.0 Secs"
cm-1;Abs
10000.000000;1.758647
9999.000000;1.755331
9998.000000;1.752040
9997.000000;1.748773
9996.000000;1.745530
9995.000000;1.742314
9994.000000;1.739117
9993.000000;1.735951
9992.000000;1.732795
9991.000000;1.729686
9990.000000;1.726542
9989.000000;1.723793
9988.000000;1.722281
9987.000000;1.721763
9986.000000;1.721274
9985.000000;1.720085
9984.000000;1.717927
9983.000000;1.715341
9982.000000;1.713823
9981.000000;1.714726
9980.000000;1.717357
9979.000000;1.718907
9978.000000;1.717177
9977.000000;1.713076
9976.000000;1.709678
9975.000000;1.709278
9974.000000;1.711801
9973.000000;1.715287
9972.000000;1.717146
9971.000000;1.715659
9970.000000;1.711280
9969.000000;1.706365
9968.000000;1.703161
9967.000000;1.702270
9966.000000;1.703173
9965.000000;1.705289
9964.000000;1.707675
9963.000000;1.708545
9962.000000;1.706808
9961.000000;1.704025
9960.000000;1.703065
9959.000000;1.704542
9958.000000;1.706005
9957.000000;1.705067
9956.000000;1.702142
9955.000000;1.699369
9954.000000;1.697970
9953.000000;1.697646
9952.000000;1.697715
9951.000000;1.697707
9950.000000;1.697124
9949.000000;1.695469
9948.000000;1.692624
9947.000000;1.688943
9946.000000;1.685178
9945.000000;1.682453
9944.000000;1.681747
9943.000000;1.683035
9942.000000;1.685344
9941.000000;1.687931
9940.000000;1.690746
9939.000000;1.693227
9938.000000;1.693545
9937.000000;1.690386
9936.000000;1.685175
9935.000000;1.681127
9934.000000;1.680112
9933.000000;1.681306
9932.000000;1.682673
9931.000000;1.682958
9930.000000;1.682237
9929.000000;1.681269
9928.000000;1.680753
9927.000000;1.680875
9926.000000;1.681143
9925.000000;1.680936
9924.000000;1.680302
9923.000000;1.679824
9922.000000;1.679701
9921.000000;1.679472
9920.000000;1.678842
9919.000000;1.678228
9918.000000;1.677963
9917.000000;1.677370
9916.000000;1.675282
9915.000000;1.671523
9914.000000;1.667442
9913.000000;1.664714
9912.000000;1.663739
9911.000000;1.663390
9910.000000;1.662366
9909.000000;1.660799
9908.000000;1.660242
9907.000000;1.661803
9906.000000;1.664630
9905.000000;1.666704
9904.000000;1.666879
9903.000000;1.665578
9902.000000;1.663651
9901.000000;1.661471
9900.000000;1.659524
9899.000000;1.659006
9898.000000;1.660882
9897.000000;1.664422
9896.000000;1.667348
9895.000000;1.667772
9894.000000;1.665774
9893.000000;1.662938
9892.000000;1.660684
9891.000000;1.659204
9890.000000;1.657685
9889.000000;1.655401
9888.000000;1.652661
9887.000000;1.650649
9886.000000;1.650248
9885.000000;1.651043
9884.000000;1.651749
9883.000000;1.651677
9882.000000;1.651439
9881.000000;1.652103
9880.000000;1.653935
9879.000000;1.656031
9878.000000;1.656950
9877.000000;1.655676
9876.000000;1.652372
9875.000000;1.648541
9874.000000;1.646171
9873.000000;1.646203
9872.000000;1.647618
9871.000000;1.648216
9870.000000;1.646493
9869.000000;1.642825
9868.000000;1.638916
9867.000000;1.636268
9866.000000;1.635259
9865.000000;1.635307
9864.000000;1.635564
9863.000000;1.635541
9862.000000;1.635266
9861.000000;1.634956
9860.000000;1.634538
9859.000000;1.633605
9858.000000;1.631991
9857.000000;1.630211
9856.000000;1.628949
9855.000000;1.628184
9854.000000;1.627190
9853.000000;1.625470
9852.000000;1.623328
9851.000000;1.621306
9850.000000;1.619510
9849.000000;1.618006
9848.000000;1.617535
9847.000000;1.618941
9846.000000;1.621661
9845.000000;1.623549
9844.000000;1.622882
9843.000000;1.620206
9842.000000;1.617544
9841.000000;1.616274
9840.000000;1.616515
9839.000000;1.617933
9838.000000;1.619882
9837.000000;1.620832
9836.000000;1.619189
9835.000000;1.615450
9834.000000;1.612436
9833.000000;1.612468
9832.000000;1.614904
9831.000000;1.617023
9830.000000;1.616858
9829.000000;1.614483
9828.000000;1.611061
9827.000000;1.607873
9826.000000;1.606056
9825.000000;1.606014
9824.000000;1.606774
9823.000000;1.606802
9822.000000;1.605773
9821.000000;1.604759
9820.000000;1.604489
9819.000000;1.604393
9818.000000;1.603822
9817.000000;1.603375
9816.000000;1.604216
9815.000000;1.606417
9814.000000;1.608520
9813.000000;1.608605
9812.000000;1.605664
9811.000000;1.600299
9810.000000;1.594451
9809.000000;1.590217
9808.000000;1.588587
9807.000000;1.589231
9806.000000;1.591333
9805.000000;1.594219
9804.000000;1.597052
9803.000000;1.598573
9802.000000;1.597896
9801.000000;1.595374
9800.000000;1.592209
9799.000000;1.589458
9798.000000;1.587783
9797.000000;1.587681
9796.000000;1.589200
9795.000000;1.591520
9794.000000;1.593293
9793.000000;1.593485
9792.000000;1.591852
9791.000000;1.588952
9790.000000;1.586004
9789.000000;1.584411
9788.000000;1.584678
9787.000000;1.585686
9786.000000;1.585635
9785.000000;1.583890
9784.000000;1.581429
9783.000000;1.579463
9782.000000;1.578247
9781.000000;1.577283
9780.000000;1.576119
9779.000000;1.574743
9778.000000;1.573501
9777.000000;1.572771
9776.000000;1.572495
9775.000000;1.571906
9774.000000;1.570181
9773.000000;1.567531
9772.000000;1.565195
9771.000000;1.564302
9770.000000;1.565094
9769.000000;1.567168
9768.000000;1.569900
9767.000000;1.572393
9766.000000;1.573636
9765.000000;1.573277
9764.000000;1.571925
9763.000000;1.570272
9762.000000;1.568269
9761.000000;1.565576
9760.000000;1.562532
9759.000000;1.560130
9758.000000;1.559059
9757.000000;1.559200
9756.000000;1.560067
9755.000000;1.561306
9754.000000;1.562616
9753.000000;1.563576
9752.000000;1.563922
9751.000000;1.563785
9750.000000;1.563349
9749.000000;1.562359
9748.000000;1.560438
9747.000000;1.557920
9746.000000;1.555831
9745.000000;1.554764
9744.000000;1.554180
9743.000000;1.553173
9742.000000;1.551659
9741.000000;1.550312
9740.000000;1.549559
9739.000000;1.549192
9738.000000;1.548911
9737.000000;1.548595
9736.000000;1.548026
9735.000000;1.547022
9734.000000;1.546085
9733.000000;1.546214
9732.000000;1.547585
9731.000000;1.548900
9730.000000;1.548665
9729.000000;1.546857
9728.000000;1.544621
9727.000000;1.542677
9726.000000;1.540800
9725.000000;1.538772
9724.000000;1.537069
9723.000000;1.536392
9722.000000;1.536952
9721.000000;1.538304
9720.000000;1.539472
9719.000000;1.539233
9718.000000;1.536908
9717.000000;1.533216
9716.000000;1.530066
9715.000000;1.529170
9714.000000;1.530765
9713.000000;1.533551
9712.000000;1.535747
9711.000000;1.536330
9710.000000;1.535525
9709.000000;1.534221
9708.000000;1.533013
9707.000000;1.531834
9706.000000;1.530394
9705.000000;1.528647
9704.000000;1.526785
9703.000000;1.525093
9702.000000;1.523921
9701.000000;1.523397
9700.000000;1.523026
9699.000000;1.522034
9698.000000;1.520459
9697.000000;1.519384
9696.000000;1.519610
9695.000000;1.520477
9694.000000;1.520625
9693.000000;1.519680
9692.000000;1.518545
9691.000000;1.518214
9690.000000;1.518912
9689.000000;1.520216
9688.000000;1.521309
9687.000000;1.521131
9686.000000;1.519149
9685.000000;1.516211
9684.000000;1.513991
9683.000000;1.513468
9682.000000;1.514281
9681.000000;1.515341
9680.000000;1.515584
9679.000000;1.514434
9678.000000;1.512266
9677.000000;1.510365
9676.000000;1.509699
9675.000000;1.509676
9674.000000;1.508874
9673.000000;1.507111
9672.000000;1.505774
9671.000000;1.505820
9670.000000;1.506471
9669.000000;1.506366
9668.000000;1.505176
9667.000000;1.503491
9666.000000;1.501804
9665.000000;1.500344
9664.000000;1.499384
9663.000000;1.498888
9662.000000;1.498203
9661.000000;1.496847
9660.000000;1.495369
9659.000000;1.494671
9658.000000;1.494648
9657.000000;1.494271
9656.000000;1.492999
9655.000000;1.491458
9654.000000;1.490507
9653.000000;1.490144
9652.000000;1.489706
9651.000000;1.488957
9650.000000;1.488568
9649.000000;1.489304
9648.000000;1.490779
9647.000000;1.491371
9646.000000;1.489819
9645.000000;1.486846
9644.000000;1.484570
9643.000000;1.484229
9642.000000;1.485035
9641.000000;1.485418
9640.000000;1.484832
9639.000000;1.483907
9638.000000;1.483280
9637.000000;1.482881
9636.000000;1.482155
9635.000000;1.480622
9634.000000;1.478465
9633.000000;1.476769
9632.000000;1.476728
9631.000000;1.478297
9630.000000;1.480006
9629.000000;1.480523
9628.000000;1.479975
9627.000000;1.479181
9626.000000;1.478099
9625.000000;1.475884
9624.000000;1.472311
9623.000000;1.468513
9622.000000;1.466110
9621.000000;1.465866
9620.000000;1.467117
9619.000000;1.468157
9618.000000;1.467548
9617.000000;1.465571
9616.000000;1.464132
9615.000000;1.464792
9614.000000;1.467010
9613.000000;1.468716
9612.000000;1.468492
9611.000000;1.466708
9610.000000;1.464641
9609.000000;1.463198
9608.000000;1.462560
9607.000000;1.462489
9606.000000;1.462734
9605.000000;1.463265
9604.000000;1.463952
9603.000000;1.463954
9602.000000;1.462096
9601.000000;1.458568
9600.000000;1.455592
9599.000000;1.455320
9598.000000;1.457335
9597.000000;1.459084
9596.000000;1.458701
9595.000000;1.456513
9594.000000;1.453657
9593.000000;1.450516
9592.000000;1.447252
9591.000000;1.444769
9590.000000;1.444079
9589.000000;1.445211
9588.000000;1.447403
9587.000000;1.449984
9586.000000;1.452411
9585.000000;1.453873
9584.000000;1.453730
9583.000000;1.452283
9582.000000;1.450446
9581.000000;1.448699
9580.000000;1.446781
9579.000000;1.444425
9578.000000;1.442034
9577.000000;1.440491
9576.000000;1.440454
9575.000000;1.441761
9574.000000;1.443338
9573.000000;1.443885
9572.000000;1.442994
9571.000000;1.441468
9570.000000;1.440392
9569.000000;1.440062
9568.000000;1.439982
9567.000000;1.439656
9566.000000;1.439077
9565.000000;1.438514
9564.000000;1.438101
9563.000000;1.437640
9562.000000;1.436713
9561.000000;1.435053
9560.000000;1.432863
9559.000000;1.430663
9558.000000;1.428913
9557.000000;1.428005
9556.000000;1.428393
9555.000000;1.430093
9554.000000;1.431975
9553.000000;1.432310
9552.000000;1.430494
9551.000000;1.427702
9550.000000;1.425406
9549.000000;1.423898
9548.000000;1.422794
9547.000000;1.422296
9546.000000;1.422993
9545.000000;1.424581
9544.000000;1.425710
9543.000000;1.425340
9542.000000;1.423676
9541.000000;1.421632
9540.000000;1.420055
9539.000000;1.419568
9538.000000;1.420312
9537.000000;1.421414
9536.000000;1.421366
9535.000000;1.419535
9534.000000;1.416964
9533.000000;1.415248
9532.000000;1.414902
9531.000000;1.415144
9530.000000;1.414965
9529.000000;1.413966
9528.000000;1.412368
9527.000000;1.410761
9526.000000;1.409881
9525.000000;1.410169
9524.000000;1.411393
9523.000000;1.412779
9522.000000;1.413510
9521.000000;1.413099
9520.000000;1.411554
9519.000000;1.409507
9518.000000;1.408063
9517.000000;1.408011
9516.000000;1.408985
9515.000000;1.409713
9514.000000;1.409308
9513.000000;1.408121
9512.000000;1.407054
9511.000000;1.406314
9510.000000;1.405299
9509.000000;1.403639
9508.000000;1.401820
9507.000000;1.400480
9506.000000;1.399456
9505.000000;1.398077
9504.000000;1.396372
9503.000000;1.395440
9502.000000;1.396229
9501.000000;1.398196
9500.000000;1.399539
9499.000000;1.398848
9498.000000;1.396308
9497.000000;1.393242
9496.000000;1.390879
9495.000000;1.389758
9494.000000;1.389924
9493.000000;1.391164
9492.000000;1.392887
9491.000000;1.394080
9490.000000;1.393845
9489.000000;1.392123
9488.000000;1.389664
9487.000000;1.387188
9486.000000;1.384814
9485.000000;1.382542
9484.000000;1.381044
9483.000000;1.381328
9482.000000;1.383339
9481.000000;1.385435
9480.000000;1.385824
9479.000000;1.384469
9478.000000;1.382985
9477.000000;1.382728
9476.000000;1.383564
9475.000000;1.384535
9474.000000;1.385035
9473.000000;1.385068
9472.000000;1.384804
9471.000000;1.384364
9470.000000;1.383904
9469.000000;1.383502
9468.000000;1.383029
9467.000000;1.382391
9466.000000;1.381725
9465.000000;1.381072
9464.000000;1.380101
9463.000000;1.378576
9462.000000;1.376890
9461.000000;1.375715
9460.000000;1.375094
9459.000000;1.374327
9458.000000;1.372926
9457.000000;1.371311
9456.000000;1.370260
9455.000000;1.369917
9454.000000;1.369681
9453.000000;1.369035
9452.000000;1.368181
9451.000000;1.367751
9450.000000;1.367963
9449.000000;1.368272
9448.000000;1.367949
9447.000000;1.366873
9446.000000;1.365686
9445.000000;1.365240
9444.000000;1.365911
9443.000000;1.367322
9442.000000;1.368505
9441.000000;1.368433
9440.000000;1.366757
9439.000000;1.364255
9438.000000;1.362315
9437.000000;1.361709
9436.000000;1.361888
9435.000000;1.361592
9434.000000;1.360114
9433.000000;1.357863
9432.000000;1.355918
9431.000000;1.355253
9430.000000;1.356121
9429.000000;1.357735
9428.000000;1.358659
9427.000000;1.358050
9426.000000;1.356634
9425.000000;1.355875
9424.000000;1.356155
9423.000000;1.356362
9422.000000;1.355468
9421.000000;1.353906
9420.000000;1.352868
9419.000000;1.352662
9418.000000;1.352451
9417.000000;1.351572
9416.000000;1.350488
9415.000000;1.350140
9414.000000;1.350711
9413.000000;1.351385
9412.000000;1.351190
9411.000000;1.349900
9410.000000;1.348129
9409.000000;1.346699
9408.000000;1.345987
9407.000000;1.345856
9406.000000;1.346052
9405.000000;1.346425
9404.000000;1.346709
9403.000000;1.346374
9402.000000;1.344997
9401.000000;1.342794
9400.000000;1.340611
9399.000000;1.339301
9398.000000;1.339096
9397.000000;1.339511
9396.000000;1.339754
9395.000000;1.339282
9394.000000;1.338144
9393.000000;1.336877
9392.000000;1.336036
9391.000000;1.335747
9390.000000;1.335703
9389.000000;1.335573
9388.000000;1.335366
9387.000000;1.335352
9386.000000;1.335688
9385.000000;1.336211
9384.000000;1.336640
9383.000000;1.336859
9382.000000;1.336840
9381.000000;1.336353
9380.000000;1.335021
9379.000000;1.332836
9378.000000;1.330450
9377.000000;1.328766
9376.000000;1.328234
9375.000000;1.328600
9374.000000;1.329202
9373.000000;1.329455
9372.000000;1.329196
9371.000000;1.328717
9370.000000;1.328344
9369.000000;1.327972
9368.000000;1.327231
9367.000000;1.326238
9366.000000;1.325704
9365.000000;1.325895
9364.000000;1.325904
9363.000000;1.324670
9362.000000;1.322543
9361.000000;1.320983
9360.000000;1.320657
9359.000000;1.320708
9358.000000;1.320132
9357.000000;1.319081
9356.000000;1.318282
9355.000000;1.317832
9354.000000;1.317237
9353.000000;1.316308
9352.000000;1.315364
9351.000000;1.314640
9350.000000;1.314022
9349.000000;1.313364
9348.000000;1.312679
9347.000000;1.312091
9346.000000;1.311870
9345.000000;1.312284
9344.000000;1.313033
9343.000000;1.313105
9342.000000;1.311847
9341.000000;1.310016
9340.000000;1.309049
9339.000000;1.309336
9338.000000;1.309913
9337.000000;1.310006
9336.000000;1.310100
9335.000000;1.310988
9334.000000;1.312325
9333.000000;1.312824
9332.000000;1.311763
9331.000000;1.309819
9330.000000;1.308350
9329.000000;1.308189
9328.000000;1.309112
9327.000000;1.310113
9326.000000;1.310134
9325.000000;1.308823
9324.000000;1.306757
9323.000000;1.304887
9322.000000;1.303774
9321.000000;1.303379
9320.000000;1.303465
9319.000000;1.303915
9318.000000;1.304580
9317.000000;1.305079
9316.000000;1.305031
9315.000000;1.304464
9314.000000;1.303741
9313.000000;1.303022
9312.000000;1.302075
9311.000000;1.300791
9310.000000;1.299585
9309.000000;1.298930
9308.000000;1.298666
9307.000000;1.298249
9306.000000;1.297639
9305.000000;1.297414
9304.000000;1.297873
9303.000000;1.298542
9302.000000;1.298799
9301.000000;1.298500
9300.000000;1.297674
9299.000000;1.296149
9298.000000;1.294023
9297.000000;1.292111
9296.000000;1.291241
9295.000000;1.291270
9294.000000;1.291359
9293.000000;1.291111
9292.000000;1.290871
9291.000000;1.290924
9290.000000;1.291019
9289.000000;1.290745
9288.000000;1.289906
9287.000000;1.288469
9286.000000;1.286691
9285.000000;1.285378
9284.000000;1.285399
9283.000000;1.286683
9282.000000;1.288142
9281.000000;1.288780
9280.000000;1.288510
9279.000000;1.287722
9278.000000;1.286636
9277.000000;1.285453
9276.000000;1.284657
9275.000000;1.284572
9274.000000;1.284822
9273.000000;1.284680
9272.000000;1.283915
9271.000000;1.282989
9270.000000;1.282504
9269.000000;1.282762
9268.000000;1.283685
9267.000000;1.284753
9266.000000;1.285144
9265.000000;1.284398
9264.000000;1.282967
9263.000000;1.281776
9262.000000;1.281207
9261.000000;1.280800
9260.000000;1.280007
9259.000000;1.278908
9258.000000;1.277957
9257.000000;1.277278
9256.000000;1.276556
9255.000000;1.275661
9254.000000;1.275074
9253.000000;1.275406
9252.000000;1.276475
9251.000000;1.277124
9250.000000;1.276263
9249.000000;1.274096
9248.000000;1.271998
9247.000000;1.271152
9246.000000;1.271551
9245.000000;1.272370
9244.000000;1.272972
9243.000000;1.273280
9242.000000;1.273420
9241.000000;1.273398
9240.000000;1.273229
9239.000000;1.273045
9238.000000;1.272906
9237.000000;1.272639
9236.000000;1.272074
9235.000000;1.271430
9234.000000;1.271222
9233.000000;1.271632
9232.000000;1.272012
9231.000000;1.271299
9230.000000;1.269121
9229.000000;1.266314
9228.000000;1.264167
9227.000000;1.263296
9226.000000;1.263350
9225.000000;1.263629
9224.000000;1.263664
9223.000000;1.263245
9222.000000;1.262373
9221.000000;1.261382
9220.000000;1.260812
9219.000000;1.260903
9218.000000;1.261311
9217.000000;1.261476
9216.000000;1.261142
9215.000000;1.260461
9214.000000;1.259828
9213.000000;1.259677
9212.000000;1.260224
9211.000000;1.261193
9210.000000;1.261982
9209.000000;1.262238
9208.000000;1.262130
9207.000000;1.261922
9206.000000;1.261597
9205.000000;1.261142
9204.000000;1.260896
9203.000000;1.261155
9202.000000;1.261481
9201.000000;1.260933
9200.000000;1.259180
9199.000000;1.257084
9198.000000;1.255934
9197.000000;1.256230
9196.000000;1.257330
9195.000000;1.258172
9194.000000;1.258154
9193.000000;1.257377
9192.000000;1.256239
9191.000000;1.255032
9190.000000;1.253887
9189.000000;1.252879
9188.000000;1.251978
9187.000000;1.251020
9186.000000;1.249983
9185.000000;1.249298
9184.000000;1.249643
9183.000000;1.251256
9182.000000;1.253523
9181.000000;1.255300
9180.000000;1.255636
9179.000000;1.254295
9178.000000;1.251851
9177.000000;1.249402
9176.000000;1.247903
9175.000000;1.247495
9174.000000;1.247527
9173.000000;1.247366
9172.000000;1.247092
9171.000000;1.247233
9170.000000;1.247945
9169.000000;1.248680
9168.000000;1.248728
9167.000000;1.247958
9166.000000;1.246907
9165.000000;1.246157
9164.000000;1.245707
9163.000000;1.245048
9162.000000;1.243861
9161.000000;1.242458
9160.000000;1.241380
9159.000000;1.240774
9158.000000;1.240468
9157.000000;1.240501
9156.000000;1.241112
9155.000000;1.242172
9154.000000;1.243074
9153.000000;1.243294
9152.000000;1.242718
9151.000000;1.241376
9150.000000;1.239410
9149.000000;1.237524
9148.000000;1.236835
9147.000000;1.237655
9146.000000;1.238789
9145.000000;1.238727
9144.000000;1.237375
9143.000000;1.235958
9142.000000;1.235344
9141.000000;1.235253
9140.000000;1.235138
9139.000000;1.235111
9138.000000;1.235569
9137.000000;1.236375
9136.000000;1.236916
9135.000000;1.236838
9134.000000;1.236328
9133.000000;1.235732
9132.000000;1.235194
9131.000000;1.234663
9130.000000;1.234056
9129.000000;1.233358
9128.000000;1.232652
9127.000000;1.232104
9126.000000;1.231855
9125.000000;1.231882
9124.000000;1.231967
9123.000000;1.231809
9122.000000;1.231243
9121.000000;1.230372
9120.000000;1.229436
9119.000000;1.228582
9118.000000;1.227870
9117.000000;1.227528
9116.000000;1.227944
9115.000000;1.229194
9114.000000;1.230763
9113.000000;1.231957
9112.000000;1.232514
9111.000000;1.232568
9110.000000;1.232143
9109.000000;1.231096
9108.000000;1.229610
9107.000000;1.228331
9106.000000;1.227836
9105.000000;1.228134
9104.000000;1.228741
9103.000000;1.228988
9102.000000;1.228336
9101.000000;1.226815
9100.000000;1.225314
9099.000000;1.224971
9098.000000;1.225995
9097.000000;1.227337
9096.000000;1.227753
9095.000000;1.226989
9094.000000;1.225638
9093.000000;1.224160
9092.000000;1.222582
9091.000000;1.221011
9090.000000;1.219838
9089.000000;1.219301
9088.000000;1.219240
9087.000000;1.219435
9086.000000;1.219879
9085.000000;1.220520
9084.000000;1.221110
9083.000000;1.221573
9082.000000;1.222149
9081.000000;1.222863
9080.000000;1.223098
9079.000000;1.222118
9078.000000;1.219972
9077.000000;1.217581
9076.000000;1.215936
9075.000000;1.215385
9074.000000;1.215609
9073.000000;1.216039
9072.000000;1.216262
9071.000000;1.216242
9070.000000;1.216296
9069.000000;1.216753
9068.000000;1.217593
9067.000000;1.218461
9066.000000;1.218966
9065.000000;1.218865
9064.000000;1.218090
9063.000000;1.216829
9062.000000;1.215544
9061.000000;1.214672
9060.000000;1.214234
9059.000000;1.213895
9058.000000;1.213446
9057.000000;1.213062
9056.000000;1.213037
9055.000000;1.213462
9054.000000;1.214173
9053.000000;1.214769
