Criado como novo conjunto de dados;"1909daniel.spp","-4221521.7 Secs"
cm-1;Abs
10000.000000;1.480912
9999.000000;1.481751
9998.000000;1.480653
9997.000000;1.478396
9996.000000;1.477115
9995.000000;1.477499
9994.000000;1.478521
9993.000000;1.478804
9992.000000;1.478208
9991.000000;1.477145
9990.000000;1.475712
9989.000000;1.473912
9988.000000;1.472231
9987.000000;1.471243
9986.000000;1.470945
9985.000000;1.470825
9984.000000;1.470393
9983.000000;1.469488
9982.000000;1.468397
9981.000000;1.467879
9980.000000;1.468586
9979.000000;1.470091
9978.000000;1.470949
9977.000000;1.470277
9976.000000;1.468989
9975.000000;1.468738
9974.000000;1.469778
9973.000000;1.470547
9972.000000;1.469457
9971.000000;1.466553
9970.000000;1.463137
9969.000000;1.460283
9968.000000;1.458240
9967.000000;1.457005
9966.000000;1.456867
9965.000000;1.458095
9964.000000;1.460265
9963.000000;1.462176
9962.000000;1.462624
9961.000000;1.461329
9960.000000;1.459047
9959.000000;1.456789
9958.000000;1.455052
9957.000000;1.453802
9956.000000;1.452996
9955.000000;1.452917
9954.000000;1.453896
9953.000000;1.455658
9952.000000;1.457046
9951.000000;1.456696
9950.000000;1.454270
9949.000000;1.450996
9948.000000;1.448701
9947.000000;1.448191
9946.000000;1.448676
9945.000000;1.448810
9944.000000;1.448126
9943.000000;1.447203
9942.000000;1.446609
9941.000000;1.446171
9940.000000;1.445431
9939.000000;1.444409
9938.000000;1.443632
9937.000000;1.443545
9936.000000;1.444086
9935.000000;1.444761
9934.000000;1.444962
9933.000000;1.444250
9932.000000;1.442574
9931.000000;1.440361
9930.000000;1.438269
9929.000000;1.436787
9928.000000;1.436058
9927.000000;1.435991
9926.000000;1.436342
9925.000000;1.436684
9924.000000;1.436620
9923.000000;1.436241
9922.000000;1.436149
9921.000000;1.436735
9920.000000;1.437466
9919.000000;1.437202
9918.000000;1.435384
9917.000000;1.432765
9916.000000;1.430762
9915.000000;1.430134
9914.000000;1.430334
9913.000000;1.430056
9912.000000;1.428441
9911.000000;1.425823
9910.000000;1.423307
9909.000000;1.421696
9908.000000;1.420968
9907.000000;1.420729
9906.000000;1.420805
9905.000000;1.421143
9904.000000;1.421378
9903.000000;1.421016
9902.000000;1.420075
9901.000000;1.419140
9900.000000;1.418694
9899.000000;1.418718
9898.000000;1.419006
9897.000000;1.419442
9896.000000;1.419745
9895.000000;1.419337
9894.000000;1.417912
9893.000000;1.415959
9892.000000;1.414300
9891.000000;1.413215
9890.000000;1.412256
9889.000000;1.410835
9888.000000;1.408795
9887.000000;1.406580
9886.000000;1.405147
9885.000000;1.405514
9884.000000;1.407867
9883.000000;1.410998
9882.000000;1.413006
9881.000000;1.412779
9880.000000;1.410652
9879.000000;1.407709
9878.000000;1.404960
9877.000000;1.403243
9876.000000;1.403237
9875.000000;1.405010
9874.000000;1.407619
9873.000000;1.409528
9872.000000;1.409590
9871.000000;1.407656
9870.000000;1.404507
9869.000000;1.401422
9868.000000;1.399584
9867.000000;1.399429
9866.000000;1.400350
9865.000000;1.401129
9864.000000;1.400871
9863.000000;1.399691
9862.000000;1.398523
9861.000000;1.398231
9860.000000;1.398765
9859.000000;1.399101
9858.000000;1.398116
9857.000000;1.395673
9856.000000;1.392787
9855.000000;1.390617
9854.000000;1.389432
9853.000000;1.388725
9852.000000;1.388252
9851.000000;1.388505
9850.000000;1.389988
9849.000000;1.392241
9848.000000;1.393877
9847.000000;1.393652
9846.000000;1.391426
9845.000000;1.388125
9844.000000;1.385022
9843.000000;1.383080
9842.000000;1.382622
9841.000000;1.383310
9840.000000;1.384420
9839.000000;1.385219
9838.000000;1.385150
9837.000000;1.383911
9836.000000;1.381711
9835.000000;1.379448
9834.000000;1.378206
9833.000000;1.378209
9832.000000;1.378442
9831.000000;1.377659
9830.000000;1.375710
9829.000000;1.373561
9828.000000;1.372111
9827.000000;1.371499
9826.000000;1.371557
9825.000000;1.372298
9824.000000;1.373560
9823.000000;1.374526
9822.000000;1.374154
9821.000000;1.372153
9820.000000;1.369255
9819.000000;1.366534
9818.000000;1.364706
9817.000000;1.364023
9816.000000;1.364419
9815.000000;1.365511
9814.000000;1.366577
9813.000000;1.366903
9812.000000;1.366348
9811.000000;1.365475
9810.000000;1.364954
9809.000000;1.364830
9808.000000;1.364506
9807.000000;1.363486
9806.000000;1.361964
9805.000000;1.360579
9804.000000;1.359800
9803.000000;1.359711
9802.000000;1.360199
9801.000000;1.360977
9800.000000;1.361536
9799.000000;1.361471
9798.000000;1.360917
9797.000000;1.360347
9796.000000;1.359887
9795.000000;1.359143
9794.000000;1.357826
9793.000000;1.356239
9792.000000;1.354942
9791.000000;1.354178
9790.000000;1.353782
9789.000000;1.353386
9788.000000;1.352552
9787.000000;1.351037
9786.000000;1.349211
9785.000000;1.347967
9784.000000;1.347927
9783.000000;1.348796
9782.000000;1.349619
9781.000000;1.349585
9780.000000;1.348517
9779.000000;1.346802
9778.000000;1.345081
9777.000000;1.343852
9776.000000;1.343174
9775.000000;1.342765
9774.000000;1.342388
9773.000000;1.341982
9772.000000;1.341480
9771.000000;1.340858
9770.000000;1.340367
9769.000000;1.340189
9768.000000;1.339754
9767.000000;1.338108
9766.000000;1.335381
9765.000000;1.333215
9764.000000;1.333088
9763.000000;1.334633
9762.000000;1.336250
9761.000000;1.337032
9760.000000;1.337269
9759.000000;1.337239
9758.000000;1.336573
9757.000000;1.335023
9756.000000;1.333073
9755.000000;1.331425
9754.000000;1.330428
9753.000000;1.330187
9752.000000;1.330627
9751.000000;1.331124
9750.000000;1.330660
9749.000000;1.328895
9748.000000;1.326699
9747.000000;1.325211
9746.000000;1.324691
9745.000000;1.324663
9744.000000;1.324795
9743.000000;1.325119
9742.000000;1.325552
9741.000000;1.325718
9740.000000;1.325296
9739.000000;1.324281
9738.000000;1.322895
9737.000000;1.321425
9736.000000;1.320117
9735.000000;1.319023
9734.000000;1.317976
9733.000000;1.316832
9732.000000;1.315636
9731.000000;1.314491
9730.000000;1.313406
9729.000000;1.312420
9728.000000;1.311765
9727.000000;1.311649
9726.000000;1.311869
9725.000000;1.311900
9724.000000;1.311477
9723.000000;1.310905
9722.000000;1.310619
9721.000000;1.310515
9720.000000;1.309954
9719.000000;1.308573
9718.000000;1.306983
9717.000000;1.306310
9716.000000;1.306989
9715.000000;1.308309
9714.000000;1.309254
9713.000000;1.309434
9712.000000;1.308896
9711.000000;1.307525
9710.000000;1.305295
9709.000000;1.302889
9708.000000;1.301306
9707.000000;1.300799
9706.000000;1.300817
9705.000000;1.301006
9704.000000;1.301519
9703.000000;1.302136
9702.000000;1.301933
9701.000000;1.300362
9700.000000;1.298059
9699.000000;1.296023
9698.000000;1.294565
9697.000000;1.293583
9696.000000;1.293259
9695.000000;1.293672
9694.000000;1.294089
9693.000000;1.293499
9692.000000;1.291867
9691.000000;1.290198
9690.000000;1.289351
9689.000000;1.289412
9688.000000;1.290028
9687.000000;1.290666
9686.000000;1.290606
9685.000000;1.289451
9684.000000;1.287757
9683.000000;1.286571
9682.000000;1.286219
9681.000000;1.286106
9680.000000;1.285764
9679.000000;1.285440
9678.000000;1.285391
9677.000000;1.285249
9676.000000;1.284543
9675.000000;1.283416
9674.000000;1.282377
9673.000000;1.281681
9672.000000;1.281274
9671.000000;1.280980
9670.000000;1.280428
9669.000000;1.279171
9668.000000;1.277325
9667.000000;1.275745
9666.000000;1.275092
9665.000000;1.274988
9664.000000;1.274516
9663.000000;1.273398
9662.000000;1.272241
9661.000000;1.271712
9660.000000;1.271956
9659.000000;1.272788
9658.000000;1.273834
9657.000000;1.274419
9656.000000;1.273886
9655.000000;1.272351
9654.000000;1.270684
9653.000000;1.269457
9652.000000;1.268249
9651.000000;1.266371
9650.000000;1.264044
9649.000000;1.262357
9648.000000;1.262060
9647.000000;1.262775
9646.000000;1.263481
9645.000000;1.263563
9644.000000;1.263251
9643.000000;1.263131
9642.000000;1.263436
9641.000000;1.263812
9640.000000;1.263671
9639.000000;1.262701
9638.000000;1.261083
9637.000000;1.259300
9636.000000;1.257785
9635.000000;1.256700
9634.000000;1.255950
9633.000000;1.255349
9632.000000;1.254741
9631.000000;1.254070
9630.000000;1.253477
9629.000000;1.253329
9628.000000;1.253952
9627.000000;1.255163
9626.000000;1.256175
9625.000000;1.256239
9624.000000;1.255390
9623.000000;1.254372
9622.000000;1.253859
9621.000000;1.253917
9620.000000;1.254154
9619.000000;1.254113
9618.000000;1.253443
9617.000000;1.252026
9616.000000;1.250125
9615.000000;1.248236
9614.000000;1.246614
9613.000000;1.245117
9612.000000;1.243643
9611.000000;1.242465
9610.000000;1.241907
9609.000000;1.241873
9608.000000;1.241892
9607.000000;1.241530
9606.000000;1.240563
9605.000000;1.239008
9604.000000;1.237293
9603.000000;1.236208
9602.000000;1.236266
9601.000000;1.237119
9600.000000;1.237875
9599.000000;1.237978
9598.000000;1.237484
9597.000000;1.236587
9596.000000;1.235320
9595.000000;1.233804
9594.000000;1.232412
9593.000000;1.231515
9592.000000;1.231218
9591.000000;1.231375
9590.000000;1.231656
9589.000000;1.231679
9588.000000;1.231409
9587.000000;1.231391
9586.000000;1.232130
9585.000000;1.233173
9584.000000;1.233249
9583.000000;1.231586
9582.000000;1.228788
9581.000000;1.226202
9580.000000;1.224799
9579.000000;1.224806
9578.000000;1.225885
9577.000000;1.227246
9576.000000;1.227896
9575.000000;1.227276
9574.000000;1.225707
9573.000000;1.224016
9572.000000;1.222758
9571.000000;1.222024
9570.000000;1.221719
9569.000000;1.221656
9568.000000;1.221580
9567.000000;1.221397
9566.000000;1.221215
9565.000000;1.221019
9564.000000;1.220602
9563.000000;1.220031
9562.000000;1.219754
9561.000000;1.219803
9560.000000;1.219340
9559.000000;1.217627
9558.000000;1.215201
9557.000000;1.213369
9556.000000;1.212687
9555.000000;1.212595
9554.000000;1.212492
9553.000000;1.212441
9552.000000;1.212631
9551.000000;1.212863
9550.000000;1.212885
9549.000000;1.212710
9548.000000;1.212310
9547.000000;1.211533
9546.000000;1.210633
9545.000000;1.210366
9544.000000;1.211036
9543.000000;1.211834
9542.000000;1.211664
9541.000000;1.210449
9540.000000;1.209096
9539.000000;1.208279
9538.000000;1.207769
9537.000000;1.207014
9536.000000;1.205931
9535.000000;1.204922
9534.000000;1.204344
9533.000000;1.204085
9532.000000;1.203604
9531.000000;1.202391
9530.000000;1.200486
9529.000000;1.198489
9528.000000;1.196991
9527.000000;1.196099
9526.000000;1.195618
9525.000000;1.195493
9524.000000;1.195842
9523.000000;1.196637
9522.000000;1.197493
9521.000000;1.197815
9520.000000;1.197216
9519.000000;1.195852
9518.000000;1.194290
9517.000000;1.192984
9516.000000;1.191919
9515.000000;1.190961
9514.000000;1.190369
9513.000000;1.190471
9512.000000;1.190856
9511.000000;1.190567
9510.000000;1.189394
9509.000000;1.188358
9508.000000;1.188410
9507.000000;1.189142
9506.000000;1.189405
9505.000000;1.188877
9504.000000;1.188178
9503.000000;1.187566
9502.000000;1.186472
9501.000000;1.184577
9500.000000;1.182530
9499.000000;1.181113
9498.000000;1.180310
9497.000000;1.179718
9496.000000;1.179450
9495.000000;1.179971
9494.000000;1.181198
9493.000000;1.182332
9492.000000;1.182676
9491.000000;1.182232
9490.000000;1.181425
9489.000000;1.180602
9488.000000;1.179951
9487.000000;1.179602
9486.000000;1.179548
9485.000000;1.179513
9484.000000;1.179128
9483.000000;1.178253
9482.000000;1.177073
9481.000000;1.175886
9480.000000;1.174897
9479.000000;1.174267
9478.000000;1.174255
9477.000000;1.175066
9476.000000;1.176448
9475.000000;1.177538
9474.000000;1.177353
9473.000000;1.175596
9472.000000;1.172996
9471.000000;1.170775
9470.000000;1.169730
9469.000000;1.169727
9468.000000;1.169949
9467.000000;1.169605
9466.000000;1.168538
9465.000000;1.167204
9464.000000;1.166128
9463.000000;1.165444
9462.000000;1.164963
9461.000000;1.164548
9460.000000;1.164222
9459.000000;1.163935
9458.000000;1.163446
9457.000000;1.162608
9456.000000;1.161674
9455.000000;1.161143
9454.000000;1.161233
9453.000000;1.161545
9452.000000;1.161358
9451.000000;1.160306
9450.000000;1.158726
9449.000000;1.157348
9448.000000;1.156688
9447.000000;1.156701
9446.000000;1.156917
9445.000000;1.156852
9444.000000;1.156405
9443.000000;1.155996
9442.000000;1.156230
9441.000000;1.157212
9440.000000;1.158175
9439.000000;1.158081
9438.000000;1.156780
9437.000000;1.155261
9436.000000;1.154506
9435.000000;1.154399
9434.000000;1.154109
9433.000000;1.153351
9432.000000;1.152729
9431.000000;1.152771
9430.000000;1.153116
9429.000000;1.152930
9428.000000;1.151865
9427.000000;1.150343
9426.000000;1.149067
9425.000000;1.148511
9424.000000;1.148739
9423.000000;1.149409
9422.000000;1.149926
9421.000000;1.149800
9420.000000;1.148962
9419.000000;1.147661
9418.000000;1.146138
9417.000000;1.144565
9416.000000;1.143259
9415.000000;1.142671
9414.000000;1.142942
9413.000000;1.143533
9412.000000;1.143480
9411.000000;1.142241
9410.000000;1.140344
9409.000000;1.139016
9408.000000;1.139025
9407.000000;1.139914
9406.000000;1.140478
9405.000000;1.139976
9404.000000;1.138756
9403.000000;1.137698
9402.000000;1.137312
9401.000000;1.137466
9400.000000;1.137762
9399.000000;1.137922
9398.000000;1.137873
9397.000000;1.137649
9396.000000;1.137257
9395.000000;1.136614
9394.000000;1.135668
9393.000000;1.134576
9392.000000;1.133596
9391.000000;1.132714
9390.000000;1.131640
9389.000000;1.130390
9388.000000;1.129653
9387.000000;1.130172
9386.000000;1.131732
9385.000000;1.133104
9384.000000;1.133163
9383.000000;1.131908
9382.000000;1.130222
9381.000000;1.128837
9380.000000;1.127765
9379.000000;1.126663
9378.000000;1.125464
9377.000000;1.124561
9376.000000;1.124447
9375.000000;1.125218
9374.000000;1.126421
9373.000000;1.127378
9372.000000;1.127635
9371.000000;1.127074
9370.000000;1.125729
9369.000000;1.123738
9368.000000;1.121493
9367.000000;1.119574
9366.000000;1.118385
9365.000000;1.117922
9364.000000;1.117975
9363.000000;1.118403
9362.000000;1.119063
9361.000000;1.119571
9360.000000;1.119422
9359.000000;1.118459
9358.000000;1.117161
9357.000000;1.116342
9356.000000;1.116447
9355.000000;1.117115
9354.000000;1.117438
9353.000000;1.116804
9352.000000;1.115505
9351.000000;1.114435
9350.000000;1.114198
9349.000000;1.114603
9348.000000;1.115021
9347.000000;1.115021
9346.000000;1.114552
9345.000000;1.113751
9344.000000;1.112858
9343.000000;1.112158
9342.000000;1.111725
9341.000000;1.111264
9340.000000;1.110487
9339.000000;1.109612
9338.000000;1.109204
9337.000000;1.109481
9336.000000;1.110023
9335.000000;1.110209
9334.000000;1.109757
9333.000000;1.108825
9332.000000;1.107804
9331.000000;1.107096
9330.000000;1.106853
9329.000000;1.106804
9328.000000;1.106545
9327.000000;1.106033
9326.000000;1.105603
9325.000000;1.105435
9324.000000;1.105248
9323.000000;1.104676
9322.000000;1.103794
9321.000000;1.103127
9320.000000;1.103169
9319.000000;1.103941
9318.000000;1.104896
9317.000000;1.105295
9316.000000;1.104837
9315.000000;1.103898
9314.000000;1.102961
9313.000000;1.101958
9312.000000;1.100547
9311.000000;1.098925
9310.000000;1.097817
9309.000000;1.097528
9308.000000;1.097548
9307.000000;1.097371
9306.000000;1.097210
9305.000000;1.097483
9304.000000;1.097973
9303.000000;1.097970
9302.000000;1.097075
9301.000000;1.095478
9300.000000;1.093710
9299.000000;1.092474
9298.000000;1.092390
9297.000000;1.093311
9296.000000;1.094090
9295.000000;1.093624
9294.000000;1.092115
9293.000000;1.090760
9292.000000;1.090278
9291.000000;1.090290
9290.000000;1.090101
9289.000000;1.089481
9288.000000;1.088581
9287.000000;1.087705
9286.000000;1.087379
9285.000000;1.088134
9284.000000;1.089842
9283.000000;1.091596
9282.000000;1.092548
9281.000000;1.092620
9280.000000;1.092212
9279.000000;1.091583
9278.000000;1.090766
9277.000000;1.089817
9276.000000;1.088802
9275.000000;1.087679
9274.000000;1.086426
9273.000000;1.085172
9272.000000;1.084048
9271.000000;1.083043
9270.000000;1.082180
9269.000000;1.081669
9268.000000;1.081660
9267.000000;1.081985
9266.000000;1.082328
9265.000000;1.082559
9264.000000;1.082765
9263.000000;1.083026
9262.000000;1.083292
9261.000000;1.083425
9260.000000;1.083324
9259.000000;1.083020
9258.000000;1.082598
9257.000000;1.081998
9256.000000;1.081005
9255.000000;1.079624
9254.000000;1.078279
9253.000000;1.077412
9252.000000;1.076947
9251.000000;1.076485
9250.000000;1.075979
9249.000000;1.075812
9248.000000;1.076160
9247.000000;1.076682
9246.000000;1.076954
9245.000000;1.076865
9244.000000;1.076438
9243.000000;1.075666
9242.000000;1.074710
9241.000000;1.073921
9240.000000;1.073453
9239.000000;1.073178
9238.000000;1.073140
9237.000000;1.073617
9236.000000;1.074487
9235.000000;1.075026
9234.000000;1.074788
9233.000000;1.074312
9232.000000;1.074433
9231.000000;1.075071
9230.000000;1.075249
9229.000000;1.074315
9228.000000;1.072674
9227.000000;1.071239
9226.000000;1.070510
9225.000000;1.070294
9224.000000;1.070064
9223.000000;1.069467
9222.000000;1.068592
9221.000000;1.067811
9220.000000;1.067347
9219.000000;1.067129
9218.000000;1.067098
9217.000000;1.067337
9216.000000;1.067731
9215.000000;1.067755
9214.000000;1.067005
9213.000000;1.065801
9212.000000;1.064900
9211.000000;1.064643
9210.000000;1.064722
9209.000000;1.064746
9208.000000;1.064667
9207.000000;1.064524
9206.000000;1.064094
9205.000000;1.063062
9204.000000;1.061498
9203.000000;1.059947
9202.000000;1.058983
9201.000000;1.058714
9200.000000;1.058818
9199.000000;1.059068
9198.000000;1.059620
9197.000000;1.060585
9196.000000;1.061465
9195.000000;1.061436
9194.000000;1.060296
9193.000000;1.058787
9192.000000;1.057843
9191.000000;1.057793
9190.000000;1.058403
9189.000000;1.059251
9188.000000;1.059797
9187.000000;1.059490
9186.000000;1.058273
9185.000000;1.056806
9184.000000;1.055827
9183.000000;1.055441
9182.000000;1.055318
9181.000000;1.055381
9180.000000;1.055866
9179.000000;1.056794
9178.000000;1.057759
9177.000000;1.058212
9176.000000;1.057757
9175.000000;1.056312
9174.000000;1.054350
9173.000000;1.052827
9172.000000;1.052430
9171.000000;1.052868
9170.000000;1.053205
9169.000000;1.052900
9168.000000;1.052226
9167.000000;1.051745
9166.000000;1.051741
9165.000000;1.052135
9164.000000;1.052572
9163.000000;1.052571
9162.000000;1.051931
9161.000000;1.051049
9160.000000;1.050518
9159.000000;1.050388
9158.000000;1.050178
9157.000000;1.049624
9156.000000;1.049010
9155.000000;1.048638
9154.000000;1.048407
9153.000000;1.048092
9152.000000;1.047707
9151.000000;1.047328
9150.000000;1.046852
9149.000000;1.046186
9148.000000;1.045509
9147.000000;1.045104
9146.000000;1.045020
9145.000000;1.045063
9144.000000;1.045011
9143.000000;1.044742
9142.000000;1.044264
9141.000000;1.043762
9140.000000;1.043511
9139.000000;1.043625
9138.000000;1.043960
9137.000000;1.044299
9136.000000;1.044514
9135.000000;1.044527
9134.000000;1.044262
9133.000000;1.043720
9132.000000;1.043015
9131.000000;1.042311
9130.000000;1.041820
9129.000000;1.041764
9128.000000;1.042131
9127.000000;1.042475
9126.000000;1.042248
9125.000000;1.041456
9124.000000;1.040728
9123.000000;1.040573
9122.000000;1.040767
9121.000000;1.040679
9120.000000;1.040101
9119.000000;1.039496
9118.000000;1.039415
9117.000000;1.039852
9116.000000;1.040299
9115.000000;1.040391
9114.000000;1.040346
9113.000000;1.040616
9112.000000;1.041137
9111.000000;1.041191
9110.000000;1.040194
9109.000000;1.038470
9108.000000;1.036989
9107.000000;1.036438
9106.000000;1.036740
9105.000000;1.037334
9104.000000;1.037628
9103.000000;1.037242
9102.000000;1.036239
9101.000000;1.035229
9100.000000;1.034928
9099.000000;1.035420
9098.000000;1.036043
9097.000000;1.036111
9096.000000;1.035586
9095.000000;1.034943
9094.000000;1.034600
9093.000000;1.034619
9092.000000;1.034744
9091.000000;1.034551
9090.000000;1.033726
9089.000000;1.032382
9088.000000;1.031053
9087.000000;1.030249
9086.000000;1.030094
9085.000000;1.030388
9084.000000;1.030844
9083.000000;1.031220
9082.000000;1.031427
9081.000000;1.031635
9080.000000;1.032040
9079.000000;1.032429
9078.000000;1.032238
9077.000000;1.031280
9076.000000;1.030193
9075.000000;1.029805
9074.000000;1.030172
9073.000000;1.030567
9072.000000;1.030414
9071.000000;1.029924
9070.000000;1.029709
9069.000000;1.029988
9068.000000;1.030363
9067.000000;1.030327
9066.000000;1.029798
9065.000000;1.029092
9064.000000;1.028460
9063.000000;1.027847
9062.000000;1.027177
9061.000000;1.026697
9060.000000;1.026778
9059.000000;1.027396
9058.000000;1.028104
9057.000000;1.028560
9056.000000;1.028771
9055.000000;1.028686
9054.000000;1.027946
9053.000000;1.026400
