Criado como novo conjunto de dados;"1909daniel.spp","-4253923.1 Secs"
cm-1;Abs
10000.000000;1.804608
9999.000000;1.804486
9998.000000;1.803166
9997.000000;1.800712
9996.000000;1.798714
9995.000000;1.798344
9994.000000;1.799141
9993.000000;1.799879
9992.000000;1.800114
9991.000000;1.800372
9990.000000;1.801277
9989.000000;1.803021
9988.000000;1.805256
9987.000000;1.806959
9986.000000;1.806682
9985.000000;1.803681
9984.000000;1.799021
9983.000000;1.794787
9982.000000;1.792057
9981.000000;1.790351
9980.000000;1.789011
9979.000000;1.788221
9978.000000;1.788390
9977.000000;1.789377
9976.000000;1.790947
9975.000000;1.793388
9974.000000;1.796802
9973.000000;1.800010
9972.000000;1.801040
9971.000000;1.798917
9970.000000;1.794402
9969.000000;1.788868
9968.000000;1.783229
9967.000000;1.778305
9966.000000;1.775359
9965.000000;1.775490
9964.000000;1.778583
9963.000000;1.783088
9962.000000;1.786847
9961.000000;1.788289
9960.000000;1.787287
9959.000000;1.785253
9958.000000;1.784271
9957.000000;1.785612
9956.000000;1.788617
9955.000000;1.790882
9954.000000;1.789799
9953.000000;1.784598
9952.000000;1.777357
9951.000000;1.771794
9950.000000;1.770480
9949.000000;1.772844
9948.000000;1.775733
9947.000000;1.776191
9946.000000;1.773976
9945.000000;1.771351
9944.000000;1.770732
9943.000000;1.772566
9942.000000;1.774792
9941.000000;1.774324
9940.000000;1.769877
9939.000000;1.763545
9938.000000;1.759034
9937.000000;1.758224
9936.000000;1.759736
9935.000000;1.760761
9934.000000;1.759901
9933.000000;1.758054
9932.000000;1.756956
9931.000000;1.757513
9930.000000;1.759232
9929.000000;1.760653
9928.000000;1.760408
9927.000000;1.758380
9926.000000;1.755834
9925.000000;1.754268
9924.000000;1.754320
9923.000000;1.755823
9922.000000;1.758213
9921.000000;1.760231
9920.000000;1.759983
9919.000000;1.756536
9918.000000;1.751347
9917.000000;1.747071
9916.000000;1.744976
9915.000000;1.744235
9914.000000;1.743569
9913.000000;1.742661
9912.000000;1.741787
9911.000000;1.741025
9910.000000;1.740426
9909.000000;1.740371
9908.000000;1.741119
9907.000000;1.742270
9906.000000;1.743057
9905.000000;1.743112
9904.000000;1.742739
9903.000000;1.742445
9902.000000;1.742417
9901.000000;1.742410
9900.000000;1.742037
9899.000000;1.741276
9898.000000;1.740711
9897.000000;1.740985
9896.000000;1.741892
9895.000000;1.742337
9894.000000;1.741350
9893.000000;1.738841
9892.000000;1.735277
9891.000000;1.731201
9890.000000;1.727434
9889.000000;1.725193
9888.000000;1.725273
9887.000000;1.727107
9886.000000;1.729064
9885.000000;1.729789
9884.000000;1.728988
9883.000000;1.726963
9882.000000;1.723946
9881.000000;1.720287
9880.000000;1.717021
9879.000000;1.715625
9878.000000;1.716840
9877.000000;1.719748
9876.000000;1.722203
9875.000000;1.722520
9874.000000;1.720866
9873.000000;1.718884
9872.000000;1.718039
9871.000000;1.718435
9870.000000;1.719034
9869.000000;1.718838
9868.000000;1.717854
9867.000000;1.716776
9866.000000;1.715902
9865.000000;1.714766
9864.000000;1.712995
9863.000000;1.711249
9862.000000;1.710759
9861.000000;1.711748
9860.000000;1.712834
9859.000000;1.712392
9858.000000;1.710265
9857.000000;1.707734
9856.000000;1.706002
9855.000000;1.705213
9854.000000;1.704806
9853.000000;1.704294
9852.000000;1.703655
9851.000000;1.703284
9850.000000;1.703626
9849.000000;1.704574
9848.000000;1.705219
9847.000000;1.704553
9846.000000;1.702469
9845.000000;1.699673
9844.000000;1.696647
9843.000000;1.693468
9842.000000;1.690649
9841.000000;1.689203
9840.000000;1.689486
9839.000000;1.690576
9838.000000;1.691270
9837.000000;1.691430
9836.000000;1.691819
9835.000000;1.692750
9834.000000;1.693517
9833.000000;1.693226
9832.000000;1.691843
9831.000000;1.690249
9830.000000;1.689209
9829.000000;1.688426
9828.000000;1.686936
9827.000000;1.684572
9826.000000;1.682519
9825.000000;1.681934
9824.000000;1.682352
9823.000000;1.682144
9822.000000;1.680584
9821.000000;1.678722
9820.000000;1.678017
9819.000000;1.678883
9818.000000;1.680716
9817.000000;1.682507
9816.000000;1.683156
9815.000000;1.682017
9814.000000;1.679624
9813.000000;1.677335
9812.000000;1.675903
9811.000000;1.674751
9810.000000;1.672932
9809.000000;1.670445
9808.000000;1.668123
9807.000000;1.666594
9806.000000;1.665894
9805.000000;1.665844
9804.000000;1.666160
9803.000000;1.666318
9802.000000;1.665917
9801.000000;1.665261
9800.000000;1.665266
9799.000000;1.666580
9798.000000;1.668722
9797.000000;1.670077
9796.000000;1.669059
9795.000000;1.665679
9794.000000;1.661793
9793.000000;1.659440
9792.000000;1.659169
9791.000000;1.660192
9790.000000;1.661640
9789.000000;1.662962
9788.000000;1.663337
9787.000000;1.661986
9786.000000;1.659510
9785.000000;1.657722
9784.000000;1.657604
9783.000000;1.658205
9782.000000;1.657935
9781.000000;1.656324
9780.000000;1.654047
9779.000000;1.651923
9778.000000;1.650522
9777.000000;1.650003
9776.000000;1.649721
9775.000000;1.648694
9774.000000;1.646986
9773.000000;1.645765
9772.000000;1.645505
9771.000000;1.645155
9770.000000;1.643863
9769.000000;1.642396
9768.000000;1.641621
9767.000000;1.640624
9766.000000;1.638102
9765.000000;1.635045
9764.000000;1.634000
9763.000000;1.635728
9762.000000;1.638279
9761.000000;1.639595
9760.000000;1.639595
9759.000000;1.639217
9758.000000;1.638834
9757.000000;1.638432
9756.000000;1.638210
9755.000000;1.638106
9754.000000;1.637549
9753.000000;1.636381
9752.000000;1.635294
9751.000000;1.634653
9750.000000;1.633711
9749.000000;1.631782
9748.000000;1.629568
9747.000000;1.628512
9746.000000;1.629155
9745.000000;1.630664
9744.000000;1.631682
9743.000000;1.631260
9742.000000;1.629403
9741.000000;1.627195
9740.000000;1.626105
9739.000000;1.626747
9738.000000;1.628478
9737.000000;1.630267
9736.000000;1.631402
9735.000000;1.631183
9734.000000;1.628870
9733.000000;1.624784
9732.000000;1.620810
9731.000000;1.618835
9730.000000;1.618917
9729.000000;1.619604
9728.000000;1.619737
9727.000000;1.619265
9726.000000;1.618620
9725.000000;1.618233
9724.000000;1.618618
9723.000000;1.619936
9722.000000;1.621176
9721.000000;1.620625
9720.000000;1.617735
9719.000000;1.613962
9718.000000;1.611256
9717.000000;1.610289
9716.000000;1.610554
9715.000000;1.611555
9714.000000;1.613047
9713.000000;1.614299
9712.000000;1.614108
9711.000000;1.612010
9710.000000;1.608976
9709.000000;1.606463
9708.000000;1.605116
9707.000000;1.604679
9706.000000;1.604720
9705.000000;1.604889
9704.000000;1.604620
9703.000000;1.603372
9702.000000;1.601433
9701.000000;1.599924
9700.000000;1.599750
9699.000000;1.600904
9698.000000;1.602906
9697.000000;1.605362
9696.000000;1.607711
9695.000000;1.608903
9694.000000;1.608049
9693.000000;1.605414
9692.000000;1.602333
9691.000000;1.600191
9690.000000;1.599609
9689.000000;1.600185
9688.000000;1.600545
9687.000000;1.599082
9686.000000;1.595523
9685.000000;1.591745
9684.000000;1.590146
9683.000000;1.591081
9682.000000;1.592475
9681.000000;1.592206
9680.000000;1.590232
9679.000000;1.587904
9678.000000;1.586086
9677.000000;1.584682
9676.000000;1.583455
9675.000000;1.582425
9674.000000;1.581500
9673.000000;1.580426
9672.000000;1.579416
9671.000000;1.579425
9670.000000;1.581296
9669.000000;1.584481
9668.000000;1.586833
9667.000000;1.586170
9666.000000;1.582345
9665.000000;1.577557
9664.000000;1.574349
9663.000000;1.573443
9662.000000;1.573596
9661.000000;1.573277
9660.000000;1.572046
9659.000000;1.570260
9658.000000;1.568181
9657.000000;1.565951
9656.000000;1.564076
9655.000000;1.563263
9654.000000;1.563746
9653.000000;1.565109
9652.000000;1.566765
9651.000000;1.568275
9650.000000;1.569114
9649.000000;1.568652
9648.000000;1.566831
9647.000000;1.564704
9646.000000;1.563759
9645.000000;1.564470
9644.000000;1.565661
9643.000000;1.565600
9642.000000;1.563755
9641.000000;1.561271
9640.000000;1.559726
9639.000000;1.559668
9638.000000;1.560378
9637.000000;1.560770
9636.000000;1.560368
9635.000000;1.559598
9634.000000;1.559345
9633.000000;1.559939
9632.000000;1.560434
9631.000000;1.559282
9630.000000;1.556054
9629.000000;1.552241
9628.000000;1.550020
9627.000000;1.550462
9626.000000;1.552995
9625.000000;1.556071
9624.000000;1.558021
9623.000000;1.557741
9622.000000;1.555408
9621.000000;1.552498
9620.000000;1.550468
9619.000000;1.549485
9618.000000;1.548853
9617.000000;1.548229
9616.000000;1.547715
9615.000000;1.547082
9614.000000;1.545924
9613.000000;1.544590
9612.000000;1.543960
9611.000000;1.544083
9610.000000;1.543970
9609.000000;1.543027
9608.000000;1.541829
9607.000000;1.541004
9606.000000;1.540184
9605.000000;1.538748
9604.000000;1.536999
9603.000000;1.535872
9602.000000;1.535919
9601.000000;1.537049
9600.000000;1.538691
9599.000000;1.539754
9598.000000;1.539071
9597.000000;1.536624
9596.000000;1.533819
9595.000000;1.531870
9594.000000;1.530432
9593.000000;1.528501
9592.000000;1.526198
9591.000000;1.524733
9590.000000;1.524856
9589.000000;1.526222
9588.000000;1.528086
9587.000000;1.529725
9586.000000;1.530277
9585.000000;1.529231
9584.000000;1.527329
9583.000000;1.526081
9582.000000;1.526034
9581.000000;1.526235
9580.000000;1.525727
9579.000000;1.524846
9578.000000;1.524403
9577.000000;1.524209
9576.000000;1.523318
9575.000000;1.521517
9574.000000;1.519821
9573.000000;1.519317
9572.000000;1.520024
9571.000000;1.521047
9570.000000;1.521477
9569.000000;1.520882
9568.000000;1.519184
9567.000000;1.516609
9566.000000;1.513915
9565.000000;1.512258
9564.000000;1.512373
9563.000000;1.513805
9562.000000;1.515146
9561.000000;1.515187
9560.000000;1.513861
9559.000000;1.512117
9558.000000;1.511071
9557.000000;1.511205
9556.000000;1.512037
9555.000000;1.512464
9554.000000;1.511665
9553.000000;1.509860
9552.000000;1.508132
9551.000000;1.507380
9550.000000;1.507485
9549.000000;1.507536
9548.000000;1.506748
9547.000000;1.505045
9546.000000;1.502985
9545.000000;1.501287
9544.000000;1.500249
9543.000000;1.499457
9542.000000;1.498282
9541.000000;1.496825
9540.000000;1.496017
9539.000000;1.496513
9538.000000;1.497790
9537.000000;1.498743
9536.000000;1.498942
9535.000000;1.498835
9534.000000;1.498786
9533.000000;1.498462
9532.000000;1.497268
9531.000000;1.495140
9530.000000;1.492747
9529.000000;1.490929
9528.000000;1.490014
9527.000000;1.489593
9526.000000;1.489058
9525.000000;1.488478
9524.000000;1.488612
9523.000000;1.489720
9522.000000;1.490645
9521.000000;1.489632
9520.000000;1.486134
9519.000000;1.481436
9518.000000;1.477459
9517.000000;1.475386
9516.000000;1.475350
9515.000000;1.476843
9514.000000;1.479138
9513.000000;1.481604
9512.000000;1.483852
9511.000000;1.485510
9510.000000;1.485949
9509.000000;1.484638
9508.000000;1.481969
9507.000000;1.479360
9506.000000;1.478117
9505.000000;1.478208
9504.000000;1.478362
9503.000000;1.477459
9502.000000;1.475716
9501.000000;1.474399
9500.000000;1.474428
9499.000000;1.475431
9498.000000;1.476248
9497.000000;1.476128
9496.000000;1.475150
9495.000000;1.473652
9494.000000;1.471848
9493.000000;1.470160
9492.000000;1.469276
9491.000000;1.469325
9490.000000;1.469424
9489.000000;1.468689
9488.000000;1.467464
9487.000000;1.466819
9486.000000;1.467008
9485.000000;1.467257
9484.000000;1.467069
9483.000000;1.466837
9482.000000;1.466894
9481.000000;1.466812
9480.000000;1.466208
9479.000000;1.465600
9478.000000;1.465758
9477.000000;1.466565
9476.000000;1.467196
9475.000000;1.467160
9474.000000;1.466494
9473.000000;1.465138
9472.000000;1.462919
9471.000000;1.460232
9470.000000;1.458037
9469.000000;1.456903
9468.000000;1.456495
9467.000000;1.456236
9466.000000;1.456105
9465.000000;1.456482
9464.000000;1.457416
9463.000000;1.458335
9462.000000;1.458494
9461.000000;1.457578
9460.000000;1.455927
9459.000000;1.454351
9458.000000;1.453591
9457.000000;1.453675
9456.000000;1.453820
9455.000000;1.453109
9454.000000;1.451301
9453.000000;1.448921
9452.000000;1.446750
9451.000000;1.445458
9450.000000;1.445561
9449.000000;1.447209
9448.000000;1.449752
9447.000000;1.451815
9446.000000;1.452232
9445.000000;1.451043
9444.000000;1.449379
9443.000000;1.448335
9442.000000;1.448138
9441.000000;1.448355
9440.000000;1.448625
9439.000000;1.448971
9438.000000;1.449471
9437.000000;1.449821
9436.000000;1.449365
9435.000000;1.447580
9434.000000;1.444569
9433.000000;1.441089
9432.000000;1.438092
9431.000000;1.436213
9430.000000;1.435572
9429.000000;1.435883
9428.000000;1.436655
9427.000000;1.437395
9426.000000;1.437848
9425.000000;1.438107
9424.000000;1.438334
9423.000000;1.438335
9422.000000;1.437586
9421.000000;1.435806
9420.000000;1.433450
9419.000000;1.431468
9418.000000;1.430504
9417.000000;1.430308
9416.000000;1.429964
9415.000000;1.428830
9414.000000;1.427307
9413.000000;1.426542
9412.000000;1.427238
9411.000000;1.428827
9410.000000;1.430028
9409.000000;1.430139
9408.000000;1.429421
9407.000000;1.428223
9406.000000;1.426420
9405.000000;1.424088
9404.000000;1.422162
9403.000000;1.421675
9402.000000;1.422403
9401.000000;1.422889
9400.000000;1.422073
9399.000000;1.420514
9398.000000;1.419610
9397.000000;1.419910
9396.000000;1.420622
9395.000000;1.420676
9394.000000;1.419876
9393.000000;1.418790
9392.000000;1.417861
9391.000000;1.417059
9390.000000;1.416356
9389.000000;1.415930
9388.000000;1.415641
9387.000000;1.414825
9386.000000;1.413207
9385.000000;1.411709
9384.000000;1.411561
9383.000000;1.412641
9382.000000;1.413547
9381.000000;1.413525
9380.000000;1.413497
9379.000000;1.414510
9378.000000;1.415899
9377.000000;1.415932
9376.000000;1.414028
9375.000000;1.411355
9374.000000;1.409305
9373.000000;1.408351
9372.000000;1.408398
9371.000000;1.409198
9370.000000;1.410082
9369.000000;1.410092
9368.000000;1.408957
9367.000000;1.407457
9366.000000;1.406318
9365.000000;1.405109
9364.000000;1.402878
9363.000000;1.399663
9362.000000;1.396695
9361.000000;1.395148
9360.000000;1.395189
9359.000000;1.396311
9358.000000;1.398215
9357.000000;1.400964
9356.000000;1.404228
9355.000000;1.406742
9354.000000;1.407008
9353.000000;1.404752
9352.000000;1.401366
9351.000000;1.398530
9350.000000;1.396673
9349.000000;1.395187
9348.000000;1.393871
9347.000000;1.393386
9346.000000;1.394123
9345.000000;1.395310
9344.000000;1.395747
9343.000000;1.395161
9342.000000;1.394401
9341.000000;1.394418
9340.000000;1.395362
9339.000000;1.396509
9338.000000;1.396893
9337.000000;1.396191
9336.000000;1.395028
9335.000000;1.394085
9334.000000;1.393008
9333.000000;1.390864
9332.000000;1.387852
9331.000000;1.385712
9330.000000;1.385822
9329.000000;1.387539
9328.000000;1.389171
9327.000000;1.390042
9326.000000;1.390574
9325.000000;1.390639
9324.000000;1.389263
9323.000000;1.386291
9322.000000;1.383220
9321.000000;1.381713
9320.000000;1.381956
9319.000000;1.382909
9318.000000;1.383611
9317.000000;1.383664
9316.000000;1.382863
9315.000000;1.381124
9314.000000;1.378754
9313.000000;1.376380
9312.000000;1.374595
9311.000000;1.373780
9310.000000;1.374035
9309.000000;1.375035
9308.000000;1.376101
9307.000000;1.376715
9306.000000;1.376907
9305.000000;1.377026
9304.000000;1.377269
9303.000000;1.377554
9302.000000;1.377683
9301.000000;1.377476
9300.000000;1.376901
9299.000000;1.376233
9298.000000;1.375875
9297.000000;1.375804
9296.000000;1.375432
9295.000000;1.374259
9294.000000;1.372538
9293.000000;1.371035
9292.000000;1.370186
9291.000000;1.369716
9290.000000;1.369079
9289.000000;1.368051
9288.000000;1.366933
9287.000000;1.366338
9286.000000;1.366676
9285.000000;1.367679
9284.000000;1.368494
9283.000000;1.368325
9282.000000;1.366934
9281.000000;1.364591
9280.000000;1.361937
9279.000000;1.359952
9278.000000;1.359517
9277.000000;1.360555
9276.000000;1.361821
9275.000000;1.362069
9274.000000;1.361417
9273.000000;1.361090
9272.000000;1.361913
9271.000000;1.363493
9270.000000;1.364860
9269.000000;1.365417
9268.000000;1.365114
9267.000000;1.364148
9266.000000;1.362786
9265.000000;1.361268
9264.000000;1.359705
9263.000000;1.358174
9262.000000;1.356924
9261.000000;1.356216
9260.000000;1.355960
9259.000000;1.355862
9258.000000;1.355988
9257.000000;1.356757
9256.000000;1.358200
9255.000000;1.359634
9254.000000;1.360384
9253.000000;1.360491
9252.000000;1.360344
9251.000000;1.359910
9250.000000;1.358873
9249.000000;1.357344
9248.000000;1.355918
9247.000000;1.354967
9246.000000;1.354318
9245.000000;1.353729
9244.000000;1.353331
9243.000000;1.353390
9242.000000;1.353811
9241.000000;1.354111
9240.000000;1.353862
9239.000000;1.353088
9238.000000;1.352252
9237.000000;1.351838
9236.000000;1.351847
9235.000000;1.351750
9234.000000;1.351137
9233.000000;1.350322
9232.000000;1.350051
9231.000000;1.350533
9230.000000;1.351072
9229.000000;1.350827
9228.000000;1.349769
9227.000000;1.348625
9226.000000;1.348010
9225.000000;1.347823
9224.000000;1.347474
9223.000000;1.346604
9222.000000;1.345581
9221.000000;1.345268
9220.000000;1.346122
9219.000000;1.347430
9218.000000;1.347709
9217.000000;1.346194
9216.000000;1.343780
9215.000000;1.342133
9214.000000;1.342016
9213.000000;1.342791
9212.000000;1.343412
9211.000000;1.343390
9210.000000;1.342699
9209.000000;1.341348
9208.000000;1.339559
9207.000000;1.338063
9206.000000;1.337613
9205.000000;1.338175
9204.000000;1.338937
9203.000000;1.339169
9202.000000;1.338831
9201.000000;1.338351
9200.000000;1.338111
9199.000000;1.338264
9198.000000;1.338698
9197.000000;1.338983
9196.000000;1.338580
9195.000000;1.337375
9194.000000;1.335882
9193.000000;1.334734
9192.000000;1.334004
9191.000000;1.333177
9190.000000;1.331892
9189.000000;1.330613
9188.000000;1.330322
9187.000000;1.331404
9186.000000;1.332958
9185.000000;1.333506
9184.000000;1.332549
9183.000000;1.331094
9182.000000;1.330414
9181.000000;1.330690
9180.000000;1.331245
9179.000000;1.331682
9178.000000;1.332047
9177.000000;1.332022
9176.000000;1.330924
9175.000000;1.328880
9174.000000;1.327181
9173.000000;1.326856
9172.000000;1.327442
9171.000000;1.327701
9170.000000;1.327150
9169.000000;1.326269
9168.000000;1.325547
9167.000000;1.325125
9166.000000;1.325130
9165.000000;1.325525
9164.000000;1.325589
9163.000000;1.324402
9162.000000;1.322139
9161.000000;1.320164
9160.000000;1.319515
9159.000000;1.319841
9158.000000;1.320177
9157.000000;1.320281
9156.000000;1.320645
9155.000000;1.321484
9154.000000;1.322369
9153.000000;1.322807
9152.000000;1.322746
9151.000000;1.322437
9150.000000;1.322059
9149.000000;1.321560
9148.000000;1.320680
9147.000000;1.319153
9146.000000;1.317112
9145.000000;1.315301
9144.000000;1.314635
9143.000000;1.315413
9142.000000;1.317050
9141.000000;1.318575
9140.000000;1.319306
9139.000000;1.319081
9138.000000;1.318099
9137.000000;1.316765
9136.000000;1.315630
9135.000000;1.315165
9134.000000;1.315388
9133.000000;1.315777
9132.000000;1.315735
9131.000000;1.315171
9130.000000;1.314476
9129.000000;1.313966
9128.000000;1.313627
9127.000000;1.313440
9126.000000;1.313599
9125.000000;1.314098
9124.000000;1.314378
9123.000000;1.313898
9122.000000;1.312992
9121.000000;1.312593
9120.000000;1.312996
9119.000000;1.313365
9118.000000;1.312744
9117.000000;1.311248
9116.000000;1.309849
9115.000000;1.309167
9114.000000;1.308894
9113.000000;1.308389
9112.000000;1.307511
9111.000000;1.306698
9110.000000;1.306395
9109.000000;1.306660
9108.000000;1.307280
9107.000000;1.308101
9106.000000;1.309104
9105.000000;1.310097
9104.000000;1.310526
9103.000000;1.309861
9102.000000;1.308214
9101.000000;1.306395
9100.000000;1.305204
9099.000000;1.304748
9098.000000;1.304527
9097.000000;1.304103
9096.000000;1.303508
9095.000000;1.303054
9094.000000;1.302913
9093.000000;1.303016
9092.000000;1.303311
9091.000000;1.303859
9090.000000;1.304513
9089.000000;1.304640
9088.000000;1.303572
9087.000000;1.301476
9086.000000;1.299450
9085.000000;1.298483
9084.000000;1.298513
9083.000000;1.298742
9082.000000;1.298681
9081.000000;1.298500
9080.000000;1.298460
9079.000000;1.298446
9078.000000;1.298187
9077.000000;1.297656
9076.000000;1.297063
9075.000000;1.296669
9074.000000;1.296641
9073.000000;1.296945
9072.000000;1.297335
9071.000000;1.297622
9070.000000;1.297924
9069.000000;1.298469
9068.000000;1.299151
9067.000000;1.299512
9066.000000;1.299178
9065.000000;1.298156
9064.000000;1.296750
9063.000000;1.295493
9062.000000;1.294993
9061.000000;1.295396
9060.000000;1.296025
9059.000000;1.296015
9058.000000;1.295398
9057.000000;1.295097
9056.000000;1.295681
9055.000000;1.296597
9054.000000;1.296861
9053.000000;1.296142
