Criado como novo conjunto de dados;"1909daniel.spp","-4271924.6 Secs"
cm-1;Abs
10000.000000;1.623303
9999.000000;1.624234
9998.000000;1.624115
9997.000000;1.622520
9996.000000;1.619590
9995.000000;1.615553
9994.000000;1.610815
9993.000000;1.606609
9992.000000;1.604582
9991.000000;1.605222
9990.000000;1.607201
9989.000000;1.608739
9988.000000;1.609295
9987.000000;1.609455
9986.000000;1.609609
9985.000000;1.609525
9984.000000;1.609140
9983.000000;1.608895
9982.000000;1.608961
9981.000000;1.608739
9980.000000;1.607516
9979.000000;1.605389
9978.000000;1.603250
9977.000000;1.601981
9976.000000;1.601884
9975.000000;1.602711
9974.000000;1.603990
9973.000000;1.605204
9972.000000;1.605687
9971.000000;1.604633
9970.000000;1.601627
9969.000000;1.597323
9968.000000;1.593308
9967.000000;1.590897
9966.000000;1.590065
9965.000000;1.589812
9964.000000;1.589522
9963.000000;1.589520
9962.000000;1.590179
9961.000000;1.590989
9960.000000;1.590943
9959.000000;1.589693
9958.000000;1.587859
9957.000000;1.586148
9956.000000;1.584610
9955.000000;1.582981
9954.000000;1.581382
9953.000000;1.580279
9952.000000;1.579871
9951.000000;1.579936
9950.000000;1.580278
9949.000000;1.580841
9948.000000;1.581161
9947.000000;1.580315
9946.000000;1.578051
9945.000000;1.575587
9944.000000;1.574463
9943.000000;1.574596
9942.000000;1.574271
9941.000000;1.572373
9940.000000;1.569920
9939.000000;1.568849
9938.000000;1.569882
9937.000000;1.572073
9936.000000;1.573959
9935.000000;1.574521
9934.000000;1.573350
9933.000000;1.570699
9932.000000;1.567543
9931.000000;1.565015
9930.000000;1.563659
9929.000000;1.563495
9928.000000;1.564524
9927.000000;1.566553
9926.000000;1.568607
9925.000000;1.569403
9924.000000;1.568695
9923.000000;1.567497
9922.000000;1.566741
9921.000000;1.566412
9920.000000;1.566201
9919.000000;1.566182
9918.000000;1.566298
9917.000000;1.565813
9916.000000;1.564006
9915.000000;1.561183
9914.000000;1.558323
9913.000000;1.555904
9912.000000;1.553647
9911.000000;1.551336
9910.000000;1.549353
9909.000000;1.548215
9908.000000;1.547830
9907.000000;1.547490
9906.000000;1.546701
9905.000000;1.545953
9904.000000;1.546347
9903.000000;1.548137
9902.000000;1.549914
9901.000000;1.549928
9900.000000;1.548227
9899.000000;1.546675
9898.000000;1.546660
9897.000000;1.547621
9896.000000;1.548159
9895.000000;1.547805
9894.000000;1.547037
9893.000000;1.546218
9892.000000;1.545396
9891.000000;1.544775
9890.000000;1.544550
9889.000000;1.544414
9888.000000;1.543860
9887.000000;1.542945
9886.000000;1.542142
9885.000000;1.541449
9884.000000;1.540379
9883.000000;1.538859
9882.000000;1.537396
9881.000000;1.536296
9880.000000;1.535275
9879.000000;1.533853
9878.000000;1.531834
9877.000000;1.529495
9876.000000;1.527536
9875.000000;1.526675
9874.000000;1.526921
9873.000000;1.527355
9872.000000;1.527055
9871.000000;1.526103
9870.000000;1.525186
9869.000000;1.524342
9868.000000;1.522786
9867.000000;1.520094
9866.000000;1.517006
9865.000000;1.514891
9864.000000;1.514799
9863.000000;1.516899
9862.000000;1.520140
9861.000000;1.522529
9860.000000;1.522564
9859.000000;1.520632
9858.000000;1.518479
9857.000000;1.517238
9856.000000;1.516583
9855.000000;1.515897
9854.000000;1.515316
9853.000000;1.515112
9852.000000;1.514791
9851.000000;1.513682
9850.000000;1.512077
9849.000000;1.511042
9848.000000;1.511118
9847.000000;1.511740
9846.000000;1.511978
9845.000000;1.511488
9844.000000;1.510557
9843.000000;1.509501
9842.000000;1.508300
9841.000000;1.506917
9840.000000;1.505808
9839.000000;1.505675
9838.000000;1.506395
9837.000000;1.506505
9836.000000;1.504484
9835.000000;1.500682
9834.000000;1.497270
9833.000000;1.495993
9832.000000;1.496575
9831.000000;1.497496
9830.000000;1.497748
9829.000000;1.497397
9828.000000;1.496920
9827.000000;1.496661
9826.000000;1.496781
9825.000000;1.497115
9824.000000;1.497105
9823.000000;1.496282
9822.000000;1.494745
9821.000000;1.492841
9820.000000;1.490687
9819.000000;1.488479
9818.000000;1.487029
9817.000000;1.487297
9816.000000;1.489277
9815.000000;1.491767
9814.000000;1.493361
9813.000000;1.493408
9812.000000;1.492075
9811.000000;1.490024
9810.000000;1.488145
9809.000000;1.487111
9808.000000;1.486762
9807.000000;1.486153
9806.000000;1.484498
9805.000000;1.482023
9804.000000;1.479775
9803.000000;1.478736
9802.000000;1.479086
9801.000000;1.480050
9800.000000;1.480421
9799.000000;1.479530
9798.000000;1.477799
9797.000000;1.476159
9796.000000;1.474966
9795.000000;1.473883
9794.000000;1.472822
9793.000000;1.472352
9792.000000;1.472793
9791.000000;1.473419
9790.000000;1.473182
9789.000000;1.472036
9788.000000;1.470872
9787.000000;1.470105
9786.000000;1.469083
9785.000000;1.467241
9784.000000;1.465298
9783.000000;1.464654
9782.000000;1.465745
9781.000000;1.467477
9780.000000;1.468409
9779.000000;1.468170
9778.000000;1.467430
9777.000000;1.466689
9776.000000;1.465497
9775.000000;1.463022
9774.000000;1.459323
9773.000000;1.455734
9772.000000;1.453754
9771.000000;1.453667
9770.000000;1.454367
9769.000000;1.454474
9768.000000;1.453540
9767.000000;1.452144
9766.000000;1.451002
9765.000000;1.450307
9764.000000;1.449877
9763.000000;1.449591
9762.000000;1.449458
9761.000000;1.449412
9760.000000;1.449273
9759.000000;1.449000
9758.000000;1.448877
9757.000000;1.449302
9756.000000;1.450239
9755.000000;1.450930
9754.000000;1.450375
9753.000000;1.448246
9752.000000;1.445234
9751.000000;1.442425
9750.000000;1.440486
9749.000000;1.439519
9748.000000;1.439428
9747.000000;1.440050
9746.000000;1.440886
9745.000000;1.441089
9744.000000;1.440041
9743.000000;1.437922
9742.000000;1.435589
9741.000000;1.433957
9740.000000;1.433458
9739.000000;1.433844
9738.000000;1.434309
9737.000000;1.434012
9736.000000;1.432775
9735.000000;1.431294
9734.000000;1.430519
9733.000000;1.430804
9732.000000;1.431669
9731.000000;1.432281
9730.000000;1.432122
9729.000000;1.431279
9728.000000;1.430202
9727.000000;1.429205
9726.000000;1.428228
9725.000000;1.427144
9724.000000;1.426147
9723.000000;1.425512
9722.000000;1.425031
9721.000000;1.424070
9720.000000;1.422375
9719.000000;1.420471
9718.000000;1.418996
9717.000000;1.417977
9716.000000;1.417117
9715.000000;1.416495
9714.000000;1.416486
9713.000000;1.417156
9712.000000;1.418167
9711.000000;1.419193
9710.000000;1.419959
9709.000000;1.419861
9708.000000;1.418225
9707.000000;1.415286
9706.000000;1.412377
9705.000000;1.410657
9704.000000;1.409864
9703.000000;1.408765
9702.000000;1.406781
9701.000000;1.404708
9700.000000;1.403685
9699.000000;1.403782
9698.000000;1.404018
9697.000000;1.403686
9696.000000;1.403161
9695.000000;1.403224
9694.000000;1.403934
9693.000000;1.404594
9692.000000;1.404678
9691.000000;1.404339
9690.000000;1.403945
9689.000000;1.403586
9688.000000;1.403261
9687.000000;1.403151
9686.000000;1.403294
9685.000000;1.403221
9684.000000;1.402349
9683.000000;1.400642
9682.000000;1.398529
9681.000000;1.396287
9680.000000;1.393895
9679.000000;1.391484
9678.000000;1.389508
9677.000000;1.388341
9676.000000;1.387922
9675.000000;1.387880
9674.000000;1.387827
9673.000000;1.387505
9672.000000;1.386878
9671.000000;1.386174
9670.000000;1.385687
9669.000000;1.385450
9668.000000;1.385240
9667.000000;1.384881
9666.000000;1.384419
9665.000000;1.384013
9664.000000;1.383728
9663.000000;1.383397
9662.000000;1.382661
9661.000000;1.381343
9660.000000;1.379930
9659.000000;1.379385
9658.000000;1.380140
9657.000000;1.381440
9656.000000;1.382043
9655.000000;1.381540
9654.000000;1.380595
9653.000000;1.379870
9652.000000;1.379267
9651.000000;1.378424
9650.000000;1.377444
9649.000000;1.376743
9648.000000;1.376357
9647.000000;1.375781
9646.000000;1.374582
9645.000000;1.372977
9644.000000;1.371668
9643.000000;1.371095
9642.000000;1.370875
9641.000000;1.370111
9640.000000;1.368424
9639.000000;1.366534
9638.000000;1.365504
9637.000000;1.365500
9636.000000;1.365595
9635.000000;1.364792
9634.000000;1.362978
9633.000000;1.360906
9632.000000;1.359549
9631.000000;1.359530
9630.000000;1.360740
9629.000000;1.362248
9628.000000;1.362799
9627.000000;1.361753
9626.000000;1.359519
9625.000000;1.357017
9624.000000;1.354949
9623.000000;1.353664
9622.000000;1.353270
9621.000000;1.353595
9620.000000;1.354178
9619.000000;1.354575
9618.000000;1.354683
9617.000000;1.354741
9616.000000;1.355120
9615.000000;1.356031
9614.000000;1.357140
9613.000000;1.357438
9612.000000;1.355937
9611.000000;1.352729
9610.000000;1.349076
9609.000000;1.346277
9608.000000;1.344683
9607.000000;1.343855
9606.000000;1.343335
9605.000000;1.343007
9604.000000;1.342953
9603.000000;1.343238
9602.000000;1.343673
9601.000000;1.343671
9600.000000;1.342638
9599.000000;1.340787
9598.000000;1.339268
9597.000000;1.339058
9596.000000;1.339959
9595.000000;1.341009
9594.000000;1.341650
9593.000000;1.341969
9592.000000;1.341823
9591.000000;1.340469
9590.000000;1.337550
9589.000000;1.334054
9588.000000;1.331761
9587.000000;1.331642
9586.000000;1.332963
9585.000000;1.334019
9584.000000;1.333733
9583.000000;1.332487
9582.000000;1.331413
9581.000000;1.331094
9580.000000;1.331163
9579.000000;1.331006
9578.000000;1.330437
9577.000000;1.329524
9576.000000;1.328198
9575.000000;1.326390
9574.000000;1.324372
9573.000000;1.322574
9572.000000;1.321180
9571.000000;1.320198
9570.000000;1.319801
9569.000000;1.320129
9568.000000;1.320738
9567.000000;1.320771
9566.000000;1.319935
9565.000000;1.318958
9564.000000;1.318734
9563.000000;1.319207
9562.000000;1.319441
9561.000000;1.318718
9560.000000;1.317307
9559.000000;1.316074
9558.000000;1.315566
9557.000000;1.315601
9556.000000;1.315653
9555.000000;1.315450
9554.000000;1.315099
9553.000000;1.314679
9552.000000;1.313925
9551.000000;1.312534
9550.000000;1.310744
9549.000000;1.309341
9548.000000;1.308970
9547.000000;1.309549
9546.000000;1.310366
9545.000000;1.310624
9544.000000;1.309883
9543.000000;1.308274
9542.000000;1.306512
9541.000000;1.305489
9540.000000;1.305532
9539.000000;1.306104
9538.000000;1.306476
9537.000000;1.306548
9536.000000;1.306587
9535.000000;1.306344
9534.000000;1.305115
9533.000000;1.302865
9532.000000;1.300622
9531.000000;1.299300
9530.000000;1.298616
9529.000000;1.297717
9528.000000;1.296508
9527.000000;1.295663
9526.000000;1.295474
9525.000000;1.295470
9524.000000;1.295244
9523.000000;1.294920
9522.000000;1.294548
9521.000000;1.293716
9520.000000;1.292190
9519.000000;1.290436
9518.000000;1.289014
9517.000000;1.287930
9516.000000;1.287061
9515.000000;1.286790
9514.000000;1.287581
9513.000000;1.289119
9512.000000;1.290486
9511.000000;1.291098
9510.000000;1.290928
9509.000000;1.289900
9508.000000;1.287795
9507.000000;1.284946
9506.000000;1.282398
9505.000000;1.281012
9504.000000;1.280721
9503.000000;1.280894
9502.000000;1.281160
9501.000000;1.281632
9500.000000;1.282411
9499.000000;1.283112
9498.000000;1.283005
9497.000000;1.281756
9496.000000;1.280009
9495.000000;1.278932
9494.000000;1.278964
9493.000000;1.279249
9492.000000;1.278656
9491.000000;1.277123
9490.000000;1.275481
9489.000000;1.274152
9488.000000;1.272736
9487.000000;1.270959
9486.000000;1.269368
9485.000000;1.268819
9484.000000;1.269675
9483.000000;1.271616
9482.000000;1.273742
9481.000000;1.274775
9480.000000;1.273885
9479.000000;1.271692
9478.000000;1.269840
9477.000000;1.269134
9476.000000;1.268604
9475.000000;1.266923
9474.000000;1.264249
9473.000000;1.261988
9472.000000;1.261130
9471.000000;1.261569
9470.000000;1.262803
9469.000000;1.264368
9468.000000;1.265467
9467.000000;1.265074
9466.000000;1.262980
9465.000000;1.260320
9464.000000;1.258595
9463.000000;1.258376
9462.000000;1.259157
9461.000000;1.260089
9460.000000;1.260566
9459.000000;1.260297
9458.000000;1.259230
9457.000000;1.257578
9456.000000;1.255840
9455.000000;1.254610
9454.000000;1.254197
9453.000000;1.254351
9452.000000;1.254456
9451.000000;1.254150
9450.000000;1.253708
9449.000000;1.253591
9448.000000;1.253687
9447.000000;1.253373
9446.000000;1.252384
9445.000000;1.251211
9444.000000;1.250456
9443.000000;1.250122
9442.000000;1.249816
9441.000000;1.249341
9440.000000;1.248725
9439.000000;1.247909
9438.000000;1.246833
9437.000000;1.245846
9436.000000;1.245560
9435.000000;1.246091
9434.000000;1.246713
9433.000000;1.246544
9432.000000;1.245435
9431.000000;1.243911
9430.000000;1.242341
9429.000000;1.240572
9428.000000;1.238504
9427.000000;1.236730
9426.000000;1.236213
9425.000000;1.237323
9424.000000;1.239341
9423.000000;1.240980
9422.000000;1.241344
9421.000000;1.240490
9420.000000;1.239155
9419.000000;1.238014
9418.000000;1.237183
9417.000000;1.236389
9416.000000;1.235479
9415.000000;1.234582
9414.000000;1.233788
9413.000000;1.232914
9412.000000;1.231737
9411.000000;1.230302
9410.000000;1.228846
9409.000000;1.227586
9408.000000;1.226798
9407.000000;1.226889
9406.000000;1.227964
9405.000000;1.229356
9404.000000;1.230006
9403.000000;1.229476
9402.000000;1.228356
9401.000000;1.227530
9400.000000;1.227287
9399.000000;1.227342
9398.000000;1.227403
9397.000000;1.227356
9396.000000;1.227034
9395.000000;1.226184
9394.000000;1.224748
9393.000000;1.222993
9392.000000;1.221318
9391.000000;1.220082
9390.000000;1.219593
9389.000000;1.220000
9388.000000;1.220976
9387.000000;1.221711
9386.000000;1.221567
9385.000000;1.220798
9384.000000;1.220321
9383.000000;1.220643
9382.000000;1.221207
9381.000000;1.220986
9380.000000;1.219570
9379.000000;1.217396
9378.000000;1.215096
9377.000000;1.213132
9376.000000;1.212008
9375.000000;1.212139
9374.000000;1.213182
9373.000000;1.213961
9372.000000;1.213547
9371.000000;1.212257
9370.000000;1.211103
9369.000000;1.210487
9368.000000;1.209986
9367.000000;1.209210
9366.000000;1.208168
9365.000000;1.206838
9364.000000;1.205061
9363.000000;1.203053
9362.000000;1.201459
9361.000000;1.200687
9360.000000;1.200613
9359.000000;1.201011
9358.000000;1.201699
9357.000000;1.202221
9356.000000;1.202060
9355.000000;1.201401
9354.000000;1.201096
9353.000000;1.201514
9352.000000;1.201949
9351.000000;1.201632
9350.000000;1.200748
9349.000000;1.199874
9348.000000;1.198965
9347.000000;1.197692
9346.000000;1.196439
9345.000000;1.196106
9344.000000;1.196851
9343.000000;1.197742
9342.000000;1.197847
9341.000000;1.197174
9340.000000;1.196335
9339.000000;1.195732
9338.000000;1.195336
9337.000000;1.194960
9336.000000;1.194493
9335.000000;1.193979
9334.000000;1.193564
9333.000000;1.193345
9332.000000;1.193334
9331.000000;1.193570
9330.000000;1.194034
9329.000000;1.194247
9328.000000;1.193297
9327.000000;1.190756
9326.000000;1.187487
9325.000000;1.185079
9324.000000;1.184462
9323.000000;1.185286
9322.000000;1.186521
9321.000000;1.187296
9320.000000;1.187235
9319.000000;1.186479
9318.000000;1.185557
9317.000000;1.184956
9316.000000;1.184650
9315.000000;1.184196
9314.000000;1.183277
9313.000000;1.181953
9312.000000;1.180401
9311.000000;1.178803
9310.000000;1.177541
9309.000000;1.177130
9308.000000;1.177719
9307.000000;1.178839
9306.000000;1.179788
9305.000000;1.180124
9304.000000;1.179785
9303.000000;1.178970
9302.000000;1.178061
9301.000000;1.177406
9300.000000;1.177054
9299.000000;1.176793
9298.000000;1.176435
9297.000000;1.175917
9296.000000;1.175210
9295.000000;1.174326
9294.000000;1.173422
9293.000000;1.172721
9292.000000;1.172301
9291.000000;1.172111
9290.000000;1.172182
9289.000000;1.172574
9288.000000;1.173044
9287.000000;1.173045
9286.000000;1.172283
9285.000000;1.171120
9284.000000;1.170252
9283.000000;1.170075
9282.000000;1.170427
9281.000000;1.170810
9280.000000;1.170787
9279.000000;1.170294
9278.000000;1.169614
9277.000000;1.168978
9276.000000;1.168289
9275.000000;1.167389
9274.000000;1.166531
9273.000000;1.166215
9272.000000;1.166490
9271.000000;1.166708
9270.000000;1.166187
9269.000000;1.164895
9268.000000;1.163335
9267.000000;1.161947
9266.000000;1.160862
9265.000000;1.160100
9264.000000;1.159768
9263.000000;1.160018
9262.000000;1.160868
9261.000000;1.162035
9260.000000;1.162982
9259.000000;1.163263
9258.000000;1.162841
9257.000000;1.161958
9256.000000;1.160776
9255.000000;1.159361
9254.000000;1.157996
9253.000000;1.157172
9252.000000;1.157080
9251.000000;1.157372
9250.000000;1.157576
9249.000000;1.157515
9248.000000;1.157214
9247.000000;1.156668
9246.000000;1.155976
9245.000000;1.155527
9244.000000;1.155706
9243.000000;1.156408
9242.000000;1.156991
9241.000000;1.156746
9240.000000;1.155398
9239.000000;1.153339
9238.000000;1.151449
9237.000000;1.150498
9236.000000;1.150510
9235.000000;1.150785
9234.000000;1.150661
9233.000000;1.150100
9232.000000;1.149439
9231.000000;1.148821
9230.000000;1.148141
9229.000000;1.147412
9228.000000;1.146870
9227.000000;1.146706
9226.000000;1.146838
9225.000000;1.146933
9224.000000;1.146601
9223.000000;1.145722
9222.000000;1.144693
9221.000000;1.144173
9220.000000;1.144366
9219.000000;1.144699
9218.000000;1.144437
9217.000000;1.143544
9216.000000;1.142670
9215.000000;1.142358
9214.000000;1.142556
9213.000000;1.142879
9212.000000;1.143030
9211.000000;1.142909
9210.000000;1.142519
9209.000000;1.141938
9208.000000;1.141296
9207.000000;1.140701
9206.000000;1.140210
9205.000000;1.139811
9204.000000;1.139392
9203.000000;1.138835
9202.000000;1.138261
9201.000000;1.138028
9200.000000;1.138320
9199.000000;1.138840
9198.000000;1.139146
9197.000000;1.139140
9196.000000;1.138937
9195.000000;1.138383
9194.000000;1.137155
9193.000000;1.135348
9192.000000;1.133590
9191.000000;1.132461
9190.000000;1.132084
9189.000000;1.132322
9188.000000;1.133000
9187.000000;1.133768
9186.000000;1.134082
9185.000000;1.133634
9184.000000;1.132641
9183.000000;1.131555
9182.000000;1.130633
9181.000000;1.129940
9180.000000;1.129509
9179.000000;1.129298
9178.000000;1.129140
9177.000000;1.128961
9176.000000;1.128885
9175.000000;1.128952
9174.000000;1.128964
9173.000000;1.128807
9172.000000;1.128738
9171.000000;1.128987
9170.000000;1.129239
9169.000000;1.128953
9168.000000;1.128181
9167.000000;1.127689
9166.000000;1.128109
9165.000000;1.129170
9164.000000;1.129869
9163.000000;1.129306
9162.000000;1.127386
9161.000000;1.124899
9160.000000;1.122976
9159.000000;1.122254
9158.000000;1.122470
9157.000000;1.122914
9156.000000;1.123223
9155.000000;1.123539
9154.000000;1.123966
9153.000000;1.124202
9152.000000;1.123829
9151.000000;1.122759
9150.000000;1.121277
9149.000000;1.119888
9148.000000;1.119149
9147.000000;1.119351
9146.000000;1.120120
9145.000000;1.120597
9144.000000;1.120251
9143.000000;1.119361
9142.000000;1.118526
9141.000000;1.117924
9140.000000;1.117338
9139.000000;1.116670
9138.000000;1.116082
9137.000000;1.115660
9136.000000;1.115276
9135.000000;1.114792
9134.000000;1.114189
9133.000000;1.113504
9132.000000;1.112923
9131.000000;1.112895
9130.000000;1.113809
9129.000000;1.115395
9128.000000;1.116677
9127.000000;1.116754
9126.000000;1.115595
9125.000000;1.114066
9124.000000;1.113228
9123.000000;1.113524
9122.000000;1.114363
9121.000000;1.114492
9120.000000;1.113104
9119.000000;1.110776
9118.000000;1.109101
9117.000000;1.109190
9116.000000;1.110657
9115.000000;1.112142
9114.000000;1.112583
9113.000000;1.111844
9112.000000;1.110412
9111.000000;1.108906
9110.000000;1.107851
9109.000000;1.107505
9108.000000;1.107690
9107.000000;1.107907
9106.000000;1.107769
9105.000000;1.107248
9104.000000;1.106495
9103.000000;1.105622
9102.000000;1.104802
9101.000000;1.104456
9100.000000;1.105025
9099.000000;1.106406
9098.000000;1.107747
9097.000000;1.108085
9096.000000;1.107280
9095.000000;1.106137
9094.000000;1.105452
9093.000000;1.105127
9092.000000;1.104484
9091.000000;1.103328
9090.000000;1.102260
9089.000000;1.101850
9088.000000;1.101949
9087.000000;1.102110
9086.000000;1.102334
9085.000000;1.102921
9084.000000;1.103672
9083.000000;1.103786
9082.000000;1.102728
9081.000000;1.100920
9080.000000;1.099345
9079.000000;1.098622
9078.000000;1.098563
9077.000000;1.098486
9076.000000;1.097875
9075.000000;1.096897
9074.000000;1.096318
9073.000000;1.096759
9072.000000;1.097986
9071.000000;1.099076
9070.000000;1.099384
9069.000000;1.099178
9068.000000;1.099113
9067.000000;1.099287
9066.000000;1.099135
9065.000000;1.098206
9064.000000;1.096734
9063.000000;1.095319
9062.000000;1.094310
9061.000000;1.093685
9060.000000;1.093340
9059.000000;1.093220
9058.000000;1.093217
9057.000000;1.093215
9056.000000;1.093301
9055.000000;1.093670
9054.000000;1.094216
9053.000000;1.094463
