Criado como novo conjunto de dados;"1909daniel.spp","-4275704.0 Secs"
cm-1;Abs
10000.000000;1.432278
9999.000000;1.432426
9998.000000;1.432574
9997.000000;1.432724
9996.000000;1.432871
9995.000000;1.433022
9994.000000;1.433166
9993.000000;1.433323
9992.000000;1.433445
9991.000000;1.434573
9990.000000;1.436332
9989.000000;1.437215
9988.000000;1.436021
9987.000000;1.432882
9986.000000;1.429078
9985.000000;1.425956
9984.000000;1.424051
9983.000000;1.423094
9982.000000;1.422734
9981.000000;1.423069
9980.000000;1.424272
9979.000000;1.425790
9978.000000;1.426467
9977.000000;1.425672
9976.000000;1.424018
9975.000000;1.422601
9974.000000;1.421786
9973.000000;1.421112
9972.000000;1.420234
9971.000000;1.419405
9970.000000;1.418869
9969.000000;1.418297
9968.000000;1.417253
9967.000000;1.415955
9966.000000;1.415110
9965.000000;1.415056
9964.000000;1.415422
9963.000000;1.415632
9962.000000;1.415431
9961.000000;1.414819
9960.000000;1.413779
9959.000000;1.412327
9958.000000;1.410658
9957.000000;1.409050
9956.000000;1.407703
9955.000000;1.406751
9954.000000;1.406327
9953.000000;1.406407
9952.000000;1.406577
9951.000000;1.406210
9950.000000;1.405026
9949.000000;1.403383
9948.000000;1.401972
9947.000000;1.401197
9946.000000;1.400862
9945.000000;1.400394
9944.000000;1.399373
9943.000000;1.397944
9942.000000;1.396718
9941.000000;1.396180
9940.000000;1.396172
9939.000000;1.396027
9938.000000;1.395295
9937.000000;1.394234
9936.000000;1.393440
9935.000000;1.393122
9934.000000;1.392954
9933.000000;1.392627
9932.000000;1.392204
9931.000000;1.391854
9930.000000;1.391498
9929.000000;1.390894
9928.000000;1.389933
9927.000000;1.388681
9926.000000;1.387308
9925.000000;1.386135
9924.000000;1.385515
9923.000000;1.385373
9922.000000;1.385065
9921.000000;1.384036
9920.000000;1.382525
9919.000000;1.381209
9918.000000;1.380315
9917.000000;1.379597
9916.000000;1.379140
9915.000000;1.379441
9914.000000;1.380429
9913.000000;1.381032
9912.000000;1.380250
9911.000000;1.378305
9910.000000;1.376232
9909.000000;1.374623
9908.000000;1.373351
9907.000000;1.372258
9906.000000;1.371445
9905.000000;1.370863
9904.000000;1.370243
9903.000000;1.369566
9902.000000;1.369154
9901.000000;1.369151
9900.000000;1.369292
9899.000000;1.369328
9898.000000;1.369317
9897.000000;1.369319
9896.000000;1.369142
9895.000000;1.368562
9894.000000;1.367540
9893.000000;1.366102
9892.000000;1.364256
9891.000000;1.362185
9890.000000;1.360273
9889.000000;1.358773
9888.000000;1.357652
9887.000000;1.356866
9886.000000;1.356496
9885.000000;1.356498
9884.000000;1.356562
9883.000000;1.356417
9882.000000;1.356071
9881.000000;1.355607
9880.000000;1.354915
9879.000000;1.353899
9878.000000;1.352819
9877.000000;1.352130
9876.000000;1.352012
9875.000000;1.352132
9874.000000;1.351845
9873.000000;1.350713
9872.000000;1.349067
9871.000000;1.347939
9870.000000;1.348062
9869.000000;1.348885
9868.000000;1.349031
9867.000000;1.347918
9866.000000;1.346440
9865.000000;1.345730
9864.000000;1.345747
9863.000000;1.345576
9862.000000;1.344854
9861.000000;1.344181
9860.000000;1.344054
9859.000000;1.344122
9858.000000;1.343740
9857.000000;1.342767
9856.000000;1.341564
9855.000000;1.340413
9854.000000;1.339150
9853.000000;1.337347
9852.000000;1.334881
9851.000000;1.332368
9850.000000;1.330852
9849.000000;1.330887
9848.000000;1.331936
9847.000000;1.332850
9846.000000;1.332921
9845.000000;1.332276
9844.000000;1.331352
9843.000000;1.330338
9842.000000;1.329162
9841.000000;1.327726
9840.000000;1.326073
9839.000000;1.324544
9838.000000;1.323733
9837.000000;1.323947
9836.000000;1.324681
9835.000000;1.324929
9834.000000;1.324164
9833.000000;1.322811
9832.000000;1.321624
9831.000000;1.320845
9830.000000;1.320161
9829.000000;1.319253
9828.000000;1.318143
9827.000000;1.317066
9826.000000;1.316240
9825.000000;1.315750
9824.000000;1.315557
9823.000000;1.315527
9822.000000;1.315427
9821.000000;1.314897
9820.000000;1.313650
9819.000000;1.311911
9818.000000;1.310499
9817.000000;1.310152
9816.000000;1.310716
9815.000000;1.311272
9814.000000;1.311180
9813.000000;1.310674
9812.000000;1.310230
9811.000000;1.309660
9810.000000;1.308276
9809.000000;1.305918
9808.000000;1.303455
9807.000000;1.302042
9806.000000;1.302039
9805.000000;1.302735
9804.000000;1.303100
9803.000000;1.302668
9802.000000;1.301625
9801.000000;1.300233
9800.000000;1.298496
9799.000000;1.296450
9798.000000;1.294469
9797.000000;1.292981
9796.000000;1.292032
9795.000000;1.291426
9794.000000;1.291231
9793.000000;1.291780
9792.000000;1.293101
9791.000000;1.294598
9790.000000;1.295421
9789.000000;1.295033
9788.000000;1.293472
9787.000000;1.291359
9786.000000;1.289581
9785.000000;1.288631
9784.000000;1.288146
9783.000000;1.287402
9782.000000;1.286303
9781.000000;1.285437
9780.000000;1.285032
9779.000000;1.284456
9778.000000;1.283162
9777.000000;1.281680
9776.000000;1.281029
9775.000000;1.281345
9774.000000;1.281683
9773.000000;1.281204
9772.000000;1.280086
9771.000000;1.279070
9770.000000;1.278514
9769.000000;1.278154
9768.000000;1.277583
9767.000000;1.276715
9766.000000;1.275809
9765.000000;1.275137
9764.000000;1.274629
9763.000000;1.273845
9762.000000;1.272392
9761.000000;1.270377
9760.000000;1.268427
9759.000000;1.267241
9758.000000;1.267065
9757.000000;1.267441
9756.000000;1.267478
9755.000000;1.266610
9754.000000;1.265225
9753.000000;1.264321
9752.000000;1.264349
9751.000000;1.264603
9750.000000;1.263978
9749.000000;1.262220
9748.000000;1.260119
9747.000000;1.258591
9746.000000;1.257921
9745.000000;1.257859
9744.000000;1.258011
9743.000000;1.258009
9742.000000;1.257609
9741.000000;1.256840
9740.000000;1.255951
9739.000000;1.255148
9738.000000;1.254506
9737.000000;1.254133
9736.000000;1.254200
9735.000000;1.254630
9734.000000;1.254906
9733.000000;1.254412
9732.000000;1.253044
9731.000000;1.251425
9730.000000;1.250424
9729.000000;1.250354
9728.000000;1.250628
9727.000000;1.250354
9726.000000;1.249372
9725.000000;1.248434
9724.000000;1.248221
9723.000000;1.248503
9722.000000;1.248586
9721.000000;1.248274
9720.000000;1.247842
9719.000000;1.247197
9718.000000;1.245828
9717.000000;1.243751
9716.000000;1.241832
9715.000000;1.240768
9714.000000;1.240202
9713.000000;1.239298
9712.000000;1.237830
9711.000000;1.236217
9710.000000;1.234710
9709.000000;1.233179
9708.000000;1.231714
9707.000000;1.230892
9706.000000;1.231157
9705.000000;1.232223
9704.000000;1.233236
9703.000000;1.233423
9702.000000;1.232534
9701.000000;1.230891
9700.000000;1.229202
9699.000000;1.228177
9698.000000;1.228086
9697.000000;1.228573
9696.000000;1.228927
9695.000000;1.228533
9694.000000;1.227160
9693.000000;1.225029
9692.000000;1.222720
9691.000000;1.220881
9690.000000;1.219835
9689.000000;1.219431
9688.000000;1.219347
9687.000000;1.219468
9686.000000;1.219827
9685.000000;1.220265
9684.000000;1.220417
9683.000000;1.220139
9682.000000;1.219728
9681.000000;1.219483
9680.000000;1.219201
9679.000000;1.218444
9678.000000;1.217259
9677.000000;1.216231
9676.000000;1.215644
9675.000000;1.214987
9674.000000;1.213607
9673.000000;1.211650
9672.000000;1.209916
9671.000000;1.208871
9670.000000;1.208221
9669.000000;1.207498
9668.000000;1.206677
9667.000000;1.206013
9666.000000;1.205546
9665.000000;1.205066
9664.000000;1.204413
9663.000000;1.203567
9662.000000;1.202515
9661.000000;1.201261
9660.000000;1.199972
9659.000000;1.198933
9658.000000;1.198284
9657.000000;1.197889
9656.000000;1.197523
9655.000000;1.197126
9654.000000;1.196810
9653.000000;1.196604
9652.000000;1.196228
9651.000000;1.195290
9650.000000;1.193787
9649.000000;1.192253
9648.000000;1.191292
9647.000000;1.191056
9646.000000;1.191293
9645.000000;1.191765
9644.000000;1.192343
9643.000000;1.192755
9642.000000;1.192595
9641.000000;1.191750
9640.000000;1.190624
9639.000000;1.189813
9638.000000;1.189638
9637.000000;1.189994
9636.000000;1.190467
9635.000000;1.190507
9634.000000;1.189719
9633.000000;1.188192
9632.000000;1.186472
9631.000000;1.185104
9630.000000;1.184272
9629.000000;1.183906
9628.000000;1.183863
9627.000000;1.183885
9626.000000;1.183618
9625.000000;1.182897
9624.000000;1.181900
9623.000000;1.180876
9622.000000;1.179836
9621.000000;1.178672
9620.000000;1.177464
9619.000000;1.176463
9618.000000;1.175799
9617.000000;1.175334
9616.000000;1.174776
9615.000000;1.173897
9614.000000;1.172749
9613.000000;1.171731
9612.000000;1.171278
9611.000000;1.171354
9610.000000;1.171385
9609.000000;1.170826
9608.000000;1.169707
9607.000000;1.168524
9606.000000;1.167716
9605.000000;1.167367
9604.000000;1.167264
9603.000000;1.167092
9602.000000;1.166689
9601.000000;1.166202
9600.000000;1.165845
9599.000000;1.165444
9598.000000;1.164542
9597.000000;1.163134
9596.000000;1.161978
9595.000000;1.161786
9594.000000;1.162301
9593.000000;1.162558
9592.000000;1.162000
9591.000000;1.160945
9590.000000;1.159984
9589.000000;1.159333
9588.000000;1.158819
9587.000000;1.158185
9586.000000;1.157308
9585.000000;1.156331
9584.000000;1.155610
9583.000000;1.155332
9582.000000;1.155207
9581.000000;1.154834
9580.000000;1.154290
9579.000000;1.153903
9578.000000;1.153464
9577.000000;1.152210
9576.000000;1.149861
9575.000000;1.147259
9574.000000;1.145571
9573.000000;1.145075
9572.000000;1.145058
9571.000000;1.144761
9570.000000;1.144108
9569.000000;1.143512
9568.000000;1.143219
9567.000000;1.142992
9566.000000;1.142398
9565.000000;1.141356
9564.000000;1.140356
9563.000000;1.140033
9562.000000;1.140512
9561.000000;1.141217
9560.000000;1.141395
9559.000000;1.140738
9558.000000;1.139480
9557.000000;1.138097
9556.000000;1.137046
9555.000000;1.136590
9554.000000;1.136601
9553.000000;1.136535
9552.000000;1.135783
9551.000000;1.134182
9550.000000;1.132217
9549.000000;1.130711
9548.000000;1.130281
9547.000000;1.130916
9546.000000;1.131961
9545.000000;1.132531
9544.000000;1.132094
9543.000000;1.130763
9542.000000;1.129121
9541.000000;1.127809
9540.000000;1.127124
9539.000000;1.126821
9538.000000;1.126310
9537.000000;1.125247
9536.000000;1.123986
9535.000000;1.123223
9534.000000;1.123180
9533.000000;1.123336
9532.000000;1.123125
9531.000000;1.122679
9530.000000;1.122544
9529.000000;1.122711
9528.000000;1.122326
9527.000000;1.120578
9526.000000;1.117742
9525.000000;1.115102
9524.000000;1.113814
9523.000000;1.113965
9522.000000;1.114684
9521.000000;1.115002
9520.000000;1.114573
9519.000000;1.113706
9518.000000;1.112916
9517.000000;1.112497
9516.000000;1.112391
9515.000000;1.112294
9514.000000;1.111898
9513.000000;1.111122
9512.000000;1.110119
9511.000000;1.109063
9510.000000;1.107988
9509.000000;1.106885
9508.000000;1.105847
9507.000000;1.105035
9506.000000;1.104549
9505.000000;1.104407
9504.000000;1.104529
9503.000000;1.104643
9502.000000;1.104346
9501.000000;1.103510
9500.000000;1.102582
9499.000000;1.102199
9498.000000;1.102449
9497.000000;1.102708
9496.000000;1.102322
9495.000000;1.101267
9494.000000;1.100031
9493.000000;1.098999
9492.000000;1.098158
9491.000000;1.097340
9490.000000;1.096553
9489.000000;1.096030
9488.000000;1.095997
9487.000000;1.096410
9486.000000;1.096928
9485.000000;1.097210
9484.000000;1.097181
9483.000000;1.096881
9482.000000;1.096125
9481.000000;1.094627
9480.000000;1.092571
9479.000000;1.090775
9478.000000;1.089985
9477.000000;1.090084
9476.000000;1.090243
9475.000000;1.089815
9474.000000;1.088833
9473.000000;1.087645
9472.000000;1.086385
9471.000000;1.085009
9470.000000;1.083643
9469.000000;1.082608
9468.000000;1.082098
9467.000000;1.081981
9466.000000;1.081979
9465.000000;1.081942
9464.000000;1.081900
9463.000000;1.081905
9462.000000;1.081922
9461.000000;1.081902
9460.000000;1.081934
9459.000000;1.082224
9458.000000;1.082801
9457.000000;1.083263
9456.000000;1.082992
9455.000000;1.081747
9454.000000;1.079938
9453.000000;1.078153
9452.000000;1.076532
9451.000000;1.074835
9450.000000;1.073081
9449.000000;1.071759
9448.000000;1.071276
9447.000000;1.071443
9446.000000;1.071692
9445.000000;1.071650
9444.000000;1.071291
9443.000000;1.070700
9442.000000;1.070010
9441.000000;1.069493
9440.000000;1.069322
9439.000000;1.069219
9438.000000;1.068738
9437.000000;1.067978
9436.000000;1.067599
9435.000000;1.067899
9434.000000;1.068265
9433.000000;1.067894
9432.000000;1.066810
9431.000000;1.065729
9430.000000;1.065078
9429.000000;1.064593
9428.000000;1.063882
9427.000000;1.062997
9426.000000;1.062265
9425.000000;1.061789
9424.000000;1.061322
9423.000000;1.060564
9422.000000;1.059507
9421.000000;1.058488
9420.000000;1.057910
9419.000000;1.057871
9418.000000;1.058101
9417.000000;1.058320
9416.000000;1.058498
9415.000000;1.058633
9414.000000;1.058405
9413.000000;1.057350
9412.000000;1.055456
9411.000000;1.053404
9410.000000;1.052085
9409.000000;1.051909
9408.000000;1.052544
9407.000000;1.053223
9406.000000;1.053338
9405.000000;1.052866
9404.000000;1.052260
9403.000000;1.051924
9402.000000;1.051835
9401.000000;1.051688
9400.000000;1.051233
9399.000000;1.050410
9398.000000;1.049311
9397.000000;1.048138
9396.000000;1.047091
9395.000000;1.046153
9394.000000;1.045147
9393.000000;1.044106
9392.000000;1.043368
9391.000000;1.043080
9390.000000;1.042839
9389.000000;1.042178
9388.000000;1.041261
9387.000000;1.040711
9386.000000;1.040784
9385.000000;1.041073
9384.000000;1.041027
9383.000000;1.040463
9382.000000;1.039566
9381.000000;1.038716
9380.000000;1.038316
9379.000000;1.038395
9378.000000;1.038322
9377.000000;1.037336
9376.000000;1.035533
9375.000000;1.033996
9374.000000;1.033686
9373.000000;1.034431
9372.000000;1.035184
9371.000000;1.035087
9370.000000;1.034122
9369.000000;1.032878
9368.000000;1.031918
9367.000000;1.031370
9366.000000;1.031034
9365.000000;1.030787
9364.000000;1.030768
9363.000000;1.031008
9362.000000;1.031048
9361.000000;1.030313
9360.000000;1.028864
9359.000000;1.027418
9358.000000;1.026579
9357.000000;1.026405
9356.000000;1.026738
9355.000000;1.027441
9354.000000;1.028116
9353.000000;1.028059
9352.000000;1.026936
9351.000000;1.025256
9350.000000;1.023816
9349.000000;1.022896
9348.000000;1.022313
9347.000000;1.021986
9346.000000;1.022003
9345.000000;1.022215
9344.000000;1.022194
9343.000000;1.021671
9342.000000;1.020802
9341.000000;1.019966
9340.000000;1.019408
9339.000000;1.019059
9338.000000;1.018635
9337.000000;1.018005
9336.000000;1.017500
9335.000000;1.017596
9334.000000;1.018157
9333.000000;1.018291
9332.000000;1.017284
9331.000000;1.015468
9330.000000;1.013854
9329.000000;1.013057
9328.000000;1.012910
9327.000000;1.012934
9326.000000;1.012747
9325.000000;1.012091
9324.000000;1.010950
9323.000000;1.009735
9322.000000;1.009075
9321.000000;1.009277
9320.000000;1.010097
9319.000000;1.010948
9318.000000;1.011207
9317.000000;1.010510
9316.000000;1.009086
9315.000000;1.007716
9314.000000;1.007007
9313.000000;1.006738
9312.000000;1.006278
9311.000000;1.005553
9310.000000;1.005103
9309.000000;1.005148
9308.000000;1.005145
9307.000000;1.004520
9306.000000;1.003392
9305.000000;1.002237
9304.000000;1.001179
9303.000000;1.000054
9302.000000;0.998965
9301.000000;0.998324
9300.000000;0.998332
9299.000000;0.998741
9298.000000;0.999161
9297.000000;0.999367
9296.000000;0.999278
9295.000000;0.998862
9294.000000;0.998194
9293.000000;0.997495
9292.000000;0.996994
9291.000000;0.996752
9290.000000;0.996661
9289.000000;0.996540
9288.000000;0.996242
9287.000000;0.995762
9286.000000;0.995274
9285.000000;0.994996
9284.000000;0.994933
9283.000000;0.994730
9282.000000;0.993881
9281.000000;0.992213
9280.000000;0.990223
9279.000000;0.988852
9278.000000;0.988816
9277.000000;0.990053
9276.000000;0.991786
9275.000000;0.993112
9274.000000;0.993568
9273.000000;0.993264
9272.000000;0.992585
9271.000000;0.991760
9270.000000;0.990709
9269.000000;0.989321
9268.000000;0.987798
9267.000000;0.986563
9266.000000;0.985817
9265.000000;0.985360
9264.000000;0.984970
9263.000000;0.984736
9262.000000;0.984826
9261.000000;0.985058
9260.000000;0.985016
9259.000000;0.984556
9258.000000;0.983944
9257.000000;0.983450
9256.000000;0.983059
9255.000000;0.982629
9254.000000;0.982129
9253.000000;0.981611
9252.000000;0.981127
9251.000000;0.980779
9250.000000;0.980708
9249.000000;0.980901
9248.000000;0.981104
9247.000000;0.981025
9246.000000;0.980546
9245.000000;0.979721
9244.000000;0.978726
9243.000000;0.977879
9242.000000;0.977490
9241.000000;0.977518
9240.000000;0.977512
9239.000000;0.977044
9238.000000;0.976184
9237.000000;0.975394
9236.000000;0.975002
9235.000000;0.974919
9234.000000;0.974822
9233.000000;0.974427
9232.000000;0.973604
9231.000000;0.972412
9230.000000;0.971152
9229.000000;0.970274
9228.000000;0.970043
9227.000000;0.970290
9226.000000;0.970577
9225.000000;0.970648
9224.000000;0.970660
9223.000000;0.970906
9222.000000;0.971350
9221.000000;0.971555
9220.000000;0.971126
9219.000000;0.970144
9218.000000;0.969067
9217.000000;0.968267
9216.000000;0.967787
9215.000000;0.967494
9214.000000;0.967237
9213.000000;0.966809
9212.000000;0.965988
9211.000000;0.964871
9210.000000;0.964056
9209.000000;0.964171
9208.000000;0.965104
9207.000000;0.965926
9206.000000;0.965784
9205.000000;0.964776
9204.000000;0.963717
9203.000000;0.963142
9202.000000;0.962847
9201.000000;0.962462
9200.000000;0.962073
9199.000000;0.962016
9198.000000;0.962256
9197.000000;0.962344
9196.000000;0.961975
9195.000000;0.961267
9194.000000;0.960486
9193.000000;0.959770
9192.000000;0.959206
9191.000000;0.958892
9190.000000;0.958766
9189.000000;0.958620
9188.000000;0.958427
9187.000000;0.958412
9186.000000;0.958586
9185.000000;0.958484
9184.000000;0.957728
9183.000000;0.956698
9182.000000;0.956232
9181.000000;0.956664
9180.000000;0.957452
9179.000000;0.957779
9178.000000;0.957269
9177.000000;0.956072
9176.000000;0.954595
9175.000000;0.953301
9174.000000;0.952503
9173.000000;0.952122
9172.000000;0.951769
9171.000000;0.951265
9170.000000;0.950930
9169.000000;0.951160
9168.000000;0.951835
9167.000000;0.952344
9166.000000;0.952221
9165.000000;0.951551
9164.000000;0.950713
9163.000000;0.949874
9162.000000;0.948905
9161.000000;0.947763
9160.000000;0.946743
9159.000000;0.946253
9158.000000;0.946381
9157.000000;0.946836
9156.000000;0.947302
9155.000000;0.947689
9154.000000;0.947969
9153.000000;0.947991
9152.000000;0.947597
9151.000000;0.946861
9150.000000;0.946019
9149.000000;0.945236
9148.000000;0.944575
9147.000000;0.944105
9146.000000;0.943860
9145.000000;0.943718
9144.000000;0.943499
9143.000000;0.943188
9142.000000;0.942902
9141.000000;0.942630
9140.000000;0.942215
9139.000000;0.941658
9138.000000;0.941252
9137.000000;0.941309
9136.000000;0.941829
9135.000000;0.942466
9134.000000;0.942725
9133.000000;0.942218
9132.000000;0.940932
9131.000000;0.939336
9130.000000;0.938086
9129.000000;0.937508
9128.000000;0.937408
9127.000000;0.937396
9126.000000;0.937274
9125.000000;0.937130
9124.000000;0.937200
9123.000000;0.937671
9122.000000;0.938450
9121.000000;0.939080
9120.000000;0.939074
9119.000000;0.938393
9118.000000;0.937446
9117.000000;0.936560
9116.000000;0.935679
9115.000000;0.934724
9114.000000;0.933968
9113.000000;0.933811
9112.000000;0.934263
9111.000000;0.934871
9110.000000;0.935138
9109.000000;0.934893
9108.000000;0.934316
9107.000000;0.933749
9106.000000;0.933475
9105.000000;0.933500
9104.000000;0.933547
9103.000000;0.933316
9102.000000;0.932762
9101.000000;0.932093
9100.000000;0.931561
9099.000000;0.931313
9098.000000;0.931337
9097.000000;0.931464
9096.000000;0.931472
9095.000000;0.931276
9094.000000;0.930957
9093.000000;0.930554
9092.000000;0.929932
9091.000000;0.928988
9090.000000;0.927893
9089.000000;0.926977
9088.000000;0.926396
9087.000000;0.926064
9086.000000;0.925870
9085.000000;0.925799
9084.000000;0.925804
9083.000000;0.925714
9082.000000;0.925403
9081.000000;0.925003
9080.000000;0.924793
9079.000000;0.924828
9078.000000;0.924753
9077.000000;0.924169
9076.000000;0.923218
9075.000000;0.922611
9074.000000;0.922887
9073.000000;0.923790
9072.000000;0.924599
9071.000000;0.924963
9070.000000;0.925079
9069.000000;0.925094
9068.000000;0.924820
9067.000000;0.924197
9066.000000;0.923564
9065.000000;0.923155
9064.000000;0.922659
9063.000000;0.921704
9062.000000;0.920573
9061.000000;0.919977
9060.000000;0.920172
9059.000000;0.920709
9058.000000;0.921055
9057.000000;0.921071
9056.000000;0.920807
9055.000000;0.920228
9054.000000;0.919367
9053.000000;0.918520
