Criado como novo conjunto de dados;"1909daniel.spp","-4272824.4 Secs"
cm-1;Abs
10000.000000;1.355738
9999.000000;1.354434
9998.000000;1.353204
9997.000000;1.352155
9996.000000;1.351204
9995.000000;1.350286
9994.000000;1.349430
9993.000000;1.348810
9992.000000;1.348831
9991.000000;1.349726
9990.000000;1.350985
9989.000000;1.351549
9988.000000;1.350894
9987.000000;1.349603
9986.000000;1.348541
9985.000000;1.347791
9984.000000;1.346773
9983.000000;1.345229
9982.000000;1.343667
9981.000000;1.342812
9980.000000;1.342822
9979.000000;1.343044
9978.000000;1.342516
9977.000000;1.340905
9976.000000;1.338932
9975.000000;1.337645
9974.000000;1.337272
9973.000000;1.337139
9972.000000;1.336748
9971.000000;1.336416
9970.000000;1.336552
9969.000000;1.336833
9968.000000;1.336617
9967.000000;1.335776
9966.000000;1.334588
9965.000000;1.333160
9964.000000;1.331644
9963.000000;1.330717
9962.000000;1.330907
9961.000000;1.331466
9960.000000;1.330837
9959.000000;1.328573
9958.000000;1.326070
9957.000000;1.324944
9956.000000;1.325312
9955.000000;1.326058
9954.000000;1.326249
9953.000000;1.325726
9952.000000;1.324645
9951.000000;1.323130
9950.000000;1.321438
9949.000000;1.320013
9948.000000;1.319181
9947.000000;1.318930
9946.000000;1.318951
9945.000000;1.318782
9944.000000;1.318047
9943.000000;1.316758
9942.000000;1.315374
9941.000000;1.314423
9940.000000;1.314100
9939.000000;1.314274
9938.000000;1.314759
9937.000000;1.315389
9936.000000;1.315907
9935.000000;1.315982
9934.000000;1.315449
9933.000000;1.314442
9932.000000;1.313278
9931.000000;1.312200
9930.000000;1.311197
9929.000000;1.310027
9928.000000;1.308460
9927.000000;1.306598
9926.000000;1.304975
9925.000000;1.304242
9924.000000;1.304620
9923.000000;1.305568
9922.000000;1.306054
9921.000000;1.305324
9920.000000;1.303535
9919.000000;1.301583
9918.000000;1.300279
9917.000000;1.299770
9916.000000;1.299720
9915.000000;1.299769
9914.000000;1.299650
9913.000000;1.299101
9912.000000;1.297973
9911.000000;1.296384
9910.000000;1.294553
9909.000000;1.292584
9908.000000;1.290655
9907.000000;1.289308
9906.000000;1.289123
9905.000000;1.289993
9904.000000;1.290972
9903.000000;1.291036
9902.000000;1.289972
9901.000000;1.288514
9900.000000;1.287672
9899.000000;1.287926
9898.000000;1.288865
9897.000000;1.289502
9896.000000;1.289106
9895.000000;1.287803
9894.000000;1.286315
9893.000000;1.285199
9892.000000;1.284544
9891.000000;1.284242
9890.000000;1.284203
9889.000000;1.284228
9888.000000;1.283968
9887.000000;1.283201
9886.000000;1.282020
9885.000000;1.280663
9884.000000;1.279244
9883.000000;1.277755
9882.000000;1.276257
9881.000000;1.274966
9880.000000;1.274099
9879.000000;1.273598
9878.000000;1.273030
9877.000000;1.272031
9876.000000;1.270933
9875.000000;1.270614
9874.000000;1.271379
9873.000000;1.272277
9872.000000;1.271995
9871.000000;1.270356
9870.000000;1.268454
9869.000000;1.267292
9868.000000;1.266862
9867.000000;1.266638
9866.000000;1.266366
9865.000000;1.266041
9864.000000;1.265589
9863.000000;1.265052
9862.000000;1.264786
9861.000000;1.264985
9860.000000;1.265088
9859.000000;1.264141
9858.000000;1.261846
9857.000000;1.258983
9856.000000;1.256730
9855.000000;1.255707
9854.000000;1.255698
9853.000000;1.256074
9852.000000;1.256338
9851.000000;1.256328
9850.000000;1.256087
9849.000000;1.255682
9848.000000;1.255173
9847.000000;1.254598
9846.000000;1.253876
9845.000000;1.252835
9844.000000;1.251479
9843.000000;1.250104
9842.000000;1.248950
9841.000000;1.247890
9840.000000;1.246748
9839.000000;1.245760
9838.000000;1.245332
9837.000000;1.245401
9836.000000;1.245456
9835.000000;1.245265
9834.000000;1.245088
9833.000000;1.244981
9832.000000;1.244436
9831.000000;1.243107
9830.000000;1.241547
9829.000000;1.240670
9828.000000;1.240603
9827.000000;1.240496
9826.000000;1.239527
9825.000000;1.237811
9824.000000;1.236202
9823.000000;1.235396
9822.000000;1.235348
9821.000000;1.235504
9820.000000;1.235482
9819.000000;1.235395
9818.000000;1.235473
9817.000000;1.235492
9816.000000;1.234881
9815.000000;1.233422
9814.000000;1.231567
9813.000000;1.229906
9812.000000;1.228587
9811.000000;1.227427
9810.000000;1.226415
9809.000000;1.225818
9808.000000;1.225810
9807.000000;1.226177
9806.000000;1.226419
9805.000000;1.226180
9804.000000;1.225635
9803.000000;1.225383
9802.000000;1.225730
9801.000000;1.226125
9800.000000;1.225610
9799.000000;1.223938
9798.000000;1.221878
9797.000000;1.220249
9796.000000;1.219057
9795.000000;1.217877
9794.000000;1.216669
9793.000000;1.215717
9792.000000;1.214982
9791.000000;1.214156
9790.000000;1.213377
9789.000000;1.213272
9788.000000;1.214025
9787.000000;1.214846
9786.000000;1.214746
9785.000000;1.213639
9784.000000;1.212320
9783.000000;1.211467
9782.000000;1.211013
9781.000000;1.210522
9780.000000;1.209782
9779.000000;1.208819
9778.000000;1.207576
9777.000000;1.205937
9776.000000;1.204085
9775.000000;1.202544
9774.000000;1.201710
9773.000000;1.201455
9772.000000;1.201315
9771.000000;1.200966
9770.000000;1.200463
9769.000000;1.200098
9768.000000;1.200088
9767.000000;1.200298
9766.000000;1.200194
9765.000000;1.199275
9764.000000;1.197734
9763.000000;1.196519
9762.000000;1.196424
9761.000000;1.197218
9760.000000;1.197928
9759.000000;1.197910
9758.000000;1.197292
9757.000000;1.196386
9756.000000;1.195179
9755.000000;1.193671
9754.000000;1.192273
9753.000000;1.191442
9752.000000;1.191016
9751.000000;1.190246
9750.000000;1.188570
9749.000000;1.186250
9748.000000;1.184253
9747.000000;1.183471
9746.000000;1.183873
9745.000000;1.184400
9744.000000;1.183937
9743.000000;1.182450
9742.000000;1.180923
9741.000000;1.180137
9740.000000;1.179912
9739.000000;1.179721
9738.000000;1.179570
9737.000000;1.179773
9736.000000;1.180141
9735.000000;1.179967
9734.000000;1.178898
9733.000000;1.177375
9732.000000;1.176078
9731.000000;1.175238
9730.000000;1.174683
9729.000000;1.174280
9728.000000;1.174054
9727.000000;1.173965
9726.000000;1.173794
9725.000000;1.173350
9724.000000;1.172683
9723.000000;1.171984
9722.000000;1.171304
9721.000000;1.170516
9720.000000;1.169608
9719.000000;1.168881
9718.000000;1.168615
9717.000000;1.168599
9716.000000;1.168259
9715.000000;1.167305
9714.000000;1.165970
9713.000000;1.164540
9712.000000;1.163006
9711.000000;1.161398
9710.000000;1.160102
9709.000000;1.159439
9708.000000;1.159170
9707.000000;1.158849
9706.000000;1.158567
9705.000000;1.158826
9704.000000;1.159584
9703.000000;1.159909
9702.000000;1.158920
9701.000000;1.156865
9700.000000;1.154922
9699.000000;1.154018
9698.000000;1.154033
9697.000000;1.154158
9696.000000;1.153831
9695.000000;1.153199
9694.000000;1.152672
9693.000000;1.152257
9692.000000;1.151590
9691.000000;1.150581
9690.000000;1.149677
9689.000000;1.149270
9688.000000;1.149148
9687.000000;1.148807
9686.000000;1.148117
9685.000000;1.147291
9684.000000;1.146372
9683.000000;1.145243
9682.000000;1.144098
9681.000000;1.143390
9680.000000;1.143144
9679.000000;1.142802
9678.000000;1.141992
9677.000000;1.141074
9676.000000;1.140584
9675.000000;1.140477
9674.000000;1.140286
9673.000000;1.139778
9672.000000;1.139040
9671.000000;1.138121
9670.000000;1.137066
9669.000000;1.136212
9668.000000;1.135950
9667.000000;1.136103
9666.000000;1.135955
9665.000000;1.135057
9664.000000;1.133671
9663.000000;1.132290
9662.000000;1.131100
9661.000000;1.130082
9660.000000;1.129287
9659.000000;1.128656
9658.000000;1.127812
9657.000000;1.126487
9656.000000;1.125025
9655.000000;1.124102
9654.000000;1.123904
9653.000000;1.123887
9652.000000;1.123409
9651.000000;1.122415
9650.000000;1.121426
9649.000000;1.120958
9648.000000;1.121011
9647.000000;1.121060
9646.000000;1.120560
9645.000000;1.119521
9644.000000;1.118494
9643.000000;1.117897
9642.000000;1.117535
9641.000000;1.117042
9640.000000;1.116601
9639.000000;1.116756
9638.000000;1.117464
9637.000000;1.117873
9636.000000;1.117337
9635.000000;1.116287
9634.000000;1.115651
9633.000000;1.115623
9632.000000;1.115458
9631.000000;1.114469
9630.000000;1.112830
9629.000000;1.111252
9628.000000;1.110222
9627.000000;1.109742
9626.000000;1.109589
9625.000000;1.109503
9624.000000;1.109132
9623.000000;1.108097
9622.000000;1.106350
9621.000000;1.104511
9620.000000;1.103582
9619.000000;1.104032
9618.000000;1.105120
9617.000000;1.105402
9616.000000;1.104135
9615.000000;1.102047
9614.000000;1.100461
9613.000000;1.099844
9612.000000;1.099577
9611.000000;1.099078
9610.000000;1.098659
9609.000000;1.099002
9608.000000;1.100054
9607.000000;1.100852
9606.000000;1.100426
9605.000000;1.098653
9604.000000;1.096207
9603.000000;1.093909
9602.000000;1.092263
9601.000000;1.091445
9600.000000;1.091372
9599.000000;1.091638
9598.000000;1.091550
9597.000000;1.090590
9596.000000;1.088990
9595.000000;1.087691
9594.000000;1.087486
9593.000000;1.088208
9592.000000;1.088875
9591.000000;1.088665
9590.000000;1.087625
9589.000000;1.086417
9588.000000;1.085564
9587.000000;1.085076
9586.000000;1.084652
9585.000000;1.084064
9584.000000;1.083305
9583.000000;1.082490
9582.000000;1.081680
9581.000000;1.080828
9580.000000;1.079921
9579.000000;1.079141
9578.000000;1.078760
9577.000000;1.078797
9576.000000;1.078845
9575.000000;1.078410
9574.000000;1.077444
9573.000000;1.076419
9572.000000;1.075786
9571.000000;1.075456
9570.000000;1.074983
9569.000000;1.074236
9568.000000;1.073656
9567.000000;1.073717
9566.000000;1.074252
9565.000000;1.074551
9564.000000;1.074123
9563.000000;1.073175
9562.000000;1.072226
9561.000000;1.071452
9560.000000;1.070616
9559.000000;1.069552
9558.000000;1.068420
9557.000000;1.067448
9556.000000;1.066700
9555.000000;1.066215
9554.000000;1.066196
9553.000000;1.066739
9552.000000;1.067358
9551.000000;1.067113
9550.000000;1.065504
9549.000000;1.063197
9548.000000;1.061545
9547.000000;1.061306
9546.000000;1.061975
9545.000000;1.062456
9544.000000;1.062195
9543.000000;1.061451
9542.000000;1.060627
9541.000000;1.059747
9540.000000;1.058659
9539.000000;1.057421
9538.000000;1.056262
9537.000000;1.055313
9536.000000;1.054560
9535.000000;1.053983
9534.000000;1.053561
9533.000000;1.053156
9532.000000;1.052566
9531.000000;1.051740
9530.000000;1.050844
9529.000000;1.050075
9528.000000;1.049437
9527.000000;1.048786
9526.000000;1.048102
9525.000000;1.047617
9524.000000;1.047512
9523.000000;1.047525
9522.000000;1.047085
9521.000000;1.046022
9520.000000;1.044913
9519.000000;1.044429
9518.000000;1.044476
9517.000000;1.044390
9516.000000;1.043976
9515.000000;1.043824
9514.000000;1.044386
9513.000000;1.045175
9512.000000;1.045251
9511.000000;1.044289
9510.000000;1.042824
9509.000000;1.041525
9508.000000;1.040534
9507.000000;1.039499
9506.000000;1.038106
9505.000000;1.036560
9504.000000;1.035555
9503.000000;1.035651
9502.000000;1.036555
9501.000000;1.037216
9500.000000;1.036847
9499.000000;1.035700
9498.000000;1.034634
9497.000000;1.034092
9496.000000;1.033766
9495.000000;1.033143
9494.000000;1.032071
9493.000000;1.030840
9492.000000;1.029931
9491.000000;1.029639
9490.000000;1.029756
9489.000000;1.029695
9488.000000;1.029171
9487.000000;1.028635
9486.000000;1.028752
9485.000000;1.029510
9484.000000;1.030144
9483.000000;1.029891
9482.000000;1.028591
9481.000000;1.026630
9480.000000;1.024643
9479.000000;1.023268
9478.000000;1.022777
9477.000000;1.022769
9476.000000;1.022461
9475.000000;1.021444
9474.000000;1.020023
9473.000000;1.018819
9472.000000;1.018229
9471.000000;1.018289
9470.000000;1.018765
9469.000000;1.019214
9468.000000;1.019164
9467.000000;1.018394
9466.000000;1.017056
9465.000000;1.015546
9464.000000;1.014345
9463.000000;1.013860
9462.000000;1.014116
9461.000000;1.014581
9460.000000;1.014565
9459.000000;1.013858
9458.000000;1.012817
9457.000000;1.011807
9456.000000;1.010869
9455.000000;1.009981
9454.000000;1.009297
9453.000000;1.008930
9452.000000;1.008692
9451.000000;1.008260
9450.000000;1.007537
9449.000000;1.006731
9448.000000;1.006164
9447.000000;1.006018
9446.000000;1.006120
9445.000000;1.005979
9444.000000;1.005253
9443.000000;1.004240
9442.000000;1.003634
9441.000000;1.003692
9440.000000;1.003915
9439.000000;1.003712
9438.000000;1.003121
9437.000000;1.002636
9436.000000;1.002510
9435.000000;1.002525
9434.000000;1.002364
9433.000000;1.001927
9432.000000;1.001253
9431.000000;1.000330
9430.000000;0.999126
9429.000000;0.997759
9428.000000;0.996546
9427.000000;0.995764
9426.000000;0.995314
9425.000000;0.994764
9424.000000;0.993870
9423.000000;0.992962
9422.000000;0.992560
9421.000000;0.992655
9420.000000;0.992656
9419.000000;0.992119
9418.000000;0.991268
9417.000000;0.990652
9416.000000;0.990520
9415.000000;0.990683
9414.000000;0.990747
9413.000000;0.990332
9412.000000;0.989290
9411.000000;0.987939
9410.000000;0.986910
9409.000000;0.986526
9408.000000;0.986472
9407.000000;0.986259
9406.000000;0.985845
9405.000000;0.985544
9404.000000;0.985487
9403.000000;0.985472
9402.000000;0.985276
9401.000000;0.984789
9400.000000;0.983879
9399.000000;0.982480
9398.000000;0.980884
9397.000000;0.979643
9396.000000;0.979010
9395.000000;0.978675
9394.000000;0.978189
9393.000000;0.977503
9392.000000;0.976931
9391.000000;0.976702
9390.000000;0.976766
9389.000000;0.976995
9388.000000;0.977350
9387.000000;0.977756
9386.000000;0.977936
9385.000000;0.977553
9384.000000;0.976558
9383.000000;0.975321
9382.000000;0.974367
9381.000000;0.974001
9380.000000;0.974134
9379.000000;0.974416
9378.000000;0.974500
9377.000000;0.974242
9376.000000;0.973716
9375.000000;0.973053
9374.000000;0.972250
9373.000000;0.971233
9372.000000;0.970096
9371.000000;0.969165
9370.000000;0.968694
9369.000000;0.968578
9368.000000;0.968494
9367.000000;0.968273
9366.000000;0.967989
9365.000000;0.967719
9364.000000;0.967408
9363.000000;0.966985
9362.000000;0.966444
9361.000000;0.965790
9360.000000;0.965027
9359.000000;0.964242
9358.000000;0.963575
9357.000000;0.963029
9356.000000;0.962433
9355.000000;0.961644
9354.000000;0.960709
9353.000000;0.959778
9352.000000;0.958959
9351.000000;0.958277
9350.000000;0.957691
9349.000000;0.957113
9348.000000;0.956507
9347.000000;0.955982
9346.000000;0.955691
9345.000000;0.955652
9344.000000;0.955764
9343.000000;0.955951
9342.000000;0.956167
9341.000000;0.956268
9340.000000;0.956067
9339.000000;0.955558
9338.000000;0.954956
9337.000000;0.954471
9336.000000;0.954133
9335.000000;0.953819
9334.000000;0.953347
9333.000000;0.952609
9332.000000;0.951767
9331.000000;0.951236
9330.000000;0.951216
9329.000000;0.951328
9328.000000;0.951033
9327.000000;0.950365
9326.000000;0.949835
9325.000000;0.949601
9324.000000;0.949207
9323.000000;0.948383
9322.000000;0.947618
9321.000000;0.947517
9320.000000;0.947881
9319.000000;0.947873
9318.000000;0.947029
9317.000000;0.945740
9316.000000;0.944729
9315.000000;0.944333
9314.000000;0.944315
9313.000000;0.944180
9312.000000;0.943644
9311.000000;0.942879
9310.000000;0.942276
9309.000000;0.941977
9308.000000;0.941810
9307.000000;0.941704
9306.000000;0.941839
9305.000000;0.942191
9304.000000;0.942274
9303.000000;0.941703
9302.000000;0.940778
9301.000000;0.940064
9300.000000;0.939563
9299.000000;0.938793
9298.000000;0.937640
9297.000000;0.936619
9296.000000;0.936132
9295.000000;0.935913
9294.000000;0.935468
9293.000000;0.934789
9292.000000;0.934301
9291.000000;0.934244
9290.000000;0.934367
9289.000000;0.934211
9288.000000;0.933569
9287.000000;0.932654
9286.000000;0.931911
9285.000000;0.931638
9284.000000;0.931754
9283.000000;0.931909
9282.000000;0.931786
9281.000000;0.931296
9280.000000;0.930604
9279.000000;0.930062
9278.000000;0.929989
9277.000000;0.930331
9276.000000;0.930566
9275.000000;0.930179
9274.000000;0.929225
9273.000000;0.928271
9272.000000;0.927757
9271.000000;0.927636
9270.000000;0.927669
9269.000000;0.927779
9268.000000;0.927915
9267.000000;0.927793
9266.000000;0.927085
9265.000000;0.925873
9264.000000;0.924713
9263.000000;0.924125
9262.000000;0.924128
9261.000000;0.924314
9260.000000;0.924300
9259.000000;0.924013
9258.000000;0.923544
9257.000000;0.922883
9256.000000;0.921939
9255.000000;0.920788
9254.000000;0.919731
9253.000000;0.919038
9252.000000;0.918711
9251.000000;0.918602
9250.000000;0.918652
9249.000000;0.918899
9248.000000;0.919287
9247.000000;0.919575
9246.000000;0.919435
9245.000000;0.918668
9244.000000;0.917407
9243.000000;0.916146
9242.000000;0.915384
9241.000000;0.915134
9240.000000;0.914973
9239.000000;0.914693
9238.000000;0.914704
9237.000000;0.915454
9236.000000;0.916595
9235.000000;0.917142
9234.000000;0.916540
9233.000000;0.915197
9232.000000;0.913862
9231.000000;0.912810
9230.000000;0.911914
9229.000000;0.911206
9228.000000;0.910958
9227.000000;0.911199
9226.000000;0.911482
9225.000000;0.911274
9224.000000;0.910465
9223.000000;0.909430
9222.000000;0.908697
9221.000000;0.908574
9220.000000;0.908983
9219.000000;0.909510
9218.000000;0.909616
9217.000000;0.908955
9216.000000;0.907605
9215.000000;0.906052
9214.000000;0.904876
9213.000000;0.904365
9212.000000;0.904415
9211.000000;0.904787
9210.000000;0.905374
9209.000000;0.906120
9208.000000;0.906749
9207.000000;0.906777
9206.000000;0.905910
9205.000000;0.904398
9204.000000;0.902920
9203.000000;0.902057
9202.000000;0.901856
9201.000000;0.901872
9200.000000;0.901666
9199.000000;0.901277
9198.000000;0.901116
9197.000000;0.901386
9196.000000;0.901748
9195.000000;0.901685
9194.000000;0.901077
9193.000000;0.900238
9192.000000;0.899457
9191.000000;0.898757
9190.000000;0.898137
9189.000000;0.897745
9188.000000;0.897663
9187.000000;0.897708
9186.000000;0.897654
9185.000000;0.897537
9184.000000;0.897534
9183.000000;0.897594
9182.000000;0.897421
9181.000000;0.896870
9180.000000;0.896216
9179.000000;0.895910
9178.000000;0.896119
9177.000000;0.896543
9176.000000;0.896664
9175.000000;0.896163
9174.000000;0.895137
9173.000000;0.893953
9172.000000;0.892952
9171.000000;0.892317
9170.000000;0.892118
9169.000000;0.892321
9168.000000;0.892719
9167.000000;0.892968
9166.000000;0.892851
9165.000000;0.892469
9164.000000;0.892053
9163.000000;0.891634
9162.000000;0.891045
9161.000000;0.890293
9160.000000;0.889751
9159.000000;0.889823
9158.000000;0.890443
9157.000000;0.891032
9156.000000;0.890992
9155.000000;0.890199
9154.000000;0.889014
9153.000000;0.887904
9152.000000;0.887105
9151.000000;0.886560
9150.000000;0.886051
9149.000000;0.885380
9148.000000;0.884535
9147.000000;0.883715
9146.000000;0.883161
9145.000000;0.882942
9144.000000;0.882966
9143.000000;0.883188
9142.000000;0.883668
9141.000000;0.884365
9140.000000;0.884991
9139.000000;0.885206
9138.000000;0.884944
9137.000000;0.884453
9136.000000;0.884021
9135.000000;0.883742
9134.000000;0.883530
9133.000000;0.883254
9132.000000;0.882833
9131.000000;0.882251
9130.000000;0.881547
9129.000000;0.880758
9128.000000;0.879896
9127.000000;0.879020
9126.000000;0.878318
9125.000000;0.878055
9124.000000;0.878364
9123.000000;0.879084
9122.000000;0.879798
9121.000000;0.880053
9120.000000;0.879642
9119.000000;0.878748
9118.000000;0.877823
9117.000000;0.877251
9116.000000;0.877117
9115.000000;0.877276
9114.000000;0.877535
9113.000000;0.877725
9112.000000;0.877702
9111.000000;0.877446
9110.000000;0.877103
9109.000000;0.876847
9108.000000;0.876722
9107.000000;0.876703
9106.000000;0.876815
9105.000000;0.876987
9104.000000;0.876861
9103.000000;0.876060
9102.000000;0.874761
9101.000000;0.873714
9100.000000;0.873472
9099.000000;0.873738
9098.000000;0.873759
9097.000000;0.873267
9096.000000;0.872726
9095.000000;0.872599
9094.000000;0.872689
9093.000000;0.872388
9092.000000;0.871438
9091.000000;0.870202
9090.000000;0.869222
9089.000000;0.868712
9088.000000;0.868516
9087.000000;0.868391
9086.000000;0.868204
9085.000000;0.867919
9084.000000;0.867571
9083.000000;0.867320
9082.000000;0.867424
9081.000000;0.868010
9080.000000;0.868809
9079.000000;0.869221
9078.000000;0.868775
9077.000000;0.867571
9076.000000;0.866232
9075.000000;0.865387
9074.000000;0.865225
9073.000000;0.865528
9072.000000;0.866017
9071.000000;0.866562
9070.000000;0.867109
9069.000000;0.867566
9068.000000;0.867824
9067.000000;0.867785
9066.000000;0.867355
9065.000000;0.866505
9064.000000;0.865413
9063.000000;0.864423
9062.000000;0.863773
9061.000000;0.863422
9060.000000;0.863231
9059.000000;0.863208
9058.000000;0.863425
9057.000000;0.863769
9056.000000;0.863954
9055.000000;0.863801
9054.000000;0.863375
9053.000000;0.862846
