Criado como novo conjunto de dados;"1909daniel.spp","-4248343.3 Secs"
cm-1;Abs
10000.000000;1.751675
9999.000000;1.751687
9998.000000;1.751706
9997.000000;1.751712
9996.000000;1.751741
9995.000000;1.751731
9994.000000;1.751803
9993.000000;1.751649
9992.000000;1.750360
9991.000000;1.748501
9990.000000;1.747600
9989.000000;1.748704
9988.000000;1.750848
9987.000000;1.751830
9986.000000;1.750744
9985.000000;1.749206
9984.000000;1.749381
9983.000000;1.751390
9982.000000;1.753398
9981.000000;1.753859
9980.000000;1.752717
9979.000000;1.750550
9978.000000;1.747740
9977.000000;1.744761
9976.000000;1.742340
9975.000000;1.740786
9974.000000;1.739608
9973.000000;1.738135
9972.000000;1.736230
9971.000000;1.734282
9970.000000;1.732869
9969.000000;1.732428
9968.000000;1.732765
9967.000000;1.732935
9966.000000;1.732215
9965.000000;1.731253
9964.000000;1.731497
9963.000000;1.733183
9962.000000;1.734722
9961.000000;1.734687
9960.000000;1.733690
9959.000000;1.733316
9958.000000;1.733712
9957.000000;1.733422
9956.000000;1.731564
9955.000000;1.728885
9954.000000;1.726374
9953.000000;1.723873
9952.000000;1.720770
9951.000000;1.717660
9950.000000;1.716331
9949.000000;1.717805
9948.000000;1.720890
9947.000000;1.723078
9946.000000;1.722910
9945.000000;1.721174
9944.000000;1.719667
9943.000000;1.719326
9942.000000;1.719872
9941.000000;1.720669
9940.000000;1.721124
9939.000000;1.720396
9938.000000;1.717824
9937.000000;1.714179
9936.000000;1.711669
9935.000000;1.711805
9934.000000;1.713411
9933.000000;1.713353
9932.000000;1.709651
9931.000000;1.703587
9930.000000;1.698401
9929.000000;1.696414
9928.000000;1.697648
9927.000000;1.700565
9926.000000;1.703568
9925.000000;1.705750
9924.000000;1.706567
9923.000000;1.705418
9922.000000;1.702115
9921.000000;1.697723
9920.000000;1.694299
9919.000000;1.693467
9918.000000;1.695290
9917.000000;1.698389
9916.000000;1.700901
9915.000000;1.701438
9914.000000;1.699810
9913.000000;1.697208
9912.000000;1.695366
9911.000000;1.695122
9910.000000;1.695711
9909.000000;1.695716
9908.000000;1.694638
9907.000000;1.693004
9906.000000;1.691267
9905.000000;1.689378
9904.000000;1.687364
9903.000000;1.685599
9902.000000;1.684374
9901.000000;1.683681
9900.000000;1.683494
9899.000000;1.683772
9898.000000;1.684132
9897.000000;1.684097
9896.000000;1.683807
9895.000000;1.683913
9894.000000;1.684545
9893.000000;1.684920
9892.000000;1.684337
9891.000000;1.683047
9890.000000;1.681746
9889.000000;1.680764
9888.000000;1.680169
9887.000000;1.680021
9886.000000;1.679914
9885.000000;1.678923
9884.000000;1.676945
9883.000000;1.675651
9882.000000;1.676839
9881.000000;1.679809
9880.000000;1.681539
9879.000000;1.680011
9878.000000;1.676456
9877.000000;1.673552
9876.000000;1.672402
9875.000000;1.672207
9874.000000;1.672156
9873.000000;1.672253
9872.000000;1.672263
9871.000000;1.671166
9870.000000;1.668457
9869.000000;1.665258
9868.000000;1.663252
9867.000000;1.662718
9866.000000;1.662255
9865.000000;1.660535
9864.000000;1.658017
9863.000000;1.656712
9862.000000;1.658264
9861.000000;1.662186
9860.000000;1.665766
9859.000000;1.665977
9858.000000;1.662091
9857.000000;1.656415
9856.000000;1.652147
9855.000000;1.650735
9854.000000;1.651390
9853.000000;1.652621
9852.000000;1.653626
9851.000000;1.654263
9850.000000;1.654492
9849.000000;1.654427
9848.000000;1.654513
9847.000000;1.654895
9846.000000;1.654706
9845.000000;1.652809
9844.000000;1.649389
9843.000000;1.646062
9842.000000;1.644221
9841.000000;1.643897
9840.000000;1.644376
9839.000000;1.645164
9838.000000;1.645901
9837.000000;1.645907
9836.000000;1.644578
9835.000000;1.642070
9834.000000;1.639053
9833.000000;1.636057
9832.000000;1.633641
9831.000000;1.632849
9830.000000;1.634489
9829.000000;1.637718
9828.000000;1.640109
9827.000000;1.639812
9826.000000;1.637337
9825.000000;1.634768
9824.000000;1.633702
9823.000000;1.634330
9822.000000;1.635877
9821.000000;1.637166
9820.000000;1.637029
9819.000000;1.635006
9818.000000;1.631816
9817.000000;1.628651
9816.000000;1.626036
9815.000000;1.623814
9814.000000;1.621985
9813.000000;1.620820
9812.000000;1.620204
9811.000000;1.619642
9810.000000;1.619128
9809.000000;1.619278
9808.000000;1.620229
9807.000000;1.621109
9806.000000;1.621112
9805.000000;1.620525
9804.000000;1.620011
9803.000000;1.619443
9802.000000;1.618323
9801.000000;1.616983
9800.000000;1.616382
9799.000000;1.616724
9798.000000;1.617161
9797.000000;1.616954
9796.000000;1.616229
9795.000000;1.615491
9794.000000;1.615095
9793.000000;1.615369
9792.000000;1.616485
9791.000000;1.617813
9790.000000;1.618009
9789.000000;1.616300
9788.000000;1.613370
9787.000000;1.610668
9786.000000;1.609310
9785.000000;1.609762
9784.000000;1.611657
9783.000000;1.613410
9782.000000;1.612869
9781.000000;1.609317
9780.000000;1.604462
9779.000000;1.600762
9778.000000;1.599181
9777.000000;1.599042
9776.000000;1.599400
9775.000000;1.599775
9774.000000;1.599772
9773.000000;1.598996
9772.000000;1.597693
9771.000000;1.596746
9770.000000;1.596673
9769.000000;1.597103
9768.000000;1.597338
9767.000000;1.596920
9766.000000;1.595600
9765.000000;1.593378
9764.000000;1.590847
9763.000000;1.589030
9762.000000;1.588580
9761.000000;1.589436
9760.000000;1.591270
9759.000000;1.593752
9758.000000;1.596171
9757.000000;1.597367
9756.000000;1.596537
9755.000000;1.593952
9754.000000;1.590637
9753.000000;1.587650
9752.000000;1.585761
9751.000000;1.585298
9750.000000;1.585912
9749.000000;1.586726
9748.000000;1.586999
9747.000000;1.586443
9746.000000;1.584826
9745.000000;1.581801
9744.000000;1.577672
9743.000000;1.573962
9742.000000;1.572503
9741.000000;1.573762
9740.000000;1.576253
9739.000000;1.577670
9738.000000;1.576764
9737.000000;1.574249
9736.000000;1.572021
9735.000000;1.571439
9734.000000;1.572090
9733.000000;1.572330
9732.000000;1.571191
9731.000000;1.569436
9730.000000;1.568559
9729.000000;1.569118
9728.000000;1.570352
9727.000000;1.571125
9726.000000;1.570785
9725.000000;1.569358
9724.000000;1.567442
9723.000000;1.565743
9722.000000;1.564231
9721.000000;1.561972
9720.000000;1.558451
9719.000000;1.554946
9718.000000;1.553816
9717.000000;1.556254
9716.000000;1.561080
9715.000000;1.565712
9714.000000;1.568056
9713.000000;1.567574
9712.000000;1.565150
9711.000000;1.562354
9710.000000;1.560422
9709.000000;1.559364
9708.000000;1.558142
9707.000000;1.555920
9706.000000;1.552959
9705.000000;1.550181
9704.000000;1.548294
9703.000000;1.547517
9702.000000;1.547638
9701.000000;1.547947
9700.000000;1.547483
9699.000000;1.545820
9698.000000;1.543491
9697.000000;1.541392
9696.000000;1.540089
9695.000000;1.539828
9694.000000;1.540717
9693.000000;1.542378
9692.000000;1.543834
9691.000000;1.544421
9690.000000;1.544604
9689.000000;1.545198
9688.000000;1.545924
9687.000000;1.545515
9686.000000;1.543367
9685.000000;1.540437
9684.000000;1.538217
9683.000000;1.537369
9682.000000;1.537618
9681.000000;1.538381
9680.000000;1.539024
9679.000000;1.538859
9678.000000;1.537519
9677.000000;1.535460
9676.000000;1.533829
9675.000000;1.533644
9674.000000;1.534961
9673.000000;1.536768
9672.000000;1.537767
9671.000000;1.537335
9670.000000;1.535730
9669.000000;1.533467
9668.000000;1.530761
9667.000000;1.527734
9666.000000;1.524805
9665.000000;1.522514
9664.000000;1.521084
9663.000000;1.520436
9662.000000;1.520427
9661.000000;1.520794
9660.000000;1.521127
9659.000000;1.521297
9658.000000;1.521670
9657.000000;1.522359
9656.000000;1.522605
9655.000000;1.521640
9654.000000;1.519907
9653.000000;1.518506
9652.000000;1.517596
9651.000000;1.516393
9650.000000;1.514846
9649.000000;1.514050
9648.000000;1.514493
9647.000000;1.515109
9646.000000;1.514868
9645.000000;1.514297
9644.000000;1.514262
9643.000000;1.514091
9642.000000;1.512385
9641.000000;1.509414
9640.000000;1.507162
9639.000000;1.506834
9638.000000;1.507545
9637.000000;1.507833
9636.000000;1.507469
9635.000000;1.507063
9634.000000;1.506550
9633.000000;1.505054
9632.000000;1.502266
9631.000000;1.499306
9630.000000;1.497878
9629.000000;1.498710
9628.000000;1.500932
9627.000000;1.503058
9626.000000;1.504419
9625.000000;1.505295
9624.000000;1.505724
9623.000000;1.504946
9622.000000;1.502534
9621.000000;1.499424
9620.000000;1.497023
9619.000000;1.495781
9618.000000;1.495389
9617.000000;1.495770
9616.000000;1.496803
9615.000000;1.497416
9614.000000;1.496309
9613.000000;1.493827
9612.000000;1.491889
9611.000000;1.491641
9610.000000;1.492206
9609.000000;1.492159
9608.000000;1.491371
9607.000000;1.490703
9606.000000;1.490567
9605.000000;1.490588
9604.000000;1.490271
9603.000000;1.489349
9602.000000;1.487795
9601.000000;1.485992
9600.000000;1.484625
9599.000000;1.483944
9598.000000;1.483394
9597.000000;1.482340
9596.000000;1.480887
9595.000000;1.479576
9594.000000;1.478722
9593.000000;1.478528
9592.000000;1.479295
9591.000000;1.480821
9590.000000;1.481969
9589.000000;1.481601
9588.000000;1.479935
9587.000000;1.478284
9586.000000;1.477483
9585.000000;1.477250
9584.000000;1.477065
9583.000000;1.476925
9582.000000;1.476960
9581.000000;1.476909
9580.000000;1.476350
9579.000000;1.475112
9578.000000;1.473163
9577.000000;1.470515
9576.000000;1.467656
9575.000000;1.465789
9574.000000;1.466080
9573.000000;1.468383
9572.000000;1.470938
9571.000000;1.471729
9570.000000;1.470276
9569.000000;1.467809
9568.000000;1.465644
9567.000000;1.463841
9566.000000;1.461789
9565.000000;1.459678
9564.000000;1.458617
9563.000000;1.459229
9562.000000;1.460823
9561.000000;1.462250
9560.000000;1.463074
9559.000000;1.463421
9558.000000;1.463175
9557.000000;1.462038
9556.000000;1.460233
9555.000000;1.458470
9554.000000;1.457170
9553.000000;1.456166
9552.000000;1.455181
9551.000000;1.454159
9550.000000;1.453133
9549.000000;1.452224
9548.000000;1.451899
9547.000000;1.452804
9546.000000;1.455030
9545.000000;1.457604
9544.000000;1.458930
9543.000000;1.457909
9542.000000;1.454811
9541.000000;1.451146
9540.000000;1.448598
9539.000000;1.447882
9538.000000;1.448466
9537.000000;1.449260
9536.000000;1.449463
9535.000000;1.448858
9534.000000;1.447707
9533.000000;1.446574
9532.000000;1.445931
9531.000000;1.445624
9530.000000;1.444938
9529.000000;1.443492
9528.000000;1.441816
9527.000000;1.440688
9526.000000;1.440087
9525.000000;1.439257
9524.000000;1.437748
9523.000000;1.435956
9522.000000;1.434566
9521.000000;1.433829
9520.000000;1.433504
9519.000000;1.433268
9518.000000;1.433050
9517.000000;1.433076
9516.000000;1.433572
9515.000000;1.434393
9514.000000;1.435072
9513.000000;1.435327
9512.000000;1.435254
9511.000000;1.434837
9510.000000;1.433658
9509.000000;1.431510
9508.000000;1.428961
9507.000000;1.426888
9506.000000;1.425585
9505.000000;1.424711
9504.000000;1.424075
9503.000000;1.423895
9502.000000;1.424215
9501.000000;1.424646
9500.000000;1.424827
9499.000000;1.424740
9498.000000;1.424471
9497.000000;1.424006
9496.000000;1.423360
9495.000000;1.422585
9494.000000;1.421640
9493.000000;1.420591
9492.000000;1.419840
9491.000000;1.419699
9490.000000;1.419801
9489.000000;1.419438
9488.000000;1.418486
9487.000000;1.417482
9486.000000;1.416714
9485.000000;1.415859
9484.000000;1.414706
9483.000000;1.413607
9482.000000;1.412845
9481.000000;1.412113
9480.000000;1.411103
9479.000000;1.410196
9478.000000;1.410032
9477.000000;1.410620
9476.000000;1.411304
9475.000000;1.411478
9474.000000;1.410938
9473.000000;1.409771
9472.000000;1.408346
9471.000000;1.407310
9470.000000;1.407051
9469.000000;1.407143
9468.000000;1.406752
9467.000000;1.405707
9466.000000;1.404771
9465.000000;1.404657
9464.000000;1.405069
9463.000000;1.405007
9462.000000;1.403891
9461.000000;1.402169
9460.000000;1.400807
9459.000000;1.400387
9458.000000;1.400820
9457.000000;1.401742
9456.000000;1.402875
9455.000000;1.403828
9454.000000;1.403856
9453.000000;1.402303
9452.000000;1.399378
9451.000000;1.396195
9450.000000;1.393841
9449.000000;1.392551
9448.000000;1.391856
9447.000000;1.391343
9446.000000;1.391044
9445.000000;1.391126
9444.000000;1.391441
9443.000000;1.391529
9442.000000;1.391068
9441.000000;1.390259
9440.000000;1.389637
9439.000000;1.389505
9438.000000;1.389689
9437.000000;1.389946
9436.000000;1.390321
9435.000000;1.390819
9434.000000;1.390948
9433.000000;1.390131
9432.000000;1.388548
9431.000000;1.386993
9430.000000;1.385812
9429.000000;1.384533
9428.000000;1.382860
9427.000000;1.381450
9426.000000;1.381115
9425.000000;1.381540
9424.000000;1.381425
9423.000000;1.379887
9422.000000;1.377336
9421.000000;1.375028
9420.000000;1.374117
9419.000000;1.374999
9418.000000;1.376995
9417.000000;1.378633
9416.000000;1.378717
9415.000000;1.377356
9414.000000;1.375700
9413.000000;1.374642
9412.000000;1.374173
9411.000000;1.374018
9410.000000;1.374297
9409.000000;1.375151
9408.000000;1.376091
9407.000000;1.376274
9406.000000;1.375351
9405.000000;1.373658
9404.000000;1.371660
9403.000000;1.369667
9402.000000;1.368052
9401.000000;1.367151
9400.000000;1.366634
9399.000000;1.365457
9398.000000;1.363033
9397.000000;1.360323
9396.000000;1.359175
9395.000000;1.360416
9394.000000;1.362895
9393.000000;1.364542
9392.000000;1.364175
9391.000000;1.362150
9390.000000;1.359643
9389.000000;1.357786
9388.000000;1.357338
9387.000000;1.358561
9386.000000;1.361073
9385.000000;1.363971
9384.000000;1.366295
9383.000000;1.367391
9382.000000;1.367042
9381.000000;1.365635
9380.000000;1.364135
9379.000000;1.363409
9378.000000;1.363308
9377.000000;1.362753
9376.000000;1.361057
9375.000000;1.358891
9374.000000;1.357484
9373.000000;1.357157
9372.000000;1.357173
9371.000000;1.356887
9370.000000;1.356457
9369.000000;1.356256
9368.000000;1.356078
9367.000000;1.355297
9366.000000;1.353610
9365.000000;1.351326
9364.000000;1.349121
9363.000000;1.347739
9362.000000;1.347671
9361.000000;1.348655
9360.000000;1.349576
9359.000000;1.349397
9358.000000;1.348355
9357.000000;1.347802
9356.000000;1.348544
9355.000000;1.349742
9354.000000;1.349893
9353.000000;1.348651
9352.000000;1.347015
9351.000000;1.345773
9350.000000;1.344553
9349.000000;1.342771
9348.000000;1.340851
9347.000000;1.339822
9346.000000;1.340068
9345.000000;1.341035
9344.000000;1.342002
9343.000000;1.342541
9342.000000;1.342248
9341.000000;1.340788
9340.000000;1.338560
9339.000000;1.336732
9338.000000;1.336169
9337.000000;1.336634
9336.000000;1.337339
9335.000000;1.337961
9334.000000;1.338668
9333.000000;1.339378
9332.000000;1.339553
9331.000000;1.338805
9330.000000;1.337378
9329.000000;1.335875
9328.000000;1.334725
9327.000000;1.333943
9326.000000;1.333201
9325.000000;1.332112
9324.000000;1.330673
9323.000000;1.329420
9322.000000;1.328999
9321.000000;1.329558
9320.000000;1.330652
9319.000000;1.331685
9318.000000;1.332312
9317.000000;1.332494
9316.000000;1.332423
9315.000000;1.332356
9314.000000;1.332267
9313.000000;1.331729
9312.000000;1.330482
9311.000000;1.329092
9310.000000;1.328551
9309.000000;1.329033
9308.000000;1.329440
9307.000000;1.328484
9306.000000;1.326044
9305.000000;1.323203
9304.000000;1.321173
9303.000000;1.320433
9302.000000;1.320588
9301.000000;1.320722
9300.000000;1.320093
9299.000000;1.318899
9298.000000;1.318249
9297.000000;1.318956
9296.000000;1.320419
9295.000000;1.321122
9294.000000;1.320338
9293.000000;1.318880
9292.000000;1.317985
9291.000000;1.317922
9290.000000;1.318037
9289.000000;1.317774
9288.000000;1.317180
9287.000000;1.316546
9286.000000;1.316025
9285.000000;1.315672
9284.000000;1.315575
9283.000000;1.315752
9282.000000;1.316014
9281.000000;1.315963
9280.000000;1.315186
9279.000000;1.313600
9278.000000;1.311692
9277.000000;1.310255
9276.000000;1.309698
9275.000000;1.309737
9274.000000;1.309973
9273.000000;1.310562
9272.000000;1.311829
9271.000000;1.313282
9270.000000;1.313601
9269.000000;1.311950
9268.000000;1.308942
9267.000000;1.306018
9266.000000;1.304162
9265.000000;1.303472
9264.000000;1.303622
9263.000000;1.304307
9262.000000;1.305247
9261.000000;1.306125
9260.000000;1.306665
9259.000000;1.306687
9258.000000;1.306133
9257.000000;1.305248
9256.000000;1.304637
9255.000000;1.304848
9254.000000;1.305786
9253.000000;1.306670
9252.000000;1.306670
9251.000000;1.305608
9250.000000;1.304089
9249.000000;1.303009
9248.000000;1.302876
9247.000000;1.303422
9246.000000;1.303828
9245.000000;1.303442
9244.000000;1.302329
9243.000000;1.301065
9242.000000;1.300051
9241.000000;1.299223
9240.000000;1.298408
9239.000000;1.297749
9238.000000;1.297619
9237.000000;1.298162
9236.000000;1.298994
9235.000000;1.299413
9234.000000;1.298916
9233.000000;1.297561
9232.000000;1.295835
9231.000000;1.294223
9230.000000;1.292987
9229.000000;1.292303
9228.000000;1.292326
9227.000000;1.292904
9226.000000;1.293402
9225.000000;1.293142
9224.000000;1.292094
9223.000000;1.290973
9222.000000;1.290621
9221.000000;1.291395
9220.000000;1.293033
9219.000000;1.294771
9218.000000;1.295605
9217.000000;1.294849
9216.000000;1.292725
9215.000000;1.290264
9214.000000;1.288480
9213.000000;1.287682
9212.000000;1.287592
9211.000000;1.287860
9210.000000;1.288251
9209.000000;1.288470
9208.000000;1.288162
9207.000000;1.287227
9206.000000;1.286011
9205.000000;1.285066
9204.000000;1.284717
9203.000000;1.284871
9202.000000;1.285179
9201.000000;1.285372
9200.000000;1.285496
9199.000000;1.285854
9198.000000;1.286698
9197.000000;1.287892
9196.000000;1.288826
9195.000000;1.288650
9194.000000;1.286764
9193.000000;1.283373
9192.000000;1.279651
9191.000000;1.277173
9190.000000;1.276904
9189.000000;1.278526
9188.000000;1.280634
9187.000000;1.281709
9186.000000;1.281164
9185.000000;1.279582
9184.000000;1.277997
9183.000000;1.276977
9182.000000;1.276437
9181.000000;1.276173
9180.000000;1.276282
9179.000000;1.276878
9178.000000;1.277654
9177.000000;1.278089
9176.000000;1.278058
9175.000000;1.277944
9174.000000;1.278041
9173.000000;1.278118
9172.000000;1.277733
9171.000000;1.276775
9170.000000;1.275541
9169.000000;1.274406
9168.000000;1.273634
9167.000000;1.273426
9166.000000;1.273886
9165.000000;1.274815
9164.000000;1.275628
9163.000000;1.275611
9162.000000;1.274431
9161.000000;1.272498
9160.000000;1.270759
9159.000000;1.269950
9158.000000;1.269959
9157.000000;1.270046
9156.000000;1.269704
9155.000000;1.269152
9154.000000;1.268861
9153.000000;1.268869
9152.000000;1.268831
9151.000000;1.268584
9150.000000;1.268281
9149.000000;1.267884
9148.000000;1.266929
9147.000000;1.265119
9146.000000;1.263017
9145.000000;1.261812
9144.000000;1.262281
9143.000000;1.264062
9142.000000;1.266018
9141.000000;1.267183
9140.000000;1.267289
9139.000000;1.266567
9138.000000;1.265396
9137.000000;1.264196
9136.000000;1.263297
9135.000000;1.262667
9134.000000;1.261951
9133.000000;1.261011
9132.000000;1.260235
9131.000000;1.260133
9130.000000;1.260717
9129.000000;1.261527
9128.000000;1.262122
9127.000000;1.262239
9126.000000;1.261603
9125.000000;1.260179
9124.000000;1.258704
9123.000000;1.258339
9122.000000;1.259400
9121.000000;1.260777
9120.000000;1.261048
9119.000000;1.260029
9118.000000;1.258791
9117.000000;1.258268
9116.000000;1.258333
9115.000000;1.258237
9114.000000;1.257460
9113.000000;1.256037
9112.000000;1.254454
9111.000000;1.253486
9110.000000;1.253791
9109.000000;1.255315
9108.000000;1.257163
9107.000000;1.258264
9106.000000;1.258139
9105.000000;1.256971
9104.000000;1.255221
9103.000000;1.253487
9102.000000;1.252538
9101.000000;1.252907
9100.000000;1.254238
9099.000000;1.255339
9098.000000;1.255254
9097.000000;1.254221
9096.000000;1.253338
9095.000000;1.253316
9094.000000;1.253790
9093.000000;1.253860
9092.000000;1.253120
9091.000000;1.251973
9090.000000;1.251091
9089.000000;1.250766
9088.000000;1.250769
9087.000000;1.250685
9086.000000;1.250282
9085.000000;1.249649
9084.000000;1.249016
9083.000000;1.248449
9082.000000;1.247780
9081.000000;1.246858
9080.000000;1.245749
9079.000000;1.244559
9078.000000;1.243257
9077.000000;1.241980
9076.000000;1.241417
9075.000000;1.242368
9074.000000;1.244692
9073.000000;1.247064
9072.000000;1.248158
9071.000000;1.247925
9070.000000;1.247340
9069.000000;1.247127
9068.000000;1.247240
9067.000000;1.247456
9066.000000;1.247795
9065.000000;1.248145
9064.000000;1.247994
9063.000000;1.246957
9062.000000;1.245362
9061.000000;1.243957
9060.000000;1.243177
9059.000000;1.242957
9058.000000;1.243100
9057.000000;1.243492
9056.000000;1.243942
9055.000000;1.244129
9054.000000;1.243820
9053.000000;1.243030
