Criado como novo conjunto de dados;"1909daniel.spp","-4259323.7 Secs"
cm-1;Abs
10000.000000;1.989657
9999.000000;1.984730
9998.000000;1.979859
9997.000000;1.975041
9996.000000;1.970267
9995.000000;1.965574
9994.000000;1.960872
9993.000000;1.956332
9992.000000;1.951644
9991.000000;1.947355
9990.000000;1.942387
9989.000000;1.940754
9988.000000;1.944286
9987.000000;1.948944
9986.000000;1.952154
9985.000000;1.952097
9984.000000;1.948569
9983.000000;1.942141
9982.000000;1.934843
9981.000000;1.929577
9980.000000;1.928360
9979.000000;1.930648
9978.000000;1.933520
9977.000000;1.934097
9976.000000;1.932192
9975.000000;1.930073
9974.000000;1.929587
9973.000000;1.930245
9972.000000;1.930278
9971.000000;1.929035
9970.000000;1.927784
9969.000000;1.928171
9968.000000;1.930405
9967.000000;1.932778
9966.000000;1.932723
9965.000000;1.929073
9964.000000;1.923636
9963.000000;1.919904
9962.000000;1.919835
9961.000000;1.922138
9960.000000;1.923800
9959.000000;1.923030
9958.000000;1.920417
9957.000000;1.917712
9956.000000;1.916473
9955.000000;1.917653
9954.000000;1.921000
9953.000000;1.924620
9952.000000;1.926244
9951.000000;1.925468
9950.000000;1.924116
9949.000000;1.923869
9948.000000;1.924127
9947.000000;1.922954
9946.000000;1.919819
9945.000000;1.916327
9944.000000;1.914235
9943.000000;1.913846
9942.000000;1.914745
9941.000000;1.917049
9940.000000;1.920781
9939.000000;1.924229
9938.000000;1.924286
9937.000000;1.919513
9936.000000;1.912288
9935.000000;1.906704
9934.000000;1.904648
9933.000000;1.904612
9932.000000;1.904010
9931.000000;1.902017
9930.000000;1.899884
9929.000000;1.898990
9928.000000;1.899242
9927.000000;1.899381
9926.000000;1.898514
9925.000000;1.897134
9924.000000;1.896569
9923.000000;1.897355
9922.000000;1.898378
9921.000000;1.897997
9920.000000;1.895863
9919.000000;1.893049
9918.000000;1.890598
9917.000000;1.888939
9916.000000;1.888652
9915.000000;1.890530
9914.000000;1.894248
9913.000000;1.897873
9912.000000;1.899516
9911.000000;1.898987
9910.000000;1.897212
9909.000000;1.894876
9908.000000;1.892542
9907.000000;1.891176
9906.000000;1.891190
9905.000000;1.891402
9904.000000;1.890238
9903.000000;1.887988
9902.000000;1.886511
9901.000000;1.886616
9900.000000;1.887480
9899.000000;1.888611
9898.000000;1.890396
9897.000000;1.892224
9896.000000;1.891842
9895.000000;1.888102
9894.000000;1.883256
9893.000000;1.880798
9892.000000;1.881657
9891.000000;1.883561
9890.000000;1.883785
9889.000000;1.881774
9888.000000;1.878807
9887.000000;1.876086
9886.000000;1.873907
9885.000000;1.872309
9884.000000;1.871968
9883.000000;1.873827
9882.000000;1.877410
9881.000000;1.879904
9880.000000;1.878168
9879.000000;1.872437
9878.000000;1.866773
9877.000000;1.864804
9876.000000;1.865944
9875.000000;1.866759
9874.000000;1.865617
9873.000000;1.864384
9872.000000;1.865235
9871.000000;1.867613
9870.000000;1.869205
9869.000000;1.868687
9868.000000;1.866293
9867.000000;1.862437
9866.000000;1.857425
9865.000000;1.852451
9864.000000;1.849477
9863.000000;1.849613
9862.000000;1.852146
9861.000000;1.855420
9860.000000;1.858215
9859.000000;1.859952
9858.000000;1.860113
9857.000000;1.858391
9856.000000;1.855532
9855.000000;1.853152
9854.000000;1.852027
9853.000000;1.850939
9852.000000;1.848128
9851.000000;1.844175
9850.000000;1.842286
9849.000000;1.844694
9848.000000;1.849329
9847.000000;1.851359
9846.000000;1.848654
9845.000000;1.844299
9844.000000;1.842583
9843.000000;1.844085
9842.000000;1.845857
9841.000000;1.845614
9840.000000;1.844113
9839.000000;1.843155
9838.000000;1.843157
9837.000000;1.843538
9836.000000;1.844174
9835.000000;1.845414
9834.000000;1.847038
9833.000000;1.848056
9832.000000;1.847566
9831.000000;1.845384
9830.000000;1.842051
9829.000000;1.838696
9828.000000;1.836656
9827.000000;1.836508
9826.000000;1.837147
9825.000000;1.836192
9824.000000;1.832092
9823.000000;1.826121
9822.000000;1.821777
9821.000000;1.821728
9820.000000;1.825175
9819.000000;1.828392
9818.000000;1.828308
9817.000000;1.825379
9816.000000;1.822397
9815.000000;1.821222
9814.000000;1.821670
9813.000000;1.822986
9812.000000;1.824945
9811.000000;1.827175
9810.000000;1.828616
9809.000000;1.828514
9808.000000;1.827371
9807.000000;1.826236
9806.000000;1.825578
9805.000000;1.825307
9804.000000;1.825237
9803.000000;1.825046
9802.000000;1.824318
9801.000000;1.823055
9800.000000;1.821702
9799.000000;1.820257
9798.000000;1.817881
9797.000000;1.814077
9796.000000;1.809844
9795.000000;1.806995
9794.000000;1.806574
9793.000000;1.808274
9792.000000;1.810746
9791.000000;1.812121
9790.000000;1.811127
9789.000000;1.808400
9788.000000;1.805998
9787.000000;1.805080
9786.000000;1.804670
9785.000000;1.803300
9784.000000;1.801186
9783.000000;1.799713
9782.000000;1.799260
9781.000000;1.798990
9780.000000;1.798634
9779.000000;1.799018
9778.000000;1.800533
9777.000000;1.802268
9776.000000;1.803102
9775.000000;1.802764
9774.000000;1.801454
9773.000000;1.799392
9772.000000;1.797229
9771.000000;1.795943
9770.000000;1.795617
9769.000000;1.794989
9768.000000;1.793056
9767.000000;1.790639
9766.000000;1.789518
9765.000000;1.790208
9764.000000;1.791247
9763.000000;1.790770
9762.000000;1.788435
9761.000000;1.785645
9760.000000;1.784054
9759.000000;1.783886
9758.000000;1.783762
9757.000000;1.782437
9756.000000;1.780611
9755.000000;1.780450
9754.000000;1.783236
9753.000000;1.787856
9752.000000;1.791680
9751.000000;1.792697
9750.000000;1.790925
9749.000000;1.787997
9748.000000;1.785487
9747.000000;1.783757
9746.000000;1.782506
9745.000000;1.782023
9744.000000;1.782957
9743.000000;1.784684
9742.000000;1.784951
9741.000000;1.782103
9740.000000;1.777356
9739.000000;1.773836
9738.000000;1.773388
9737.000000;1.774986
9736.000000;1.776111
9735.000000;1.775150
9734.000000;1.772463
9733.000000;1.769726
9732.000000;1.768398
9731.000000;1.768331
9730.000000;1.767770
9729.000000;1.765279
9728.000000;1.761672
9727.000000;1.759272
9726.000000;1.759365
9725.000000;1.761202
9724.000000;1.763321
9723.000000;1.764774
9722.000000;1.764901
9721.000000;1.763260
9720.000000;1.760473
9719.000000;1.758098
9718.000000;1.756863
9717.000000;1.755812
9716.000000;1.754009
9715.000000;1.752327
9714.000000;1.752460
9713.000000;1.754672
9712.000000;1.757504
9711.000000;1.759373
9710.000000;1.759537
9709.000000;1.757751
9708.000000;1.754255
9707.000000;1.750363
9706.000000;1.748061
9705.000000;1.748411
9704.000000;1.750483
9703.000000;1.752074
9702.000000;1.751620
9701.000000;1.749544
9700.000000;1.747807
9699.000000;1.748026
9698.000000;1.749871
9697.000000;1.751353
9696.000000;1.750765
9695.000000;1.748093
9694.000000;1.744438
9693.000000;1.740794
9692.000000;1.737796
9691.000000;1.735935
9690.000000;1.735275
9689.000000;1.735233
9688.000000;1.735187
9687.000000;1.735059
9686.000000;1.734853
9685.000000;1.734038
9684.000000;1.732174
9683.000000;1.729958
9682.000000;1.728744
9681.000000;1.729012
9680.000000;1.730045
9679.000000;1.731193
9678.000000;1.732660
9677.000000;1.734611
9676.000000;1.736189
9675.000000;1.736146
9674.000000;1.734341
9673.000000;1.732159
9672.000000;1.731274
9671.000000;1.732119
9670.000000;1.733537
9669.000000;1.733912
9668.000000;1.732757
9667.000000;1.731179
9666.000000;1.730560
9665.000000;1.730913
9664.000000;1.730880
9663.000000;1.729257
9662.000000;1.726272
9661.000000;1.723306
9660.000000;1.721571
9659.000000;1.721123
9658.000000;1.720951
9657.000000;1.719920
9656.000000;1.717732
9655.000000;1.715082
9654.000000;1.713040
9653.000000;1.712401
9652.000000;1.713283
9651.000000;1.714826
9650.000000;1.715476
9649.000000;1.714295
9648.000000;1.712095
9647.000000;1.710549
9646.000000;1.710063
9645.000000;1.709304
9644.000000;1.707218
9643.000000;1.704678
9642.000000;1.703304
9641.000000;1.703401
9640.000000;1.704185
9639.000000;1.705594
9638.000000;1.708433
9637.000000;1.712435
9636.000000;1.715388
9635.000000;1.714969
9634.000000;1.711124
9633.000000;1.706001
9632.000000;1.701818
9631.000000;1.699327
9630.000000;1.697950
9629.000000;1.696753
9628.000000;1.695476
9627.000000;1.694890
9626.000000;1.695924
9625.000000;1.698245
9624.000000;1.699841
9623.000000;1.698488
9622.000000;1.694089
9621.000000;1.689413
9620.000000;1.687933
9619.000000;1.690679
9618.000000;1.695117
9617.000000;1.697459
9616.000000;1.696370
9615.000000;1.693742
9614.000000;1.691677
9613.000000;1.690082
9612.000000;1.687942
9611.000000;1.685792
9610.000000;1.685376
9609.000000;1.687154
9608.000000;1.689502
9607.000000;1.690670
9606.000000;1.690553
9605.000000;1.690050
9604.000000;1.689593
9603.000000;1.689028
9602.000000;1.688324
9601.000000;1.687695
9600.000000;1.687228
9599.000000;1.686691
9598.000000;1.685763
9597.000000;1.684403
9596.000000;1.683007
9595.000000;1.682269
9594.000000;1.682606
9593.000000;1.683585
9592.000000;1.684264
9591.000000;1.684159
9590.000000;1.683442
9589.000000;1.682213
9588.000000;1.680358
9587.000000;1.678266
9586.000000;1.676874
9585.000000;1.676552
9584.000000;1.676408
9583.000000;1.675231
9582.000000;1.672854
9581.000000;1.670209
9580.000000;1.668250
9579.000000;1.667222
9578.000000;1.666865
9577.000000;1.666901
9576.000000;1.667289
9575.000000;1.668169
9574.000000;1.669353
9573.000000;1.669922
9572.000000;1.669011
9571.000000;1.667140
9570.000000;1.665888
9569.000000;1.665857
9568.000000;1.665650
9567.000000;1.663618
9566.000000;1.660189
9565.000000;1.657395
9564.000000;1.656363
9563.000000;1.656398
9562.000000;1.656539
9561.000000;1.656868
9560.000000;1.657733
9559.000000;1.658507
9558.000000;1.658243
9557.000000;1.657276
9556.000000;1.656978
9555.000000;1.657821
9554.000000;1.658729
9553.000000;1.658737
9552.000000;1.658450
9551.000000;1.659128
9550.000000;1.660673
9549.000000;1.661356
9548.000000;1.659778
9547.000000;1.656634
9546.000000;1.653950
9545.000000;1.652912
9544.000000;1.653012
9543.000000;1.652944
9542.000000;1.651944
9541.000000;1.650368
9540.000000;1.649183
9539.000000;1.648944
9538.000000;1.649163
9537.000000;1.648735
9536.000000;1.647056
9535.000000;1.644699
9534.000000;1.642697
9533.000000;1.641297
9532.000000;1.639860
9531.000000;1.638022
9530.000000;1.636528
9529.000000;1.636527
9528.000000;1.638082
9527.000000;1.639874
9526.000000;1.640655
9525.000000;1.640538
9524.000000;1.640605
9523.000000;1.641526
9522.000000;1.642703
9521.000000;1.642681
9520.000000;1.640380
9519.000000;1.636231
9518.000000;1.632266
9517.000000;1.630815
9516.000000;1.632649
9515.000000;1.636168
9514.000000;1.638626
9513.000000;1.638511
9512.000000;1.636551
9511.000000;1.634314
9510.000000;1.632530
9509.000000;1.631180
9508.000000;1.630632
9507.000000;1.631755
9506.000000;1.634736
9505.000000;1.638217
9504.000000;1.639960
9503.000000;1.638358
9502.000000;1.633555
9501.000000;1.627478
9500.000000;1.622653
9499.000000;1.620448
9498.000000;1.620371
9497.000000;1.621000
9496.000000;1.621266
9495.000000;1.620789
9494.000000;1.619461
9493.000000;1.617426
9492.000000;1.615462
9491.000000;1.614477
9490.000000;1.614418
9489.000000;1.614443
9488.000000;1.614344
9487.000000;1.614802
9486.000000;1.615927
9485.000000;1.616664
9484.000000;1.616295
9483.000000;1.615390
9482.000000;1.614340
9481.000000;1.612145
9480.000000;1.608072
9479.000000;1.603746
9478.000000;1.601884
9477.000000;1.603095
9476.000000;1.605291
9475.000000;1.606455
9474.000000;1.606770
9473.000000;1.607462
9472.000000;1.608798
9471.000000;1.610140
9470.000000;1.611079
9469.000000;1.611481
9468.000000;1.610955
9467.000000;1.609295
9466.000000;1.607223
9465.000000;1.605849
9464.000000;1.605438
9463.000000;1.605188
9462.000000;1.604177
9461.000000;1.602193
9460.000000;1.599782
9459.000000;1.597872
9458.000000;1.597199
9457.000000;1.597727
9456.000000;1.598654
9455.000000;1.599211
9454.000000;1.599296
9453.000000;1.599024
9452.000000;1.598012
9451.000000;1.595767
9450.000000;1.592788
9449.000000;1.590507
9448.000000;1.589793
9447.000000;1.590009
9446.000000;1.589959
9445.000000;1.589397
9444.000000;1.589029
9443.000000;1.589127
9442.000000;1.588766
9441.000000;1.586863
9440.000000;1.583744
9439.000000;1.581156
9438.000000;1.580810
9437.000000;1.583133
9436.000000;1.587034
9435.000000;1.590484
9434.000000;1.591712
9433.000000;1.590530
9432.000000;1.588519
9431.000000;1.587517
9430.000000;1.587783
9429.000000;1.587933
9428.000000;1.586795
9427.000000;1.584686
9426.000000;1.582590
9425.000000;1.580944
9424.000000;1.579840
9423.000000;1.579646
9422.000000;1.580499
9421.000000;1.581515
9420.000000;1.581522
9419.000000;1.580630
9418.000000;1.580102
9417.000000;1.580512
9416.000000;1.580957
9415.000000;1.580386
9414.000000;1.578929
9413.000000;1.577394
9412.000000;1.576043
9411.000000;1.574486
9410.000000;1.572494
9409.000000;1.570431
9408.000000;1.569158
9407.000000;1.569632
9406.000000;1.571927
9405.000000;1.574439
9404.000000;1.574737
9403.000000;1.571707
9402.000000;1.566634
9401.000000;1.561907
9400.000000;1.559135
9399.000000;1.558687
9398.000000;1.560259
9397.000000;1.563175
9396.000000;1.566399
9395.000000;1.568961
9394.000000;1.570512
9393.000000;1.571253
9392.000000;1.571474
9391.000000;1.571443
9390.000000;1.571426
9389.000000;1.571349
9388.000000;1.570684
9387.000000;1.569057
9386.000000;1.566837
9385.000000;1.564695
9384.000000;1.562767
9383.000000;1.560790
9382.000000;1.558875
9381.000000;1.557546
9380.000000;1.556908
9379.000000;1.556313
9378.000000;1.555173
9377.000000;1.553838
9376.000000;1.553453
9375.000000;1.554932
9374.000000;1.557999
9373.000000;1.561057
9372.000000;1.562163
9371.000000;1.560589
9370.000000;1.557497
9369.000000;1.554844
9368.000000;1.553631
9367.000000;1.553270
9366.000000;1.552478
9365.000000;1.550545
9364.000000;1.547786
9363.000000;1.545041
9362.000000;1.542904
9361.000000;1.541406
9360.000000;1.540354
9359.000000;1.539897
9358.000000;1.540603
9357.000000;1.542796
9356.000000;1.545839
9355.000000;1.548212
9354.000000;1.548503
9353.000000;1.546440
9352.000000;1.543024
9351.000000;1.539681
9350.000000;1.537323
9349.000000;1.536199
9348.000000;1.536432
9347.000000;1.538155
9346.000000;1.540872
9345.000000;1.543126
9344.000000;1.543606
9343.000000;1.542664
9342.000000;1.541877
9341.000000;1.541881
9340.000000;1.541585
9339.000000;1.539978
9338.000000;1.537832
9337.000000;1.536749
9336.000000;1.537124
9335.000000;1.537938
9334.000000;1.538177
9333.000000;1.537616
9332.000000;1.536501
9331.000000;1.535427
9330.000000;1.535414
9329.000000;1.537076
9328.000000;1.539592
9327.000000;1.541225
9326.000000;1.541108
9325.000000;1.539916
9324.000000;1.538613
9323.000000;1.537431
9322.000000;1.536403
9321.000000;1.535860
9320.000000;1.535671
9319.000000;1.534795
9318.000000;1.532514
9317.000000;1.529671
9316.000000;1.527783
9315.000000;1.527184
9314.000000;1.526797
9313.000000;1.525561
9312.000000;1.523580
9311.000000;1.521873
9310.000000;1.521421
9309.000000;1.522466
9308.000000;1.524299
9307.000000;1.525634
9306.000000;1.525597
9305.000000;1.524507
9304.000000;1.523466
9303.000000;1.523169
9302.000000;1.523435
9301.000000;1.523893
9300.000000;1.524699
9299.000000;1.526226
9298.000000;1.528181
9297.000000;1.529376
9296.000000;1.528702
9295.000000;1.526350
9294.000000;1.523810
9293.000000;1.522499
9292.000000;1.522423
9291.000000;1.522384
9290.000000;1.521450
9289.000000;1.519889
9288.000000;1.518650
9287.000000;1.518383
9286.000000;1.519105
9285.000000;1.520370
9284.000000;1.521342
9283.000000;1.521094
9282.000000;1.519342
9281.000000;1.516776
9280.000000;1.514427
9279.000000;1.512798
9278.000000;1.511776
9277.000000;1.511179
9276.000000;1.511024
9275.000000;1.511311
9274.000000;1.511853
9273.000000;1.512310
9272.000000;1.512238
9271.000000;1.511305
9270.000000;1.509774
9269.000000;1.508493
9268.000000;1.508026
9267.000000;1.507951
9266.000000;1.507549
9265.000000;1.507049
9264.000000;1.507494
9263.000000;1.509215
9262.000000;1.511092
9261.000000;1.511668
9260.000000;1.510587
9259.000000;1.508582
9258.000000;1.506470
9257.000000;1.504608
9256.000000;1.503036
9255.000000;1.501727
9254.000000;1.500779
9253.000000;1.500569
9252.000000;1.501510
9251.000000;1.503417
9250.000000;1.505290
9249.000000;1.505983
9248.000000;1.505101
9247.000000;1.503162
9246.000000;1.501132
9245.000000;1.499963
9244.000000;1.500128
9243.000000;1.501142
9242.000000;1.501832
9241.000000;1.501587
9240.000000;1.501077
9239.000000;1.501145
9238.000000;1.501269
9237.000000;1.499934
9236.000000;1.496787
9235.000000;1.493602
9234.000000;1.492499
9233.000000;1.493684
9232.000000;1.495407
9231.000000;1.495890
9230.000000;1.494843
9229.000000;1.493161
9228.000000;1.491802
9227.000000;1.491266
9226.000000;1.491686
9225.000000;1.492870
9224.000000;1.494272
9223.000000;1.495256
9222.000000;1.495569
9221.000000;1.495475
9220.000000;1.495330
9219.000000;1.495147
9218.000000;1.494661
9217.000000;1.493700
9216.000000;1.492358
9215.000000;1.490921
9214.000000;1.489703
9213.000000;1.488900
9212.000000;1.488528
9211.000000;1.488537
9210.000000;1.489028
9209.000000;1.490276
9208.000000;1.492300
9207.000000;1.494323
9206.000000;1.494941
9205.000000;1.493283
9204.000000;1.490033
9203.000000;1.486958
9202.000000;1.485295
9201.000000;1.484845
9200.000000;1.484722
9199.000000;1.484707
9198.000000;1.485444
9197.000000;1.487247
9196.000000;1.489221
9195.000000;1.490004
9194.000000;1.489238
9193.000000;1.487833
9192.000000;1.486741
9191.000000;1.485937
9190.000000;1.484820
9189.000000;1.483286
9188.000000;1.481953
9187.000000;1.481401
9186.000000;1.481592
9185.000000;1.482065
9184.000000;1.482475
9183.000000;1.482805
9182.000000;1.483215
9181.000000;1.483762
9180.000000;1.484048
9179.000000;1.483239
9178.000000;1.480936
9177.000000;1.478155
9176.000000;1.476800
9175.000000;1.477722
9174.000000;1.479655
9173.000000;1.480558
9172.000000;1.479735
9171.000000;1.478000
9170.000000;1.476066
9169.000000;1.473885
9168.000000;1.471690
9167.000000;1.470532
9166.000000;1.471007
9165.000000;1.471998
9164.000000;1.471698
9163.000000;1.469828
9162.000000;1.467963
9161.000000;1.467590
9160.000000;1.468558
9159.000000;1.469623
9158.000000;1.470026
9157.000000;1.470115
9156.000000;1.470576
9155.000000;1.471493
9154.000000;1.472225
9153.000000;1.472036
9152.000000;1.470858
9151.000000;1.469442
9150.000000;1.468653
9149.000000;1.468495
9148.000000;1.467983
9147.000000;1.466223
9146.000000;1.463580
9145.000000;1.461517
9144.000000;1.461226
9143.000000;1.462538
9142.000000;1.464227
9141.000000;1.465201
9140.000000;1.465276
9139.000000;1.464947
9138.000000;1.464751
9137.000000;1.464949
9136.000000;1.465562
9135.000000;1.466471
9134.000000;1.467514
9133.000000;1.468559
9132.000000;1.469483
9131.000000;1.470040
9130.000000;1.469848
9129.000000;1.468665
9128.000000;1.466637
9127.000000;1.464134
9126.000000;1.461507
9125.000000;1.459234
9124.000000;1.458092
9123.000000;1.458598
9122.000000;1.460116
9121.000000;1.461029
9120.000000;1.460322
9119.000000;1.458797
9118.000000;1.458157
9117.000000;1.458969
9116.000000;1.460099
9115.000000;1.460202
9114.000000;1.459214
9113.000000;1.458042
9112.000000;1.457261
9111.000000;1.456648
9110.000000;1.455836
9109.000000;1.454914
9108.000000;1.454345
9107.000000;1.454666
9106.000000;1.456198
9105.000000;1.458528
9104.000000;1.460192
9103.000000;1.459518
9102.000000;1.456361
9101.000000;1.452680
9100.000000;1.450898
9099.000000;1.451714
9098.000000;1.453753
9097.000000;1.455246
9096.000000;1.455699
9095.000000;1.455790
9094.000000;1.456021
9093.000000;1.456012
9092.000000;1.455189
9091.000000;1.453767
9090.000000;1.452661
9089.000000;1.452397
9088.000000;1.452376
9087.000000;1.451479
9086.000000;1.449335
9085.000000;1.446758
9084.000000;1.445000
9083.000000;1.444828
9082.000000;1.446329
9081.000000;1.449131
9080.000000;1.452364
9079.000000;1.454617
9078.000000;1.454592
9077.000000;1.452180
9076.000000;1.448694
9075.000000;1.445933
9074.000000;1.445057
9073.000000;1.446123
9072.000000;1.448188
9071.000000;1.449713
9070.000000;1.449499
9069.000000;1.447781
9068.000000;1.446164
9067.000000;1.446078
9066.000000;1.447338
9065.000000;1.448384
9064.000000;1.447958
9063.000000;1.446353
9062.000000;1.445029
9061.000000;1.445133
9060.000000;1.446253
9059.000000;1.446650
9058.000000;1.445140
9057.000000;1.442720
9056.000000;1.441748
9055.000000;1.443230
9054.000000;1.445473
9053.000000;1.446041
