Criado como novo conjunto de dados;"1909daniel.spp","-4208920.7 Secs"
cm-1;Abs
10000.000000;1.183320
9999.000000;1.181815
9998.000000;1.180328
9997.000000;1.178822
9996.000000;1.177366
9995.000000;1.175825
9994.000000;1.174562
9993.000000;1.174401
9992.000000;1.174777
9991.000000;1.175060
9990.000000;1.175163
9989.000000;1.175431
9988.000000;1.175643
9987.000000;1.175081
9986.000000;1.173583
9985.000000;1.171958
9984.000000;1.171027
9983.000000;1.170673
9982.000000;1.170172
9981.000000;1.169141
9980.000000;1.167790
9979.000000;1.166472
9978.000000;1.165401
9977.000000;1.164663
9976.000000;1.164153
9975.000000;1.163590
9974.000000;1.162871
9973.000000;1.162313
9972.000000;1.162246
9971.000000;1.162429
9970.000000;1.162174
9969.000000;1.161079
9968.000000;1.159392
9967.000000;1.157644
9966.000000;1.156169
9965.000000;1.155065
9964.000000;1.154374
9963.000000;1.154106
9962.000000;1.154098
9961.000000;1.154002
9960.000000;1.153498
9959.000000;1.152564
9958.000000;1.151519
9957.000000;1.150708
9956.000000;1.150163
9955.000000;1.149731
9954.000000;1.149472
9953.000000;1.149617
9952.000000;1.150014
9951.000000;1.149951
9950.000000;1.148842
9949.000000;1.146932
9948.000000;1.145058
9947.000000;1.143842
9946.000000;1.143373
9945.000000;1.143435
9944.000000;1.143657
9943.000000;1.143537
9942.000000;1.142761
9941.000000;1.141574
9940.000000;1.140521
9939.000000;1.139788
9938.000000;1.139102
9937.000000;1.138281
9936.000000;1.137566
9935.000000;1.137270
9934.000000;1.137362
9933.000000;1.137463
9932.000000;1.137031
9931.000000;1.135641
9930.000000;1.133415
9929.000000;1.131175
9928.000000;1.129812
9927.000000;1.129387
9926.000000;1.129154
9925.000000;1.128539
9924.000000;1.127753
9923.000000;1.127312
9922.000000;1.127304
9921.000000;1.127368
9920.000000;1.127094
9919.000000;1.126231
9918.000000;1.124792
9917.000000;1.123138
9916.000000;1.121705
9915.000000;1.120477
9914.000000;1.119028
9913.000000;1.117280
9912.000000;1.115804
9911.000000;1.115077
9910.000000;1.114827
9909.000000;1.114547
9908.000000;1.114303
9907.000000;1.114462
9906.000000;1.114809
9905.000000;1.114592
9904.000000;1.113491
9903.000000;1.112013
9902.000000;1.110848
9901.000000;1.110230
9900.000000;1.109996
9899.000000;1.109876
9898.000000;1.109594
9897.000000;1.109009
9896.000000;1.108331
9895.000000;1.107900
9894.000000;1.107695
9893.000000;1.107295
9892.000000;1.106406
9891.000000;1.105143
9890.000000;1.103736
9889.000000;1.102313
9888.000000;1.101093
9887.000000;1.100459
9886.000000;1.100570
9885.000000;1.101078
9884.000000;1.101433
9883.000000;1.101321
9882.000000;1.100712
9881.000000;1.099748
9880.000000;1.098745
9879.000000;1.098054
9878.000000;1.097712
9877.000000;1.097361
9876.000000;1.096686
9875.000000;1.095749
9874.000000;1.094751
9873.000000;1.093702
9872.000000;1.092545
9871.000000;1.091393
9870.000000;1.090402
9869.000000;1.089537
9868.000000;1.088689
9867.000000;1.087918
9866.000000;1.087336
9865.000000;1.086832
9864.000000;1.086138
9863.000000;1.085139
9862.000000;1.083934
9861.000000;1.082637
9860.000000;1.081311
9859.000000;1.080100
9858.000000;1.079253
9857.000000;1.078951
9856.000000;1.079179
9855.000000;1.079743
9854.000000;1.080296
9853.000000;1.080383
9852.000000;1.079635
9851.000000;1.078026
9850.000000;1.075921
9849.000000;1.073864
9848.000000;1.072326
9847.000000;1.071533
9846.000000;1.071383
9845.000000;1.071505
9844.000000;1.071474
9843.000000;1.071033
9842.000000;1.070128
9841.000000;1.068868
9840.000000;1.067489
9839.000000;1.066270
9838.000000;1.065352
9837.000000;1.064660
9836.000000;1.064094
9835.000000;1.063685
9834.000000;1.063447
9833.000000;1.063166
9832.000000;1.062580
9831.000000;1.061830
9830.000000;1.061492
9829.000000;1.061932
9828.000000;1.062647
9827.000000;1.062480
9826.000000;1.060762
9825.000000;1.058188
9824.000000;1.056300
9823.000000;1.055979
9822.000000;1.056584
9821.000000;1.056752
9820.000000;1.055857
9819.000000;1.054394
9818.000000;1.053043
9817.000000;1.051929
9816.000000;1.050876
9815.000000;1.049885
9814.000000;1.049033
9813.000000;1.048190
9812.000000;1.047207
9811.000000;1.046236
9810.000000;1.045541
9809.000000;1.045074
9808.000000;1.044517
9807.000000;1.043687
9806.000000;1.042597
9805.000000;1.041234
9804.000000;1.039631
9803.000000;1.038131
9802.000000;1.037254
9801.000000;1.037256
9800.000000;1.037977
9799.000000;1.039031
9798.000000;1.039904
9797.000000;1.039984
9796.000000;1.038933
9795.000000;1.037136
9794.000000;1.035415
9793.000000;1.034210
9792.000000;1.033352
9791.000000;1.032706
9790.000000;1.032513
9789.000000;1.032832
9788.000000;1.033084
9787.000000;1.032620
9786.000000;1.031473
9785.000000;1.030158
9784.000000;1.028917
9783.000000;1.027657
9782.000000;1.026492
9781.000000;1.025797
9780.000000;1.025617
9779.000000;1.025458
9778.000000;1.024898
9777.000000;1.024114
9776.000000;1.023539
9775.000000;1.023222
9774.000000;1.022800
9773.000000;1.021994
9772.000000;1.020901
9771.000000;1.019813
9770.000000;1.018960
9769.000000;1.018385
9768.000000;1.017981
9767.000000;1.017619
9766.000000;1.017277
9765.000000;1.017000
9764.000000;1.016702
9763.000000;1.016140
9762.000000;1.015190
9761.000000;1.014053
9760.000000;1.013069
9759.000000;1.012408
9758.000000;1.012040
9757.000000;1.011828
9756.000000;1.011484
9755.000000;1.010600
9754.000000;1.009058
9753.000000;1.007375
9752.000000;1.006319
9751.000000;1.006055
9750.000000;1.005913
9749.000000;1.005139
9748.000000;1.003706
9747.000000;1.002200
9746.000000;1.001094
9745.000000;1.000393
9744.000000;0.999916
9743.000000;0.999572
9742.000000;0.999299
9741.000000;0.998947
9740.000000;0.998378
9739.000000;0.997615
9738.000000;0.996801
9737.000000;0.996012
9736.000000;0.995188
9735.000000;0.994268
9734.000000;0.993404
9733.000000;0.992911
9732.000000;0.992897
9731.000000;0.992943
9730.000000;0.992349
9729.000000;0.990867
9728.000000;0.989060
9727.000000;0.987720
9726.000000;0.987005
9725.000000;0.986413
9724.000000;0.985580
9723.000000;0.984745
9722.000000;0.984290
9721.000000;0.984132
9720.000000;0.983837
9719.000000;0.983201
9718.000000;0.982459
9717.000000;0.981921
9716.000000;0.981635
9715.000000;0.981445
9714.000000;0.981163
9713.000000;0.980575
9712.000000;0.979472
9711.000000;0.977889
9710.000000;0.976283
9709.000000;0.975264
9708.000000;0.975052
9707.000000;0.975225
9706.000000;0.975078
9705.000000;0.974235
9704.000000;0.972884
9703.000000;0.971497
9702.000000;0.970426
9701.000000;0.969782
9700.000000;0.969520
9699.000000;0.969473
9698.000000;0.969383
9697.000000;0.969065
9696.000000;0.968580
9695.000000;0.968118
9694.000000;0.967689
9693.000000;0.967095
9692.000000;0.966276
9691.000000;0.965482
9690.000000;0.964916
9689.000000;0.964329
9688.000000;0.963274
9687.000000;0.961774
9686.000000;0.960471
9685.000000;0.959945
9684.000000;0.960052
9683.000000;0.960136
9682.000000;0.959795
9681.000000;0.959187
9680.000000;0.958573
9679.000000;0.957904
9678.000000;0.957020
9677.000000;0.955998
9676.000000;0.954999
9675.000000;0.953901
9674.000000;0.952498
9673.000000;0.951072
9672.000000;0.950338
9671.000000;0.950566
9670.000000;0.951053
9669.000000;0.950851
9668.000000;0.949912
9667.000000;0.949103
9666.000000;0.949036
9665.000000;0.949289
9664.000000;0.948961
9663.000000;0.947720
9662.000000;0.946042
9661.000000;0.944597
9660.000000;0.943709
9659.000000;0.943355
9658.000000;0.943343
9657.000000;0.943322
9656.000000;0.942850
9655.000000;0.941698
9654.000000;0.940093
9653.000000;0.938555
9652.000000;0.937484
9651.000000;0.936947
9650.000000;0.936785
9649.000000;0.936779
9648.000000;0.936679
9647.000000;0.936253
9646.000000;0.935472
9645.000000;0.934603
9644.000000;0.933951
9643.000000;0.933465
9642.000000;0.932734
9641.000000;0.931494
9640.000000;0.930073
9639.000000;0.929154
9638.000000;0.929050
9637.000000;0.929312
9636.000000;0.929134
9635.000000;0.928133
9634.000000;0.926658
9633.000000;0.925333
9632.000000;0.924383
9631.000000;0.923528
9630.000000;0.922487
9629.000000;0.921374
9628.000000;0.920494
9627.000000;0.919906
9626.000000;0.919408
9625.000000;0.918918
9624.000000;0.918588
9623.000000;0.918516
9622.000000;0.918577
9621.000000;0.918641
9620.000000;0.918748
9619.000000;0.918873
9618.000000;0.918673
9617.000000;0.917718
9616.000000;0.915984
9615.000000;0.913967
9614.000000;0.912308
9613.000000;0.911356
9612.000000;0.911002
9611.000000;0.910811
9610.000000;0.910369
9609.000000;0.909627
9608.000000;0.908905
9607.000000;0.908493
9606.000000;0.908355
9605.000000;0.908263
9604.000000;0.908054
9603.000000;0.907633
9602.000000;0.906902
9601.000000;0.905923
9600.000000;0.905016
9599.000000;0.904433
9598.000000;0.903998
9597.000000;0.903319
9596.000000;0.902303
9595.000000;0.901215
9594.000000;0.900255
9593.000000;0.899365
9592.000000;0.898473
9591.000000;0.897653
9590.000000;0.896968
9589.000000;0.896419
9588.000000;0.896075
9587.000000;0.896028
9586.000000;0.896151
9585.000000;0.896122
9584.000000;0.895759
9583.000000;0.895081
9582.000000;0.894038
9581.000000;0.892524
9580.000000;0.890751
9579.000000;0.889281
9578.000000;0.888436
9577.000000;0.887966
9576.000000;0.887494
9575.000000;0.887041
9574.000000;0.886790
9573.000000;0.886583
9572.000000;0.885991
9571.000000;0.884849
9570.000000;0.883442
9569.000000;0.882198
9568.000000;0.881376
9567.000000;0.880991
9566.000000;0.880822
9565.000000;0.880543
9564.000000;0.880045
9563.000000;0.879571
9562.000000;0.879385
9561.000000;0.879374
9560.000000;0.879199
9559.000000;0.878750
9558.000000;0.878204
9557.000000;0.877664
9556.000000;0.877024
9555.000000;0.876248
9554.000000;0.875553
9553.000000;0.875162
9552.000000;0.875001
9551.000000;0.874734
9550.000000;0.874055
9549.000000;0.872933
9548.000000;0.871657
9547.000000;0.870622
9546.000000;0.869989
9545.000000;0.869569
9544.000000;0.869122
9543.000000;0.868682
9542.000000;0.868409
9541.000000;0.868166
9540.000000;0.867518
9539.000000;0.866282
9538.000000;0.864902
9537.000000;0.864054
9536.000000;0.863925
9535.000000;0.864003
9534.000000;0.863600
9533.000000;0.862527
9532.000000;0.861232
9531.000000;0.860297
9530.000000;0.859879
9529.000000;0.859623
9528.000000;0.859069
9527.000000;0.858072
9526.000000;0.856868
9525.000000;0.855820
9524.000000;0.855140
9523.000000;0.854773
9522.000000;0.854454
9521.000000;0.853937
9520.000000;0.853260
9519.000000;0.852743
9518.000000;0.852655
9517.000000;0.852886
9516.000000;0.853009
9515.000000;0.852706
9514.000000;0.852064
9513.000000;0.851468
9512.000000;0.851196
9511.000000;0.851107
9510.000000;0.850728
9509.000000;0.849710
9508.000000;0.848228
9507.000000;0.846845
9506.000000;0.845946
9505.000000;0.845382
9504.000000;0.844739
9503.000000;0.843877
9502.000000;0.843098
9501.000000;0.842795
9500.000000;0.843026
9499.000000;0.843437
9498.000000;0.843564
9497.000000;0.843182
9496.000000;0.842387
9495.000000;0.841380
9494.000000;0.840276
9493.000000;0.839166
9492.000000;0.838214
9491.000000;0.837517
9490.000000;0.836920
9489.000000;0.836195
9488.000000;0.835376
9487.000000;0.834678
9486.000000;0.834077
9485.000000;0.833297
9484.000000;0.832335
9483.000000;0.831644
9482.000000;0.831531
9481.000000;0.831618
9480.000000;0.831253
9479.000000;0.830335
9478.000000;0.829394
9477.000000;0.828882
9476.000000;0.828727
9475.000000;0.828599
9474.000000;0.828292
9473.000000;0.827760
9472.000000;0.827032
9471.000000;0.826237
9470.000000;0.825544
9469.000000;0.824948
9468.000000;0.824242
9467.000000;0.823292
9466.000000;0.822279
9465.000000;0.821550
9464.000000;0.821270
9463.000000;0.821241
9462.000000;0.821031
9461.000000;0.820310
9460.000000;0.819116
9459.000000;0.817832
9458.000000;0.816858
9457.000000;0.816354
9456.000000;0.816264
9455.000000;0.816459
9454.000000;0.816689
9453.000000;0.816563
9452.000000;0.815827
9451.000000;0.814674
9450.000000;0.813581
9449.000000;0.812798
9448.000000;0.812189
9447.000000;0.811592
9446.000000;0.811080
9445.000000;0.810733
9444.000000;0.810356
9443.000000;0.809675
9442.000000;0.808747
9441.000000;0.807940
9440.000000;0.807459
9439.000000;0.807067
9438.000000;0.806421
9437.000000;0.805593
9436.000000;0.805062
9435.000000;0.805121
9434.000000;0.805478
9433.000000;0.805565
9432.000000;0.805152
9431.000000;0.804432
9430.000000;0.803570
9429.000000;0.802523
9428.000000;0.801360
9427.000000;0.800426
9426.000000;0.799943
9425.000000;0.799695
9424.000000;0.799384
9423.000000;0.799079
9422.000000;0.798983
9421.000000;0.798917
9420.000000;0.798441
9419.000000;0.797477
9418.000000;0.796439
9417.000000;0.795689
9416.000000;0.795175
9415.000000;0.794684
9414.000000;0.794157
9413.000000;0.793636
9412.000000;0.793165
9411.000000;0.792860
9410.000000;0.792810
9409.000000;0.792786
9408.000000;0.792314
9407.000000;0.791255
9406.000000;0.790105
9405.000000;0.789469
9404.000000;0.789401
9403.000000;0.789445
9402.000000;0.789203
9401.000000;0.788623
9400.000000;0.787822
9399.000000;0.786897
9398.000000;0.785972
9397.000000;0.785251
9396.000000;0.784881
9395.000000;0.784762
9394.000000;0.784534
9393.000000;0.783829
9392.000000;0.782622
9391.000000;0.781323
9390.000000;0.780405
9389.000000;0.779978
9388.000000;0.779814
9387.000000;0.779735
9386.000000;0.779754
9385.000000;0.779801
9384.000000;0.779622
9383.000000;0.779094
9382.000000;0.778466
9381.000000;0.778064
9380.000000;0.777873
9379.000000;0.777577
9378.000000;0.776918
9377.000000;0.775888
9376.000000;0.774693
9375.000000;0.773673
9374.000000;0.773155
9373.000000;0.773169
9372.000000;0.773366
9371.000000;0.773322
9370.000000;0.772883
9369.000000;0.772124
9368.000000;0.771152
9367.000000;0.770121
9366.000000;0.769303
9365.000000;0.768853
9364.000000;0.768553
9363.000000;0.767986
9362.000000;0.766996
9361.000000;0.765806
9360.000000;0.764732
9359.000000;0.763993
9358.000000;0.763746
9357.000000;0.764012
9356.000000;0.764485
9355.000000;0.764658
9354.000000;0.764259
9353.000000;0.763468
9352.000000;0.762606
9351.000000;0.761772
9350.000000;0.760900
9349.000000;0.760036
9348.000000;0.759419
9347.000000;0.759277
9346.000000;0.759594
9345.000000;0.760049
9344.000000;0.760195
9343.000000;0.759794
9342.000000;0.758995
9341.000000;0.758145
9340.000000;0.757451
9339.000000;0.756914
9338.000000;0.756524
9337.000000;0.756294
9336.000000;0.756041
9335.000000;0.755385
9334.000000;0.754148
9333.000000;0.752681
9332.000000;0.751600
9331.000000;0.751218
9330.000000;0.751343
9329.000000;0.751596
9328.000000;0.751763
9327.000000;0.751807
9326.000000;0.751660
9325.000000;0.751171
9324.000000;0.750274
9323.000000;0.749135
9322.000000;0.748103
9321.000000;0.747469
9320.000000;0.747262
9319.000000;0.747238
9318.000000;0.747081
9317.000000;0.746650
9316.000000;0.746072
9315.000000;0.745573
9314.000000;0.745205
9313.000000;0.744778
9312.000000;0.744096
9311.000000;0.743227
9310.000000;0.742450
9309.000000;0.741945
9308.000000;0.741644
9307.000000;0.741396
9306.000000;0.741140
9305.000000;0.740856
9304.000000;0.740474
9303.000000;0.739961
9302.000000;0.739398
9301.000000;0.738857
9300.000000;0.738298
9299.000000;0.737682
9298.000000;0.737099
9297.000000;0.736642
9296.000000;0.736229
9295.000000;0.735732
9294.000000;0.735203
9293.000000;0.734780
9292.000000;0.734397
9291.000000;0.733832
9290.000000;0.733053
9289.000000;0.732293
9288.000000;0.731731
9287.000000;0.731348
9286.000000;0.731160
9285.000000;0.731336
9284.000000;0.731898
9283.000000;0.732469
9282.000000;0.732554
9281.000000;0.732019
9280.000000;0.731137
9279.000000;0.730266
9278.000000;0.729589
9277.000000;0.729099
9276.000000;0.728649
9275.000000;0.728053
9274.000000;0.727288
9273.000000;0.726566
9272.000000;0.726093
9271.000000;0.725775
9270.000000;0.725332
9269.000000;0.724693
9268.000000;0.724108
9267.000000;0.723806
9266.000000;0.723717
9265.000000;0.723598
9264.000000;0.723357
9263.000000;0.723105
9262.000000;0.722947
9261.000000;0.722840
9260.000000;0.722681
9259.000000;0.722453
9258.000000;0.722208
9257.000000;0.721918
9256.000000;0.721423
9255.000000;0.720602
9254.000000;0.719559
9253.000000;0.718558
9252.000000;0.717819
9251.000000;0.717445
9250.000000;0.717499
9249.000000;0.717973
9248.000000;0.718601
9247.000000;0.718877
9246.000000;0.718432
9245.000000;0.717364
9244.000000;0.716145
9243.000000;0.715207
9242.000000;0.714649
9241.000000;0.714227
9240.000000;0.713583
9239.000000;0.712593
9238.000000;0.711595
9237.000000;0.711165
9236.000000;0.711504
9235.000000;0.712135
9234.000000;0.712366
9233.000000;0.711967
9232.000000;0.711223
9231.000000;0.710419
9230.000000;0.709571
9229.000000;0.708697
9228.000000;0.708033
9227.000000;0.707767
9226.000000;0.707753
9225.000000;0.707668
9224.000000;0.707343
9223.000000;0.706822
9222.000000;0.706225
9221.000000;0.705737
9220.000000;0.705629
9219.000000;0.706036
9218.000000;0.706656
9217.000000;0.706893
9216.000000;0.706415
9215.000000;0.705507
9214.000000;0.704771
9213.000000;0.704497
9212.000000;0.704426
9211.000000;0.704122
9210.000000;0.703499
9209.000000;0.702903
9208.000000;0.702671
9207.000000;0.702714
9206.000000;0.702591
9205.000000;0.701993
9204.000000;0.701066
9203.000000;0.700252
9202.000000;0.699851
9201.000000;0.699795
9200.000000;0.699813
9199.000000;0.699745
9198.000000;0.699655
9197.000000;0.699623
9196.000000;0.699496
9195.000000;0.698993
9194.000000;0.698100
9193.000000;0.697213
9192.000000;0.696739
9191.000000;0.696617
9190.000000;0.696436
9189.000000;0.695989
9188.000000;0.695481
9187.000000;0.695140
9186.000000;0.694897
9185.000000;0.694590
9184.000000;0.694297
9183.000000;0.694207
9182.000000;0.694277
9181.000000;0.694245
9180.000000;0.693960
9179.000000;0.693492
9178.000000;0.692882
9177.000000;0.692040
9176.000000;0.690958
9175.000000;0.689895
9174.000000;0.689204
9173.000000;0.689017
9172.000000;0.689142
9171.000000;0.689234
9170.000000;0.689043
9169.000000;0.688573
9168.000000;0.688067
9167.000000;0.687817
9166.000000;0.687920
9165.000000;0.688197
9164.000000;0.688319
9163.000000;0.688008
9162.000000;0.687215
9161.000000;0.686204
9160.000000;0.685412
9159.000000;0.685087
9158.000000;0.685014
9157.000000;0.684735
9156.000000;0.684066
9155.000000;0.683292
9154.000000;0.682802
9153.000000;0.682679
9152.000000;0.682712
9151.000000;0.682679
9150.000000;0.682444
9149.000000;0.681891
9148.000000;0.680970
9147.000000;0.679881
9146.000000;0.679048
9145.000000;0.678821
9144.000000;0.679202
9143.000000;0.679858
9142.000000;0.680345
9141.000000;0.680361
9140.000000;0.679905
9139.000000;0.679273
9138.000000;0.678831
9137.000000;0.678716
9136.000000;0.678738
9135.000000;0.678595
9134.000000;0.678141
9133.000000;0.677480
9132.000000;0.676858
9131.000000;0.676509
9130.000000;0.676550
9129.000000;0.676886
9128.000000;0.677225
9127.000000;0.677241
9126.000000;0.676817
9125.000000;0.676136
9124.000000;0.675509
9123.000000;0.675112
9122.000000;0.674857
9121.000000;0.674527
9120.000000;0.674005
9119.000000;0.673383
9118.000000;0.672873
9117.000000;0.672613
9116.000000;0.672547
9115.000000;0.672461
9114.000000;0.672166
9113.000000;0.671676
9112.000000;0.671209
9111.000000;0.670963
9110.000000;0.670910
9109.000000;0.670862
9108.000000;0.670730
9107.000000;0.670604
9106.000000;0.670533
9105.000000;0.670356
9104.000000;0.669887
9103.000000;0.669190
9102.000000;0.668530
9101.000000;0.668066
9100.000000;0.667758
9099.000000;0.667528
9098.000000;0.667352
9097.000000;0.667126
9096.000000;0.666680
9095.000000;0.666051
9094.000000;0.665576
9093.000000;0.665515
9092.000000;0.665666
9091.000000;0.665557
9090.000000;0.664991
9089.000000;0.664201
9088.000000;0.663527
9087.000000;0.663131
9086.000000;0.663026
9085.000000;0.663111
9084.000000;0.663118
9083.000000;0.662772
9082.000000;0.662162
9081.000000;0.661738
9080.000000;0.661729
9079.000000;0.661726
9078.000000;0.661122
9077.000000;0.659905
9076.000000;0.658747
9075.000000;0.658264
9074.000000;0.658462
9073.000000;0.658969
9072.000000;0.659591
9071.000000;0.660380
9070.000000;0.661249
9069.000000;0.661799
9068.000000;0.661665
9067.000000;0.660968
9066.000000;0.660250
9065.000000;0.659909
9064.000000;0.659771
9063.000000;0.659337
9062.000000;0.658447
9061.000000;0.657512
9060.000000;0.657032
9059.000000;0.657042
9058.000000;0.657181
9057.000000;0.657184
9056.000000;0.657034
9055.000000;0.656718
9054.000000;0.656120
9053.000000;0.655294
