Criado como novo conjunto de dados;"1909daniel.spp","-4256983.3 Secs"
cm-1;Abs
10000.000000;1.855500
9999.000000;1.859042
9998.000000;1.862462
9997.000000;1.866254
9996.000000;1.868009
9995.000000;1.865700
9994.000000;1.861505
9993.000000;1.858542
9992.000000;1.858362
9991.000000;1.859740
9990.000000;1.860546
9989.000000;1.859584
9988.000000;1.856966
9987.000000;1.853792
9986.000000;1.851676
9985.000000;1.851612
9984.000000;1.852734
9983.000000;1.852850
9982.000000;1.850761
9981.000000;1.847493
9980.000000;1.844905
9979.000000;1.843870
9978.000000;1.844278
9977.000000;1.845993
9976.000000;1.848818
9975.000000;1.851779
9974.000000;1.853310
9973.000000;1.852498
9972.000000;1.850025
9971.000000;1.847647
9970.000000;1.846699
9969.000000;1.847188
9968.000000;1.848198
9967.000000;1.848875
9966.000000;1.848826
9965.000000;1.847775
9964.000000;1.845425
9963.000000;1.841995
9962.000000;1.838495
9961.000000;1.835973
9960.000000;1.834750
9959.000000;1.834610
9958.000000;1.835177
9957.000000;1.835683
9956.000000;1.834924
9955.000000;1.832490
9954.000000;1.829817
9953.000000;1.828846
9952.000000;1.829702
9951.000000;1.830733
9950.000000;1.830846
9949.000000;1.830478
9948.000000;1.830010
9947.000000;1.828816
9946.000000;1.826703
9945.000000;1.824933
9944.000000;1.824707
9943.000000;1.825466
9942.000000;1.825835
9941.000000;1.825697
9940.000000;1.826020
9939.000000;1.826951
9938.000000;1.827391
9937.000000;1.826408
9936.000000;1.824049
9935.000000;1.820816
9934.000000;1.817588
9933.000000;1.815882
9932.000000;1.816522
9931.000000;1.818019
9930.000000;1.817806
9929.000000;1.815418
9928.000000;1.813080
9927.000000;1.812676
9926.000000;1.813486
9925.000000;1.813511
9924.000000;1.811927
9923.000000;1.809356
9922.000000;1.806620
9921.000000;1.804566
9920.000000;1.804281
9919.000000;1.805952
9918.000000;1.807843
9917.000000;1.807634
9916.000000;1.805126
9915.000000;1.802634
9914.000000;1.802193
9913.000000;1.803272
9912.000000;1.803721
9911.000000;1.802408
9910.000000;1.800322
9909.000000;1.799183
9908.000000;1.799531
9907.000000;1.800304
9906.000000;1.800076
9905.000000;1.798540
9904.000000;1.796667
9903.000000;1.795473
9902.000000;1.795067
9901.000000;1.795015
9900.000000;1.795180
9899.000000;1.795746
9898.000000;1.796547
9897.000000;1.796909
9896.000000;1.796279
9895.000000;1.794647
9894.000000;1.792288
9893.000000;1.789491
9892.000000;1.786553
9891.000000;1.783720
9890.000000;1.781199
9889.000000;1.779391
9888.000000;1.778825
9887.000000;1.779370
9886.000000;1.779762
9885.000000;1.778851
9884.000000;1.777361
9883.000000;1.777304
9882.000000;1.779323
9881.000000;1.781545
9880.000000;1.781643
9879.000000;1.779429
9878.000000;1.776627
9877.000000;1.774657
9876.000000;1.773605
9875.000000;1.773074
9874.000000;1.772899
9873.000000;1.772817
9872.000000;1.772295
9871.000000;1.770971
9870.000000;1.768965
9869.000000;1.766893
9868.000000;1.765811
9867.000000;1.766744
9866.000000;1.769622
9865.000000;1.772718
9864.000000;1.773770
9863.000000;1.772030
9862.000000;1.768839
9861.000000;1.766156
9860.000000;1.764984
9859.000000;1.765011
9858.000000;1.765060
9857.000000;1.763922
9856.000000;1.761479
9855.000000;1.759060
9854.000000;1.758090
9853.000000;1.758429
9852.000000;1.758592
9851.000000;1.757549
9850.000000;1.755608
9849.000000;1.753440
9848.000000;1.751189
9847.000000;1.748883
9846.000000;1.746835
9845.000000;1.745237
9844.000000;1.744135
9843.000000;1.744241
9842.000000;1.746821
9841.000000;1.751850
9840.000000;1.756795
9839.000000;1.758596
9838.000000;1.756954
9837.000000;1.754416
9836.000000;1.753101
9835.000000;1.752651
9834.000000;1.751600
9833.000000;1.749592
9832.000000;1.747542
9831.000000;1.746248
9830.000000;1.745668
9829.000000;1.745300
9828.000000;1.744675
9827.000000;1.743663
9826.000000;1.742680
9825.000000;1.742399
9824.000000;1.742811
9823.000000;1.742719
9822.000000;1.740877
9821.000000;1.737758
9820.000000;1.735374
9819.000000;1.735086
9818.000000;1.736209
9817.000000;1.737077
9816.000000;1.737033
9815.000000;1.736691
9814.000000;1.736523
9813.000000;1.736156
9812.000000;1.735309
9811.000000;1.734595
9810.000000;1.734729
9809.000000;1.735276
9808.000000;1.734807
9807.000000;1.732484
9806.000000;1.729137
9805.000000;1.726386
9804.000000;1.725000
9803.000000;1.724312
9802.000000;1.723089
9801.000000;1.720965
9800.000000;1.718863
9799.000000;1.718058
9798.000000;1.719116
9797.000000;1.721873
9796.000000;1.725906
9795.000000;1.730323
9794.000000;1.733515
9793.000000;1.734144
9792.000000;1.732460
9791.000000;1.730030
9790.000000;1.728180
9789.000000;1.727224
9788.000000;1.726935
9787.000000;1.726817
9786.000000;1.725867
9785.000000;1.723214
9784.000000;1.719515
9783.000000;1.716702
9782.000000;1.715819
9781.000000;1.715979
9780.000000;1.715954
9779.000000;1.715808
9778.000000;1.715975
9777.000000;1.715597
9776.000000;1.713243
9775.000000;1.709017
9774.000000;1.704635
9773.000000;1.701543
9772.000000;1.700086
9771.000000;1.700263
9770.000000;1.701972
9769.000000;1.704294
9768.000000;1.705689
9767.000000;1.705435
9766.000000;1.704091
9765.000000;1.702354
9764.000000;1.700374
9763.000000;1.698384
9762.000000;1.696965
9761.000000;1.696226
9760.000000;1.695532
9759.000000;1.694586
9758.000000;1.694179
9757.000000;1.695284
9756.000000;1.697799
9755.000000;1.700474
9754.000000;1.701729
9753.000000;1.700613
9752.000000;1.697677
9751.000000;1.694979
9750.000000;1.694371
9749.000000;1.695387
9748.000000;1.695471
9747.000000;1.692913
9746.000000;1.689022
9745.000000;1.686754
9744.000000;1.687773
9743.000000;1.691202
9742.000000;1.694427
9741.000000;1.694763
9740.000000;1.691400
9739.000000;1.686358
9738.000000;1.682824
9737.000000;1.682059
9736.000000;1.682405
9735.000000;1.681647
9734.000000;1.679717
9733.000000;1.678222
9732.000000;1.678098
9731.000000;1.679009
9730.000000;1.680462
9729.000000;1.682028
9728.000000;1.682555
9727.000000;1.680670
9726.000000;1.676595
9725.000000;1.672445
9724.000000;1.670198
9723.000000;1.670049
9722.000000;1.670867
9721.000000;1.671478
9720.000000;1.671190
9719.000000;1.669755
9718.000000;1.667595
9717.000000;1.665847
9716.000000;1.665533
9715.000000;1.666666
9714.000000;1.668388
9713.000000;1.669808
9712.000000;1.670406
9711.000000;1.669830
9710.000000;1.667919
9709.000000;1.665204
9708.000000;1.663051
9707.000000;1.662749
9706.000000;1.664151
9705.000000;1.665317
9704.000000;1.664036
9703.000000;1.660084
9702.000000;1.655616
9701.000000;1.653004
9700.000000;1.652628
9699.000000;1.652936
9698.000000;1.652360
9697.000000;1.650826
9696.000000;1.649424
9695.000000;1.649029
9694.000000;1.649526
9693.000000;1.650351
9692.000000;1.651351
9691.000000;1.652742
9690.000000;1.654298
9689.000000;1.655019
9688.000000;1.653968
9687.000000;1.651355
9686.000000;1.648467
9685.000000;1.646488
9684.000000;1.645630
9683.000000;1.645325
9682.000000;1.644863
9681.000000;1.643873
9680.000000;1.642631
9679.000000;1.641918
9678.000000;1.642185
9677.000000;1.642819
9676.000000;1.642748
9675.000000;1.642031
9674.000000;1.642137
9673.000000;1.643944
9672.000000;1.646032
9671.000000;1.645859
9670.000000;1.642674
9669.000000;1.638609
9668.000000;1.636667
9667.000000;1.637959
9666.000000;1.640821
9665.000000;1.642238
9664.000000;1.640292
9663.000000;1.635707
9662.000000;1.631196
9661.000000;1.629267
9660.000000;1.630502
9659.000000;1.633527
9658.000000;1.636230
9657.000000;1.637071
9656.000000;1.635846
9655.000000;1.633747
9654.000000;1.632497
9653.000000;1.632892
9652.000000;1.634058
9651.000000;1.634387
9650.000000;1.633205
9649.000000;1.631151
9648.000000;1.629052
9647.000000;1.627143
9646.000000;1.625517
9645.000000;1.624556
9644.000000;1.624429
9643.000000;1.624597
9642.000000;1.624342
9641.000000;1.623636
9640.000000;1.623045
9639.000000;1.622756
9638.000000;1.622072
9637.000000;1.620062
9636.000000;1.616633
9635.000000;1.612839
9634.000000;1.610200
9633.000000;1.609663
9632.000000;1.610944
9631.000000;1.612662
9630.000000;1.613322
9629.000000;1.612459
9628.000000;1.610902
9627.000000;1.609807
9626.000000;1.609479
9625.000000;1.609266
9624.000000;1.608616
9623.000000;1.607933
9622.000000;1.608109
9621.000000;1.609307
9620.000000;1.610564
9619.000000;1.610636
9618.000000;1.609024
9617.000000;1.606160
9616.000000;1.603006
9615.000000;1.600626
9614.000000;1.599661
9613.000000;1.599772
9612.000000;1.599800
9611.000000;1.598903
9610.000000;1.597479
9609.000000;1.596713
9608.000000;1.597340
9607.000000;1.599029
9606.000000;1.600763
9605.000000;1.601572
9604.000000;1.601027
9603.000000;1.599425
9602.000000;1.597594
9601.000000;1.596190
9600.000000;1.595017
9599.000000;1.593269
9598.000000;1.590534
9597.000000;1.587373
9596.000000;1.584880
9595.000000;1.583891
9594.000000;1.584611
9593.000000;1.586540
9592.000000;1.588560
9591.000000;1.589473
9590.000000;1.588935
9589.000000;1.587838
9588.000000;1.587527
9587.000000;1.588571
9586.000000;1.590324
9585.000000;1.591547
9584.000000;1.591424
9583.000000;1.590092
9582.000000;1.588269
9581.000000;1.586296
9580.000000;1.583633
9579.000000;1.579624
9578.000000;1.574808
9577.000000;1.570991
9576.000000;1.569679
9575.000000;1.570682
9574.000000;1.572538
9573.000000;1.574179
9572.000000;1.575695
9571.000000;1.577477
9570.000000;1.579300
9569.000000;1.580592
9568.000000;1.581106
9567.000000;1.580920
9566.000000;1.580107
9565.000000;1.578878
9564.000000;1.577755
9563.000000;1.577053
9562.000000;1.576364
9561.000000;1.575071
9560.000000;1.573136
9559.000000;1.570901
9558.000000;1.568383
9557.000000;1.565517
9556.000000;1.563134
9555.000000;1.562719
9554.000000;1.564568
9553.000000;1.566777
9552.000000;1.566966
9551.000000;1.564876
9550.000000;1.562518
9549.000000;1.561858
9548.000000;1.563080
9547.000000;1.564956
9546.000000;1.566204
9545.000000;1.566302
9544.000000;1.565365
9543.000000;1.563633
9542.000000;1.561170
9541.000000;1.558037
9540.000000;1.554808
9539.000000;1.552681
9538.000000;1.552550
9537.000000;1.553990
9536.000000;1.555578
9535.000000;1.556294
9534.000000;1.556293
9533.000000;1.556234
9532.000000;1.556331
9531.000000;1.556314
9530.000000;1.555893
9529.000000;1.554880
9528.000000;1.553103
9527.000000;1.550588
9526.000000;1.547854
9525.000000;1.545706
9524.000000;1.544559
9523.000000;1.544037
9522.000000;1.543307
9521.000000;1.541903
9520.000000;1.540226
9519.000000;1.539137
9518.000000;1.539143
9517.000000;1.540004
9516.000000;1.541035
9515.000000;1.541661
9514.000000;1.541676
9513.000000;1.541175
9512.000000;1.540518
9511.000000;1.540172
9510.000000;1.540224
9509.000000;1.540169
9508.000000;1.539495
9507.000000;1.538354
9506.000000;1.537214
9505.000000;1.536114
9504.000000;1.534860
9503.000000;1.533778
9502.000000;1.533570
9501.000000;1.534286
9500.000000;1.535104
9499.000000;1.535450
9498.000000;1.535717
9497.000000;1.536337
9496.000000;1.536636
9495.000000;1.535411
9494.000000;1.532556
9493.000000;1.529416
9492.000000;1.527449
9491.000000;1.527041
9490.000000;1.527659
9489.000000;1.528624
9488.000000;1.529395
9487.000000;1.529384
9486.000000;1.528054
9485.000000;1.525475
9484.000000;1.522604
9483.000000;1.520769
9482.000000;1.520710
9481.000000;1.522075
9480.000000;1.523780
9479.000000;1.524788
9478.000000;1.524685
9477.000000;1.523866
9476.000000;1.523249
9475.000000;1.523450
9474.000000;1.523972
9473.000000;1.523464
9472.000000;1.521165
9471.000000;1.517976
9470.000000;1.515667
9469.000000;1.515065
9468.000000;1.515372
9467.000000;1.515222
9466.000000;1.514109
9465.000000;1.512715
9464.000000;1.512102
9463.000000;1.512709
9462.000000;1.513959
9461.000000;1.514763
9460.000000;1.514550
9459.000000;1.513720
9458.000000;1.512849
9457.000000;1.511803
9456.000000;1.510203
9455.000000;1.508531
9454.000000;1.507871
9453.000000;1.508334
9452.000000;1.508574
9451.000000;1.507440
9450.000000;1.505617
9449.000000;1.504810
9448.000000;1.505517
9447.000000;1.506417
9446.000000;1.506040
9445.000000;1.504451
9444.000000;1.502891
9443.000000;1.502166
9442.000000;1.501912
9441.000000;1.501288
9440.000000;1.499929
9439.000000;1.498175
9438.000000;1.496678
9437.000000;1.496063
9436.000000;1.496804
9435.000000;1.498857
9434.000000;1.501288
9433.000000;1.502747
9432.000000;1.502639
9431.000000;1.501545
9430.000000;1.500275
9429.000000;1.498967
9428.000000;1.497534
9427.000000;1.496450
9426.000000;1.496336
9425.000000;1.496870
9424.000000;1.496829
9423.000000;1.495439
9422.000000;1.493281
9421.000000;1.491706
9420.000000;1.491638
9419.000000;1.492971
9418.000000;1.494680
9417.000000;1.495427
9416.000000;1.494545
9415.000000;1.492659
9414.000000;1.491033
9413.000000;1.490173
9412.000000;1.489406
9411.000000;1.487917
9410.000000;1.485932
9409.000000;1.484661
9408.000000;1.485221
9407.000000;1.487580
9406.000000;1.490340
9405.000000;1.491638
9404.000000;1.490627
9403.000000;1.488002
9402.000000;1.484830
9401.000000;1.481355
9400.000000;1.477545
9399.000000;1.474312
9398.000000;1.473108
9397.000000;1.474193
9396.000000;1.476141
9395.000000;1.477366
9394.000000;1.477425
9393.000000;1.476544
9392.000000;1.474857
9391.000000;1.472919
9390.000000;1.472095
9389.000000;1.473321
9388.000000;1.475702
9387.000000;1.477197
9386.000000;1.476760
9385.000000;1.475179
9384.000000;1.473863
9383.000000;1.473524
9382.000000;1.474025
9381.000000;1.474832
9380.000000;1.475392
9379.000000;1.475403
9378.000000;1.474937
9377.000000;1.474175
9376.000000;1.473093
9375.000000;1.471584
9374.000000;1.469769
9373.000000;1.467981
9372.000000;1.466585
9371.000000;1.465970
9370.000000;1.466445
9369.000000;1.467829
9368.000000;1.469314
9367.000000;1.470093
9366.000000;1.469999
9365.000000;1.469252
9364.000000;1.467814
9363.000000;1.465451
9362.000000;1.462357
9361.000000;1.459262
9360.000000;1.456893
9359.000000;1.455671
9358.000000;1.455918
9357.000000;1.457834
9356.000000;1.460939
9355.000000;1.463781
9354.000000;1.464655
9353.000000;1.462871
9352.000000;1.459320
9351.000000;1.455781
9350.000000;1.453631
9349.000000;1.453084
9348.000000;1.453442
9347.000000;1.453802
9346.000000;1.453482
9345.000000;1.452128
9344.000000;1.449938
9343.000000;1.447814
9342.000000;1.446793
9341.000000;1.447079
9340.000000;1.447942
9339.000000;1.448775
9338.000000;1.449890
9337.000000;1.451884
9336.000000;1.454501
9335.000000;1.456591
9334.000000;1.457140
9333.000000;1.456035
9332.000000;1.453839
9331.000000;1.451272
9330.000000;1.449025
9329.000000;1.447670
9328.000000;1.447476
9327.000000;1.448260
9326.000000;1.449367
9325.000000;1.449838
9324.000000;1.448902
9323.000000;1.446661
9322.000000;1.444247
9321.000000;1.443024
9320.000000;1.443492
9319.000000;1.444912
9318.000000;1.445982
9317.000000;1.445869
9316.000000;1.444662
9315.000000;1.442994
9314.000000;1.441364
9313.000000;1.439904
9312.000000;1.438696
9311.000000;1.437984
9310.000000;1.437717
9309.000000;1.437135
9308.000000;1.435467
9307.000000;1.433119
9306.000000;1.431510
9305.000000;1.431468
9304.000000;1.432280
9303.000000;1.432641
9302.000000;1.432195
9301.000000;1.431667
9300.000000;1.431675
9299.000000;1.431891
9298.000000;1.431447
9297.000000;1.429940
9296.000000;1.428005
9295.000000;1.426933
9294.000000;1.427512
9293.000000;1.429231
9292.000000;1.430857
9291.000000;1.431766
9290.000000;1.432256
9289.000000;1.432480
9288.000000;1.431849
9287.000000;1.430001
9286.000000;1.427833
9285.000000;1.426882
9284.000000;1.427810
9283.000000;1.429869
9282.000000;1.431653
9281.000000;1.432038
9280.000000;1.430638
9279.000000;1.427983
9278.000000;1.425297
9277.000000;1.423656
9276.000000;1.423183
9275.000000;1.423182
9274.000000;1.423052
9273.000000;1.422882
9272.000000;1.423088
9271.000000;1.423632
9270.000000;1.423831
9269.000000;1.423061
9268.000000;1.421629
9267.000000;1.420660
9266.000000;1.420839
9265.000000;1.421501
9264.000000;1.421430
9263.000000;1.420433
9262.000000;1.419478
9261.000000;1.419249
9260.000000;1.419363
9259.000000;1.419220
9258.000000;1.418871
9257.000000;1.418608
9256.000000;1.418371
9255.000000;1.418183
9254.000000;1.418599
9253.000000;1.419913
9252.000000;1.421226
9251.000000;1.421180
9250.000000;1.419595
9249.000000;1.417660
9248.000000;1.416475
9247.000000;1.416034
9246.000000;1.415715
9245.000000;1.415230
9244.000000;1.414828
9243.000000;1.414735
9242.000000;1.414604
9241.000000;1.413668
9240.000000;1.411694
9239.000000;1.409670
9238.000000;1.409015
9237.000000;1.409834
9236.000000;1.410446
9235.000000;1.409174
9234.000000;1.406342
9233.000000;1.403961
9232.000000;1.403719
9231.000000;1.405714
9230.000000;1.408729
9229.000000;1.411101
9228.000000;1.411560
9227.000000;1.409952
9226.000000;1.407283
9225.000000;1.404799
9224.000000;1.403056
9223.000000;1.402009
9222.000000;1.401604
9221.000000;1.401812
9220.000000;1.402324
9219.000000;1.402706
9218.000000;1.402685
9217.000000;1.401991
9216.000000;1.400344
9215.000000;1.398182
9214.000000;1.396962
9213.000000;1.397882
9212.000000;1.400341
9211.000000;1.402356
9210.000000;1.402612
9209.000000;1.401490
9208.000000;1.400008
9207.000000;1.398695
9206.000000;1.397714
9205.000000;1.397140
9204.000000;1.396736
9203.000000;1.396065
9202.000000;1.395109
9201.000000;1.394325
9200.000000;1.394030
9199.000000;1.394202
9198.000000;1.394843
9197.000000;1.395840
9196.000000;1.396403
9195.000000;1.395530
9194.000000;1.393379
9193.000000;1.391448
9192.000000;1.390960
9191.000000;1.391649
9190.000000;1.392537
9189.000000;1.393263
9188.000000;1.393959
9187.000000;1.394291
9186.000000;1.393545
9185.000000;1.391663
9184.000000;1.389596
9183.000000;1.388471
9182.000000;1.388676
9181.000000;1.389700
9180.000000;1.390612
9179.000000;1.390808
9178.000000;1.390495
9177.000000;1.390343
9176.000000;1.390541
9175.000000;1.390430
9174.000000;1.389286
9173.000000;1.387301
9172.000000;1.385490
9171.000000;1.384733
9170.000000;1.385162
9169.000000;1.386316
9168.000000;1.387600
9167.000000;1.388625
9166.000000;1.389314
9165.000000;1.389790
9164.000000;1.390135
9163.000000;1.390259
9162.000000;1.389958
9161.000000;1.388985
9160.000000;1.387097
9159.000000;1.384343
9158.000000;1.381399
9157.000000;1.379300
9156.000000;1.378693
9155.000000;1.379381
9154.000000;1.380583
9153.000000;1.381501
9152.000000;1.381746
9151.000000;1.381490
9150.000000;1.381253
9149.000000;1.381329
9148.000000;1.381431
9147.000000;1.381085
9146.000000;1.380315
9145.000000;1.379571
9144.000000;1.379030
9143.000000;1.378444
9142.000000;1.377788
9141.000000;1.377500
9140.000000;1.377797
9139.000000;1.378203
9138.000000;1.378124
9137.000000;1.377519
9136.000000;1.376633
9135.000000;1.375462
9134.000000;1.373998
9133.000000;1.372720
9132.000000;1.372216
9131.000000;1.372381
9130.000000;1.372525
9129.000000;1.372259
9128.000000;1.371872
9127.000000;1.371884
9126.000000;1.372639
9125.000000;1.374259
9124.000000;1.376417
9123.000000;1.378083
9122.000000;1.378106
9121.000000;1.376383
9120.000000;1.374065
9119.000000;1.372374
9118.000000;1.371557
9117.000000;1.371210
9116.000000;1.371224
9115.000000;1.371874
9114.000000;1.373075
9113.000000;1.374116
9112.000000;1.374378
9111.000000;1.374059
9110.000000;1.373898
9109.000000;1.374267
9108.000000;1.374770
9107.000000;1.374741
9106.000000;1.374040
9105.000000;1.373214
9104.000000;1.372859
9103.000000;1.372886
9102.000000;1.372572
9101.000000;1.371313
9100.000000;1.369155
9099.000000;1.366574
9098.000000;1.364005
9097.000000;1.361826
9096.000000;1.360592
9095.000000;1.360794
9094.000000;1.362256
9093.000000;1.364068
9092.000000;1.365386
9091.000000;1.366137
9090.000000;1.366673
9089.000000;1.366930
9088.000000;1.366426
9087.000000;1.365155
9086.000000;1.363949
9085.000000;1.363503
9084.000000;1.363327
9083.000000;1.362292
9082.000000;1.360348
9081.000000;1.359047
9080.000000;1.359864
9079.000000;1.362313
9078.000000;1.364263
9077.000000;1.364171
9076.000000;1.362511
9075.000000;1.360824
9074.000000;1.360039
9073.000000;1.360161
9072.000000;1.360996
9071.000000;1.362310
9070.000000;1.363429
9069.000000;1.363540
9068.000000;1.362643
9067.000000;1.361556
9066.000000;1.360773
9065.000000;1.359907
9064.000000;1.358625
9063.000000;1.357497
9062.000000;1.357296
9061.000000;1.357796
9060.000000;1.357905
9059.000000;1.356885
9058.000000;1.355009
9057.000000;1.353137
9056.000000;1.352113
9055.000000;1.352448
9054.000000;1.353949
9053.000000;1.355598
