Criado como novo conjunto de dados;"1909daniel.spp","-4254103.1 Secs"
cm-1;Abs
10000.000000;1.836018
9999.000000;1.836525
9998.000000;1.837034
9997.000000;1.837542
9996.000000;1.838053
9995.000000;1.838561
9994.000000;1.839075
9993.000000;1.839580
9992.000000;1.840116
9991.000000;1.839618
9990.000000;1.837886
9989.000000;1.836672
9988.000000;1.837783
9987.000000;1.840973
9986.000000;1.844015
9985.000000;1.844898
9984.000000;1.843810
9983.000000;1.842679
9982.000000;1.842769
9981.000000;1.843255
9980.000000;1.842444
9979.000000;1.839957
9978.000000;1.837080
9977.000000;1.835145
9976.000000;1.834562
9975.000000;1.835421
9974.000000;1.837868
9973.000000;1.841190
9972.000000;1.843421
9971.000000;1.843003
9970.000000;1.840583
9969.000000;1.838253
9968.000000;1.837166
9967.000000;1.836588
9966.000000;1.835134
9965.000000;1.832185
9964.000000;1.828172
9963.000000;1.824397
9962.000000;1.822509
9961.000000;1.823060
9960.000000;1.824442
9959.000000;1.824278
9958.000000;1.822366
9957.000000;1.821127
9956.000000;1.822346
9955.000000;1.824500
9954.000000;1.824549
9953.000000;1.821933
9952.000000;1.819116
9951.000000;1.818183
9950.000000;1.818525
9949.000000;1.818028
9948.000000;1.815606
9947.000000;1.812214
9946.000000;1.809809
9945.000000;1.809826
9944.000000;1.812216
9943.000000;1.815418
9942.000000;1.817489
9941.000000;1.817681
9940.000000;1.816841
9939.000000;1.816282
9938.000000;1.816571
9937.000000;1.817262
9936.000000;1.817202
9935.000000;1.815173
9934.000000;1.811046
9933.000000;1.806626
9932.000000;1.804738
9931.000000;1.806771
9930.000000;1.811179
9929.000000;1.814759
9928.000000;1.815332
9927.000000;1.812942
9926.000000;1.808871
9925.000000;1.804438
9924.000000;1.800682
9923.000000;1.798177
9922.000000;1.796644
9921.000000;1.795127
9920.000000;1.792927
9919.000000;1.790559
9918.000000;1.789478
9917.000000;1.790534
9916.000000;1.792737
9915.000000;1.793799
9914.000000;1.792303
9913.000000;1.789233
9912.000000;1.786860
9911.000000;1.786174
9910.000000;1.786040
9909.000000;1.785128
9908.000000;1.783895
9907.000000;1.783933
9906.000000;1.785737
9905.000000;1.787933
9904.000000;1.788779
9903.000000;1.787703
9902.000000;1.785337
9901.000000;1.782867
9900.000000;1.781571
9899.000000;1.782185
9898.000000;1.784170
9897.000000;1.786041
9896.000000;1.786560
9895.000000;1.785468
9894.000000;1.783225
9893.000000;1.780490
9892.000000;1.778354
9891.000000;1.778118
9890.000000;1.779769
9889.000000;1.781486
9888.000000;1.781534
9887.000000;1.780345
9886.000000;1.779927
9885.000000;1.781245
9884.000000;1.782955
9883.000000;1.783032
9882.000000;1.781194
9881.000000;1.779109
9880.000000;1.778344
9879.000000;1.778726
9878.000000;1.778775
9877.000000;1.777353
9876.000000;1.774595
9875.000000;1.771288
9874.000000;1.767716
9873.000000;1.763677
9872.000000;1.759616
9871.000000;1.756944
9870.000000;1.756657
9869.000000;1.757987
9868.000000;1.759092
9867.000000;1.759131
9866.000000;1.758996
9865.000000;1.759787
9864.000000;1.761224
9863.000000;1.761965
9862.000000;1.761153
9861.000000;1.759163
9860.000000;1.756949
9859.000000;1.755177
9858.000000;1.754044
9857.000000;1.753478
9856.000000;1.753314
9855.000000;1.753409
9854.000000;1.753579
9853.000000;1.753419
9852.000000;1.752406
9851.000000;1.750434
9850.000000;1.748243
9849.000000;1.747014
9848.000000;1.747235
9847.000000;1.747999
9846.000000;1.747717
9845.000000;1.745649
9844.000000;1.742658
9843.000000;1.740375
9842.000000;1.739506
9841.000000;1.739239
9840.000000;1.738554
9839.000000;1.737656
9838.000000;1.737489
9837.000000;1.738105
9836.000000;1.738422
9835.000000;1.737851
9834.000000;1.737325
9833.000000;1.738044
9832.000000;1.739657
9831.000000;1.740418
9830.000000;1.739060
9829.000000;1.735873
9828.000000;1.732027
9827.000000;1.728602
9826.000000;1.726289
9825.000000;1.725237
9824.000000;1.724866
9823.000000;1.724320
9822.000000;1.723475
9821.000000;1.723221
9820.000000;1.724344
9819.000000;1.726332
9818.000000;1.727630
9817.000000;1.727140
9816.000000;1.725206
9815.000000;1.723077
9814.000000;1.721616
9813.000000;1.720560
9812.000000;1.718990
9811.000000;1.716512
9810.000000;1.713898
9809.000000;1.712462
9808.000000;1.712888
9807.000000;1.714773
9806.000000;1.717249
9805.000000;1.719669
9804.000000;1.721457
9803.000000;1.721737
9802.000000;1.719875
9801.000000;1.716421
9800.000000;1.712905
9799.000000;1.710354
9798.000000;1.708357
9797.000000;1.705945
9796.000000;1.703217
9795.000000;1.701513
9794.000000;1.701891
9793.000000;1.703850
9792.000000;1.705909
9791.000000;1.707358
9790.000000;1.708906
9789.000000;1.711393
9788.000000;1.714273
9787.000000;1.715837
9786.000000;1.714953
9785.000000;1.712244
9784.000000;1.709413
9783.000000;1.707743
9782.000000;1.707310
9781.000000;1.707211
9780.000000;1.706254
9779.000000;1.703618
9778.000000;1.699468
9777.000000;1.695168
9776.000000;1.692556
9775.000000;1.692632
9774.000000;1.694687
9773.000000;1.696618
9772.000000;1.696411
9771.000000;1.693715
9770.000000;1.690099
9769.000000;1.687751
9768.000000;1.687826
9767.000000;1.689861
9766.000000;1.692454
9765.000000;1.694306
9764.000000;1.694796
9763.000000;1.693984
9762.000000;1.692345
9761.000000;1.690474
9760.000000;1.688796
9759.000000;1.687452
9758.000000;1.686397
9757.000000;1.685432
9756.000000;1.684201
9755.000000;1.682515
9754.000000;1.680959
9753.000000;1.680908
9752.000000;1.683379
9751.000000;1.687597
9750.000000;1.690999
9749.000000;1.691241
9748.000000;1.688360
9747.000000;1.684587
9746.000000;1.681991
9745.000000;1.680772
9744.000000;1.679811
9743.000000;1.678295
9742.000000;1.676542
9741.000000;1.675437
9740.000000;1.675387
9739.000000;1.675983
9738.000000;1.676430
9737.000000;1.676010
9736.000000;1.674359
9735.000000;1.671808
9734.000000;1.669407
9733.000000;1.668002
9732.000000;1.667082
9731.000000;1.665127
9730.000000;1.661594
9729.000000;1.658001
9728.000000;1.656365
9727.000000;1.657002
9726.000000;1.658586
9725.000000;1.660041
9724.000000;1.661310
9723.000000;1.662195
9722.000000;1.661736
9721.000000;1.659638
9720.000000;1.657294
9719.000000;1.656324
9718.000000;1.656638
9717.000000;1.656892
9716.000000;1.656496
9715.000000;1.656155
9714.000000;1.656444
9713.000000;1.656987
9712.000000;1.657265
9711.000000;1.657300
9710.000000;1.657260
9709.000000;1.657083
9708.000000;1.656661
9707.000000;1.655731
9706.000000;1.653469
9705.000000;1.649145
9704.000000;1.643724
9703.000000;1.639884
9702.000000;1.639621
9701.000000;1.642261
9700.000000;1.645238
9699.000000;1.646503
9698.000000;1.645816
9697.000000;1.644208
9696.000000;1.643007
9695.000000;1.643043
9694.000000;1.643876
9693.000000;1.643939
9692.000000;1.642287
9691.000000;1.639998
9690.000000;1.638820
9689.000000;1.638725
9688.000000;1.638051
9687.000000;1.636249
9686.000000;1.635030
9685.000000;1.635980
9684.000000;1.638072
9683.000000;1.638542
9682.000000;1.635940
9681.000000;1.631561
9680.000000;1.628019
9679.000000;1.627144
9678.000000;1.628948
9677.000000;1.631759
9676.000000;1.633418
9675.000000;1.632958
9674.000000;1.631205
9673.000000;1.629574
9672.000000;1.628653
9671.000000;1.628159
9670.000000;1.627686
9669.000000;1.626882
9668.000000;1.625316
9667.000000;1.622906
9666.000000;1.620375
9665.000000;1.618622
9664.000000;1.617709
9663.000000;1.616999
9662.000000;1.616194
9661.000000;1.615552
9660.000000;1.615079
9659.000000;1.614337
9658.000000;1.613284
9657.000000;1.612651
9656.000000;1.613058
9655.000000;1.614162
9654.000000;1.615055
9653.000000;1.615230
9652.000000;1.614841
9651.000000;1.614408
9650.000000;1.614615
9649.000000;1.615925
9648.000000;1.617861
9647.000000;1.618945
9646.000000;1.618022
9645.000000;1.615620
9644.000000;1.613369
9643.000000;1.612046
9642.000000;1.610730
9641.000000;1.608145
9640.000000;1.604610
9639.000000;1.602120
9638.000000;1.602347
9637.000000;1.604955
9636.000000;1.607963
9635.000000;1.609537
9634.000000;1.609324
9633.000000;1.608161
9632.000000;1.607073
9631.000000;1.606872
9630.000000;1.608106
9629.000000;1.610543
9628.000000;1.612691
9627.000000;1.612645
9626.000000;1.609904
9625.000000;1.605868
9624.000000;1.602225
9623.000000;1.599371
9622.000000;1.596747
9621.000000;1.594185
9620.000000;1.592170
9619.000000;1.590845
9618.000000;1.589644
9617.000000;1.588222
9616.000000;1.587102
9615.000000;1.586936
9614.000000;1.587459
9613.000000;1.587680
9612.000000;1.587133
9611.000000;1.586414
9610.000000;1.586327
9609.000000;1.586941
9608.000000;1.587762
9607.000000;1.588492
9606.000000;1.589116
9605.000000;1.589345
9604.000000;1.588637
9603.000000;1.587028
9602.000000;1.585458
9601.000000;1.584718
9600.000000;1.584342
9599.000000;1.583111
9598.000000;1.580614
9597.000000;1.577832
9596.000000;1.576099
9595.000000;1.575833
9594.000000;1.576382
9593.000000;1.576878
9592.000000;1.577009
9591.000000;1.576942
9590.000000;1.576690
9589.000000;1.575813
9588.000000;1.573929
9587.000000;1.571419
9586.000000;1.569296
9585.000000;1.568275
9584.000000;1.568318
9583.000000;1.569172
9582.000000;1.570766
9581.000000;1.572577
9580.000000;1.573165
9579.000000;1.571382
9578.000000;1.568057
9577.000000;1.565560
9576.000000;1.565394
9575.000000;1.566840
9574.000000;1.568197
9573.000000;1.568702
9572.000000;1.568688
9571.000000;1.568472
9570.000000;1.568031
9569.000000;1.567459
9568.000000;1.566960
9567.000000;1.566454
9566.000000;1.565700
9565.000000;1.564726
9564.000000;1.563705
9563.000000;1.562575
9562.000000;1.561235
9561.000000;1.559896
9560.000000;1.558772
9559.000000;1.557708
9558.000000;1.556739
9557.000000;1.556722
9556.000000;1.558492
9555.000000;1.561239
9554.000000;1.562556
9553.000000;1.560739
9552.000000;1.556575
9551.000000;1.552420
9550.000000;1.550016
9549.000000;1.549506
9548.000000;1.549990
9547.000000;1.550492
9546.000000;1.550535
9545.000000;1.550181
9544.000000;1.549583
9543.000000;1.548616
9542.000000;1.547293
9541.000000;1.546352
9540.000000;1.546704
9539.000000;1.548061
9538.000000;1.548729
9537.000000;1.547328
9536.000000;1.544457
9535.000000;1.542095
9534.000000;1.541466
9533.000000;1.541980
9532.000000;1.542170
9531.000000;1.541302
9530.000000;1.539961
9529.000000;1.539324
9528.000000;1.539927
9527.000000;1.540951
9526.000000;1.540795
9525.000000;1.538700
9524.000000;1.535762
9523.000000;1.534066
9522.000000;1.534790
9521.000000;1.537146
9520.000000;1.539005
9519.000000;1.538656
9518.000000;1.536182
9517.000000;1.533204
9516.000000;1.531273
9515.000000;1.530592
9514.000000;1.530349
9513.000000;1.530051
9512.000000;1.529973
9511.000000;1.530240
9510.000000;1.530174
9509.000000;1.529132
9508.000000;1.527618
9507.000000;1.526903
9506.000000;1.527536
9505.000000;1.528692
9504.000000;1.529094
9503.000000;1.528269
9502.000000;1.526768
9501.000000;1.525528
9500.000000;1.525004
9499.000000;1.524635
9498.000000;1.523368
9497.000000;1.520959
9496.000000;1.518515
9495.000000;1.517318
9494.000000;1.517303
9493.000000;1.517219
9492.000000;1.516233
9491.000000;1.514781
9490.000000;1.513828
9489.000000;1.513928
9488.000000;1.515089
9487.000000;1.516840
9486.000000;1.518133
9485.000000;1.517870
9484.000000;1.516109
9483.000000;1.514361
9482.000000;1.514093
9481.000000;1.515078
9480.000000;1.515761
9479.000000;1.515156
9478.000000;1.513887
9477.000000;1.513258
9476.000000;1.513649
9475.000000;1.513979
9474.000000;1.512692
9473.000000;1.509383
9472.000000;1.505399
9471.000000;1.502587
9470.000000;1.501562
9469.000000;1.501597
9468.000000;1.502138
9467.000000;1.503555
9466.000000;1.505894
9465.000000;1.507620
9464.000000;1.506734
9463.000000;1.503185
9462.000000;1.499231
9461.000000;1.497151
9460.000000;1.497251
9459.000000;1.498176
9458.000000;1.498665
9457.000000;1.498792
9456.000000;1.499689
9455.000000;1.502159
9454.000000;1.505386
9453.000000;1.507126
9452.000000;1.505727
9451.000000;1.501933
9450.000000;1.498196
9449.000000;1.496319
9448.000000;1.496265
9447.000000;1.496926
9446.000000;1.497353
9445.000000;1.497098
9444.000000;1.496047
9443.000000;1.494462
9442.000000;1.492894
9441.000000;1.491652
9440.000000;1.490527
9439.000000;1.489233
9438.000000;1.487859
9437.000000;1.486674
9436.000000;1.485872
9435.000000;1.485729
9434.000000;1.486612
9433.000000;1.488316
9432.000000;1.489680
9431.000000;1.489464
9430.000000;1.487591
9429.000000;1.485130
9428.000000;1.483221
9427.000000;1.482364
9426.000000;1.482437
9425.000000;1.482853
9424.000000;1.482729
9423.000000;1.481428
9422.000000;1.479237
9421.000000;1.477397
9420.000000;1.477204
9419.000000;1.478946
9418.000000;1.481604
9417.000000;1.483465
9416.000000;1.483235
9415.000000;1.480894
9414.000000;1.477584
9413.000000;1.474663
9412.000000;1.472901
9411.000000;1.472432
9410.000000;1.473085
9409.000000;1.474468
9408.000000;1.475848
9407.000000;1.476416
9406.000000;1.475821
9405.000000;1.474328
9404.000000;1.472463
9403.000000;1.470585
9402.000000;1.468749
9401.000000;1.466843
9400.000000;1.464905
9399.000000;1.463368
9398.000000;1.462869
9397.000000;1.463659
9396.000000;1.465254
9395.000000;1.466788
9394.000000;1.467596
9393.000000;1.467455
9392.000000;1.466531
9391.000000;1.465318
9390.000000;1.464444
9389.000000;1.464229
9388.000000;1.464406
9387.000000;1.464451
9386.000000;1.464095
9385.000000;1.463382
9384.000000;1.462487
9383.000000;1.461754
9382.000000;1.461684
9381.000000;1.462458
9380.000000;1.463546
9379.000000;1.464120
9378.000000;1.463828
9377.000000;1.462869
9376.000000;1.461569
9375.000000;1.460316
9374.000000;1.459673
9373.000000;1.459903
9372.000000;1.460385
9371.000000;1.460112
9370.000000;1.458947
9369.000000;1.457836
9368.000000;1.457537
9367.000000;1.457659
9366.000000;1.457215
9365.000000;1.455793
9364.000000;1.453887
9363.000000;1.452355
9362.000000;1.451778
9361.000000;1.452031
9360.000000;1.452214
9359.000000;1.451354
9358.000000;1.449540
9357.000000;1.448039
9356.000000;1.447918
9355.000000;1.448817
9354.000000;1.449449
9353.000000;1.449081
9352.000000;1.448128
9351.000000;1.447367
9350.000000;1.447024
9349.000000;1.446755
9348.000000;1.446220
9347.000000;1.445467
9346.000000;1.444866
9345.000000;1.444748
9344.000000;1.444988
9343.000000;1.444912
9342.000000;1.443813
9341.000000;1.441712
9340.000000;1.439511
9339.000000;1.438260
9338.000000;1.438302
9337.000000;1.439146
9336.000000;1.440081
9335.000000;1.440841
9334.000000;1.441587
9333.000000;1.442302
9332.000000;1.442400
9331.000000;1.441240
9330.000000;1.439062
9329.000000;1.437122
9328.000000;1.436552
9327.000000;1.437060
9326.000000;1.436920
9325.000000;1.434572
9324.000000;1.430384
9323.000000;1.426586
9322.000000;1.425295
9321.000000;1.426630
9320.000000;1.428775
9319.000000;1.429877
9318.000000;1.429716
9317.000000;1.429407
9316.000000;1.429868
9315.000000;1.431015
9314.000000;1.432141
9313.000000;1.432532
9312.000000;1.431731
9311.000000;1.429734
9310.000000;1.427106
9309.000000;1.424609
9308.000000;1.422660
9307.000000;1.421387
9306.000000;1.421105
9305.000000;1.422129
9304.000000;1.423949
9303.000000;1.425221
9302.000000;1.425068
9301.000000;1.424004
9300.000000;1.423201
9299.000000;1.423133
9298.000000;1.423343
9297.000000;1.423233
9296.000000;1.422592
9295.000000;1.421509
9294.000000;1.420317
9293.000000;1.419671
9292.000000;1.420165
9291.000000;1.421622
9290.000000;1.422995
9289.000000;1.423137
9288.000000;1.421628
9287.000000;1.419011
9286.000000;1.416440
9285.000000;1.415102
9284.000000;1.415647
9283.000000;1.417767
9282.000000;1.420176
9281.000000;1.421270
9280.000000;1.420227
9279.000000;1.417724
9278.000000;1.415410
9277.000000;1.414447
9276.000000;1.414527
9275.000000;1.414407
9274.000000;1.413368
9273.000000;1.411927
9272.000000;1.411090
9271.000000;1.411288
9270.000000;1.412193
9269.000000;1.413146
9268.000000;1.413409
9267.000000;1.412352
9266.000000;1.410016
9265.000000;1.407531
9264.000000;1.406429
9263.000000;1.407302
9262.000000;1.409221
9261.000000;1.410544
9260.000000;1.410334
9259.000000;1.408976
9258.000000;1.407442
9257.000000;1.406229
9256.000000;1.405177
9255.000000;1.404177
9254.000000;1.403645
9253.000000;1.403941
9252.000000;1.404504
9251.000000;1.404225
9250.000000;1.402965
9249.000000;1.402094
9248.000000;1.402975
9247.000000;1.405193
9246.000000;1.406813
9245.000000;1.406343
9244.000000;1.404112
9243.000000;1.401711
9242.000000;1.400549
9241.000000;1.400990
9240.000000;1.402318
9239.000000;1.403365
9238.000000;1.403491
9237.000000;1.403070
9236.000000;1.402779
9235.000000;1.402477
9234.000000;1.401344
9233.000000;1.399177
9232.000000;1.396953
9231.000000;1.395746
9230.000000;1.395571
9229.000000;1.395752
9228.000000;1.396028
9227.000000;1.396659
9226.000000;1.397517
9225.000000;1.397777
9224.000000;1.396865
9223.000000;1.395326
9222.000000;1.394257
9221.000000;1.393982
9220.000000;1.393674
9219.000000;1.392439
9218.000000;1.390530
9217.000000;1.389150
9216.000000;1.389194
9215.000000;1.390454
9214.000000;1.391878
9213.000000;1.392264
9212.000000;1.390823
9211.000000;1.387751
9210.000000;1.384578
9209.000000;1.383355
9208.000000;1.384776
9207.000000;1.387214
9206.000000;1.388234
9205.000000;1.387149
9204.000000;1.385493
9203.000000;1.384924
9202.000000;1.385540
9201.000000;1.386461
9200.000000;1.387218
9199.000000;1.387935
9198.000000;1.388667
9197.000000;1.389209
9196.000000;1.389325
9195.000000;1.388681
9194.000000;1.386854
9193.000000;1.383995
9192.000000;1.381265
9191.000000;1.379941
9190.000000;1.380151
9189.000000;1.381001
9188.000000;1.381805
9187.000000;1.382572
9186.000000;1.383298
9185.000000;1.383578
9184.000000;1.383328
9183.000000;1.383256
9182.000000;1.383908
9181.000000;1.384558
9180.000000;1.383767
9179.000000;1.381165
9178.000000;1.378110
9177.000000;1.376288
9176.000000;1.375971
9175.000000;1.375933
9174.000000;1.375064
9173.000000;1.373778
9172.000000;1.373487
9171.000000;1.374746
9170.000000;1.376380
9169.000000;1.376765
9168.000000;1.375736
9167.000000;1.374705
9166.000000;1.374869
9165.000000;1.375925
9164.000000;1.376748
9163.000000;1.376729
9162.000000;1.375970
9161.000000;1.374590
9160.000000;1.372644
9159.000000;1.370717
9158.000000;1.369900
9157.000000;1.370763
9156.000000;1.372609
9155.000000;1.373957
9154.000000;1.373770
9153.000000;1.372242
9152.000000;1.370610
9151.000000;1.370221
9150.000000;1.371436
9149.000000;1.373171
9148.000000;1.373750
9147.000000;1.372505
9146.000000;1.370346
9145.000000;1.368548
9144.000000;1.367374
9143.000000;1.366262
9142.000000;1.365096
9141.000000;1.364601
9140.000000;1.365290
9139.000000;1.366561
9138.000000;1.367231
9137.000000;1.366770
9136.000000;1.365644
9135.000000;1.364554
9134.000000;1.363734
9133.000000;1.362997
9132.000000;1.362190
9131.000000;1.361493
9130.000000;1.361336
9129.000000;1.362055
9128.000000;1.363542
9127.000000;1.365152
9126.000000;1.366021
9125.000000;1.365614
9124.000000;1.364118
9123.000000;1.362345
9122.000000;1.361166
9121.000000;1.360840
9120.000000;1.360754
9119.000000;1.359952
9118.000000;1.358248
9117.000000;1.356751
9116.000000;1.356948
9115.000000;1.359161
9114.000000;1.362072
9113.000000;1.363904
9112.000000;1.364010
9111.000000;1.363084
9110.000000;1.362002
9109.000000;1.360921
9108.000000;1.359617
9107.000000;1.358199
9106.000000;1.357010
9105.000000;1.355974
9104.000000;1.354566
9103.000000;1.352675
9102.000000;1.351154
9101.000000;1.351097
9100.000000;1.352569
9099.000000;1.354329
9098.000000;1.354961
9097.000000;1.354182
9096.000000;1.352878
9095.000000;1.351993
9094.000000;1.351734
9093.000000;1.351794
9092.000000;1.351988
9091.000000;1.352508
9090.000000;1.353574
9089.000000;1.354894
9088.000000;1.355544
9087.000000;1.354589
9086.000000;1.352013
9085.000000;1.348982
9084.000000;1.346962
9083.000000;1.346539
9082.000000;1.347135
9081.000000;1.347831
9080.000000;1.348243
9079.000000;1.348528
9078.000000;1.348835
9077.000000;1.349158
9076.000000;1.349579
9075.000000;1.350230
9074.000000;1.350878
9073.000000;1.350921
9072.000000;1.350072
9071.000000;1.348899
9070.000000;1.348341
9069.000000;1.348728
9068.000000;1.349455
9067.000000;1.349623
9066.000000;1.348883
9065.000000;1.347673
9064.000000;1.346750
9063.000000;1.346520
9062.000000;1.346778
9061.000000;1.347091
9060.000000;1.347322
9059.000000;1.347528
9058.000000;1.347395
9057.000000;1.346195
9056.000000;1.343706
9055.000000;1.340974
9054.000000;1.339633
9053.000000;1.340358
