Criado como novo conjunto de dados;"1909daniel.spp","-4232682.0 Secs"
cm-1;Abs
10000.000000;1.499469
9999.000000;1.497123
9998.000000;1.495369
9997.000000;1.495176
9996.000000;1.496497
9995.000000;1.498248
9994.000000;1.499351
9993.000000;1.499445
9992.000000;1.498704
9991.000000;1.497277
9990.000000;1.495344
9989.000000;1.493445
9988.000000;1.492370
9987.000000;1.492588
9986.000000;1.493890
9985.000000;1.495512
9984.000000;1.496447
9983.000000;1.495764
9982.000000;1.493075
9981.000000;1.489052
9980.000000;1.485331
9979.000000;1.483433
9978.000000;1.483522
9977.000000;1.484340
9976.000000;1.484522
9975.000000;1.483929
9974.000000;1.483474
9973.000000;1.483826
9972.000000;1.484666
9971.000000;1.485137
9970.000000;1.484611
9969.000000;1.482974
9968.000000;1.480620
9967.000000;1.478437
9966.000000;1.477441
9965.000000;1.477980
9964.000000;1.479253
9963.000000;1.479848
9962.000000;1.478923
9961.000000;1.476713
9960.000000;1.474028
9959.000000;1.471597
9958.000000;1.469844
9957.000000;1.468901
9956.000000;1.468709
9955.000000;1.469117
9954.000000;1.469893
9953.000000;1.470689
9952.000000;1.471145
9951.000000;1.471096
9950.000000;1.470614
9949.000000;1.469695
9948.000000;1.468087
9947.000000;1.465725
9946.000000;1.463318
9945.000000;1.462107
9944.000000;1.462745
9943.000000;1.464527
9942.000000;1.465873
9941.000000;1.465576
9940.000000;1.463613
9939.000000;1.460970
9938.000000;1.458934
9937.000000;1.458409
9936.000000;1.459375
9935.000000;1.460711
9934.000000;1.460847
9933.000000;1.459096
9932.000000;1.456367
9931.000000;1.454357
9930.000000;1.454011
9929.000000;1.454853
9928.000000;1.455607
9927.000000;1.455245
9926.000000;1.453589
9925.000000;1.451318
9924.000000;1.449480
9923.000000;1.448601
9922.000000;1.448094
9921.000000;1.446917
9920.000000;1.444999
9919.000000;1.443565
9918.000000;1.443708
9917.000000;1.445034
9916.000000;1.446150
9915.000000;1.446173
9914.000000;1.445249
9913.000000;1.443870
9912.000000;1.442462
9911.000000;1.441625
9910.000000;1.441955
9909.000000;1.443330
9908.000000;1.444845
9907.000000;1.445721
9906.000000;1.445890
9905.000000;1.445463
9904.000000;1.444138
9903.000000;1.441563
9902.000000;1.438033
9901.000000;1.434433
9900.000000;1.431654
9899.000000;1.430244
9898.000000;1.430290
9897.000000;1.431335
9896.000000;1.432526
9895.000000;1.433115
9894.000000;1.432856
9893.000000;1.431867
9892.000000;1.430338
9891.000000;1.428560
9890.000000;1.427002
9889.000000;1.426062
9888.000000;1.425805
9887.000000;1.425991
9886.000000;1.426318
9885.000000;1.426608
9884.000000;1.426874
9883.000000;1.427245
9882.000000;1.427605
9881.000000;1.427395
9880.000000;1.426198
9879.000000;1.424566
9878.000000;1.423692
9877.000000;1.424015
9876.000000;1.424627
9875.000000;1.424409
9874.000000;1.423283
9873.000000;1.421824
9872.000000;1.420119
9871.000000;1.417867
9870.000000;1.415493
9869.000000;1.414245
9868.000000;1.414842
9867.000000;1.416558
9866.000000;1.417918
9865.000000;1.418005
9864.000000;1.416886
9863.000000;1.415073
9862.000000;1.412984
9861.000000;1.410854
9860.000000;1.408872
9859.000000;1.407303
9858.000000;1.406484
9857.000000;1.406546
9856.000000;1.407074
9855.000000;1.407303
9854.000000;1.406884
9853.000000;1.406248
9852.000000;1.405892
9851.000000;1.405431
9850.000000;1.403873
9849.000000;1.401070
9848.000000;1.398403
9847.000000;1.397469
9846.000000;1.398247
9845.000000;1.399087
9844.000000;1.398633
9843.000000;1.397379
9842.000000;1.396892
9841.000000;1.397820
9840.000000;1.399164
9839.000000;1.399372
9838.000000;1.397775
9837.000000;1.394945
9836.000000;1.392076
9835.000000;1.390196
9834.000000;1.389580
9833.000000;1.389595
9832.000000;1.389326
9831.000000;1.388655
9830.000000;1.388493
9829.000000;1.389688
9828.000000;1.391789
9827.000000;1.393233
9826.000000;1.392879
9825.000000;1.391082
9824.000000;1.389111
9823.000000;1.387748
9822.000000;1.386726
9821.000000;1.385449
9820.000000;1.383850
9819.000000;1.382293
9818.000000;1.380893
9817.000000;1.379405
9816.000000;1.377808
9815.000000;1.376596
9814.000000;1.376217
9813.000000;1.376498
9812.000000;1.376906
9811.000000;1.377185
9810.000000;1.377375
9809.000000;1.377344
9808.000000;1.376744
9807.000000;1.375532
9806.000000;1.374161
9805.000000;1.373126
9804.000000;1.372554
9803.000000;1.372301
9802.000000;1.372170
9801.000000;1.371999
9800.000000;1.371728
9799.000000;1.371381
9798.000000;1.370850
9797.000000;1.369741
9796.000000;1.367757
9795.000000;1.365372
9794.000000;1.363750
9793.000000;1.363713
9792.000000;1.364946
9791.000000;1.366313
9790.000000;1.366824
9789.000000;1.366274
9788.000000;1.365133
9787.000000;1.364087
9786.000000;1.363556
9785.000000;1.363385
9784.000000;1.363006
9783.000000;1.362004
9782.000000;1.360517
9781.000000;1.359013
9780.000000;1.357796
9779.000000;1.356765
9778.000000;1.355594
9777.000000;1.354120
9776.000000;1.352630
9775.000000;1.351747
9774.000000;1.351899
9773.000000;1.352825
9772.000000;1.353696
9771.000000;1.353791
9770.000000;1.353012
9769.000000;1.351771
9768.000000;1.350540
9767.000000;1.349515
9766.000000;1.348579
9765.000000;1.347595
9764.000000;1.346757
9763.000000;1.346453
9762.000000;1.346641
9761.000000;1.346642
9760.000000;1.345842
9759.000000;1.344437
9758.000000;1.343110
9757.000000;1.342135
9756.000000;1.341270
9755.000000;1.340414
9754.000000;1.339798
9753.000000;1.339478
9752.000000;1.339129
9751.000000;1.338534
9750.000000;1.337907
9749.000000;1.337568
9748.000000;1.337605
9747.000000;1.337935
9746.000000;1.338292
9745.000000;1.338166
9744.000000;1.337245
9743.000000;1.335986
9742.000000;1.335191
9741.000000;1.334849
9740.000000;1.334019
9739.000000;1.332190
9738.000000;1.330134
9737.000000;1.328952
9736.000000;1.328826
9735.000000;1.329189
9734.000000;1.329569
9733.000000;1.329644
9732.000000;1.328850
9731.000000;1.326839
9730.000000;1.324312
9729.000000;1.322658
9728.000000;1.322491
9727.000000;1.322972
9726.000000;1.322813
9725.000000;1.321660
9724.000000;1.320252
9723.000000;1.319451
9722.000000;1.319457
9721.000000;1.319887
9720.000000;1.320323
9719.000000;1.320623
9718.000000;1.320807
9717.000000;1.320860
9716.000000;1.320736
9715.000000;1.320408
9714.000000;1.319742
9713.000000;1.318473
9712.000000;1.316519
9711.000000;1.314261
9710.000000;1.312234
9709.000000;1.310613
9708.000000;1.309305
9707.000000;1.308463
9706.000000;1.308402
9705.000000;1.308943
9704.000000;1.309361
9703.000000;1.309218
9702.000000;1.308814
9701.000000;1.308543
9700.000000;1.308270
9699.000000;1.307707
9698.000000;1.306985
9697.000000;1.306373
9696.000000;1.305694
9695.000000;1.304567
9694.000000;1.303129
9693.000000;1.302088
9692.000000;1.302028
9691.000000;1.302895
9690.000000;1.304055
9689.000000;1.304636
9688.000000;1.303995
9687.000000;1.302200
9686.000000;1.300017
9685.000000;1.298250
9684.000000;1.297140
9683.000000;1.296452
9682.000000;1.295846
9681.000000;1.294995
9680.000000;1.293712
9679.000000;1.292329
9678.000000;1.291673
9677.000000;1.292147
9676.000000;1.292944
9675.000000;1.292651
9674.000000;1.290763
9673.000000;1.288283
9672.000000;1.286780
9671.000000;1.286993
9670.000000;1.288245
9669.000000;1.289139
9668.000000;1.288914
9667.000000;1.288107
9666.000000;1.287679
9665.000000;1.287635
9664.000000;1.286998
9663.000000;1.285228
9662.000000;1.283036
9661.000000;1.281414
9660.000000;1.280509
9659.000000;1.279986
9658.000000;1.279882
9657.000000;1.280275
9656.000000;1.280452
9655.000000;1.279383
9654.000000;1.277105
9653.000000;1.274861
9652.000000;1.273694
9651.000000;1.273515
9650.000000;1.273660
9649.000000;1.273739
9648.000000;1.273660
9647.000000;1.273327
9646.000000;1.272703
9645.000000;1.271926
9644.000000;1.271117
9643.000000;1.270293
9642.000000;1.269566
9641.000000;1.269176
9640.000000;1.269189
9639.000000;1.269341
9638.000000;1.269242
9637.000000;1.268552
9636.000000;1.267027
9635.000000;1.264795
9634.000000;1.262602
9633.000000;1.261435
9632.000000;1.261670
9631.000000;1.262763
9630.000000;1.263794
9629.000000;1.264190
9628.000000;1.263990
9627.000000;1.263722
9626.000000;1.263945
9625.000000;1.264577
9624.000000;1.264722
9623.000000;1.263536
9622.000000;1.261299
9621.000000;1.259200
9620.000000;1.258076
9619.000000;1.257855
9618.000000;1.258149
9617.000000;1.258696
9616.000000;1.259088
9615.000000;1.258760
9614.000000;1.257675
9613.000000;1.256551
9612.000000;1.255995
9611.000000;1.255796
9610.000000;1.255534
9609.000000;1.255416
9608.000000;1.255898
9607.000000;1.256666
9606.000000;1.256627
9605.000000;1.255081
9604.000000;1.252535
9603.000000;1.250230
9602.000000;1.249028
9601.000000;1.248746
9600.000000;1.248420
9599.000000;1.247265
9598.000000;1.245462
9597.000000;1.243917
9596.000000;1.243208
9595.000000;1.243022
9594.000000;1.242760
9593.000000;1.242364
9592.000000;1.242218
9591.000000;1.242445
9590.000000;1.242739
9589.000000;1.242814
9588.000000;1.242600
9587.000000;1.241957
9586.000000;1.240586
9585.000000;1.238413
9584.000000;1.235917
9583.000000;1.233920
9582.000000;1.233053
9581.000000;1.233293
9580.000000;1.233872
9579.000000;1.233796
9578.000000;1.232754
9577.000000;1.231453
9576.000000;1.230820
9575.000000;1.230970
9574.000000;1.231176
9573.000000;1.230797
9572.000000;1.229923
9571.000000;1.229057
9570.000000;1.228527
9569.000000;1.228375
9568.000000;1.228493
9567.000000;1.228590
9566.000000;1.228215
9565.000000;1.227138
9564.000000;1.225701
9563.000000;1.224568
9562.000000;1.224089
9561.000000;1.224037
9560.000000;1.223938
9559.000000;1.223496
9558.000000;1.222703
9557.000000;1.221670
9556.000000;1.220473
9555.000000;1.219137
9554.000000;1.217708
9553.000000;1.216333
9552.000000;1.215274
9551.000000;1.214736
9550.000000;1.214606
9549.000000;1.214397
9548.000000;1.213542
9547.000000;1.211876
9546.000000;1.209937
9545.000000;1.208731
9544.000000;1.208984
9543.000000;1.210448
9542.000000;1.211972
9541.000000;1.212450
9540.000000;1.211814
9539.000000;1.210929
9538.000000;1.210523
9537.000000;1.210465
9536.000000;1.210186
9535.000000;1.209519
9534.000000;1.208825
9533.000000;1.208385
9532.000000;1.208031
9531.000000;1.207463
9530.000000;1.206700
9529.000000;1.206110
9528.000000;1.206085
9527.000000;1.206649
9526.000000;1.207229
9525.000000;1.206826
9524.000000;1.204739
9523.000000;1.201321
9522.000000;1.197895
9521.000000;1.195811
9520.000000;1.195521
9519.000000;1.196403
9518.000000;1.197238
9517.000000;1.196991
9516.000000;1.195540
9515.000000;1.193857
9514.000000;1.193232
9513.000000;1.194059
9512.000000;1.195393
9511.000000;1.195829
9510.000000;1.194820
9509.000000;1.193002
9508.000000;1.191411
9507.000000;1.190601
9506.000000;1.190449
9505.000000;1.190520
9504.000000;1.190526
9503.000000;1.190541
9502.000000;1.190724
9501.000000;1.190856
9500.000000;1.190329
9499.000000;1.188821
9498.000000;1.186814
9497.000000;1.185198
9496.000000;1.184460
9495.000000;1.184527
9494.000000;1.185212
9493.000000;1.186313
9492.000000;1.187257
9491.000000;1.187237
9490.000000;1.186075
9489.000000;1.184639
9488.000000;1.183976
9487.000000;1.184127
9486.000000;1.184082
9485.000000;1.182888
9484.000000;1.180601
9483.000000;1.178140
9482.000000;1.176496
9481.000000;1.176117
9480.000000;1.176747
9479.000000;1.177622
9478.000000;1.177957
9477.000000;1.177489
9476.000000;1.176620
9475.000000;1.175996
9474.000000;1.175905
9473.000000;1.176100
9472.000000;1.176131
9471.000000;1.175754
9470.000000;1.174983
9469.000000;1.173868
9468.000000;1.172460
9467.000000;1.170995
9466.000000;1.169898
9465.000000;1.169453
9464.000000;1.169556
9463.000000;1.169896
9462.000000;1.170243
9461.000000;1.170417
9460.000000;1.170097
9459.000000;1.168997
9458.000000;1.167270
9457.000000;1.165548
9456.000000;1.164454
9455.000000;1.164199
9454.000000;1.164596
9453.000000;1.165215
9452.000000;1.165475
9451.000000;1.164897
9450.000000;1.163522
9449.000000;1.161956
9448.000000;1.160828
9447.000000;1.160327
9446.000000;1.160356
9445.000000;1.160857
9444.000000;1.161668
9443.000000;1.162234
9442.000000;1.161930
9441.000000;1.160744
9440.000000;1.159328
9439.000000;1.158294
9438.000000;1.157711
9437.000000;1.157363
9436.000000;1.157151
9435.000000;1.156995
9434.000000;1.156584
9433.000000;1.155593
9432.000000;1.154122
9431.000000;1.152637
9430.000000;1.151433
9429.000000;1.150375
9428.000000;1.149236
9427.000000;1.148131
9426.000000;1.147586
9425.000000;1.148165
9424.000000;1.149905
9423.000000;1.151966
9422.000000;1.152970
9421.000000;1.152104
9420.000000;1.149990
9419.000000;1.148136
9418.000000;1.147449
9417.000000;1.147567
9416.000000;1.147638
9415.000000;1.147302
9414.000000;1.146639
9413.000000;1.145596
9412.000000;1.144101
9411.000000;1.142619
9410.000000;1.141936
9409.000000;1.142234
9408.000000;1.142844
9407.000000;1.143120
9406.000000;1.143122
9405.000000;1.143136
9404.000000;1.142917
9403.000000;1.141912
9402.000000;1.140090
9401.000000;1.138084
9400.000000;1.136487
9399.000000;1.135381
9398.000000;1.134596
9397.000000;1.134057
9396.000000;1.133730
9395.000000;1.133530
9394.000000;1.133470
9393.000000;1.133680
9392.000000;1.134034
9391.000000;1.133983
9390.000000;1.133101
9389.000000;1.131710
9388.000000;1.130592
9387.000000;1.130090
9386.000000;1.129835
9385.000000;1.129477
9384.000000;1.129300
9383.000000;1.129791
9382.000000;1.130807
9381.000000;1.131609
9380.000000;1.131700
9379.000000;1.131266
9378.000000;1.130668
9377.000000;1.129904
9376.000000;1.128871
9375.000000;1.127882
9374.000000;1.127487
9373.000000;1.127800
9372.000000;1.128290
9371.000000;1.128259
9370.000000;1.127377
9369.000000;1.125757
9368.000000;1.123759
9367.000000;1.121852
9366.000000;1.120466
9365.000000;1.119760
9364.000000;1.119527
9363.000000;1.119399
9362.000000;1.119178
9361.000000;1.118975
9360.000000;1.119067
9359.000000;1.119596
9358.000000;1.120367
9357.000000;1.120968
9356.000000;1.121115
9355.000000;1.120809
9354.000000;1.120147
9353.000000;1.119157
9352.000000;1.117949
9351.000000;1.116875
9350.000000;1.116316
9349.000000;1.116324
9348.000000;1.116606
9347.000000;1.116758
9346.000000;1.116362
9345.000000;1.115097
9344.000000;1.113087
9343.000000;1.111083
9342.000000;1.109894
9341.000000;1.109602
9340.000000;1.109618
9339.000000;1.109496
9338.000000;1.109322
9337.000000;1.109226
9336.000000;1.108930
9335.000000;1.108080
9334.000000;1.106742
9333.000000;1.105323
9332.000000;1.104176
9331.000000;1.103472
9330.000000;1.103250
9329.000000;1.103376
9328.000000;1.103623
9327.000000;1.103947
9326.000000;1.104503
9325.000000;1.105219
9324.000000;1.105625
9323.000000;1.105358
9322.000000;1.104609
9321.000000;1.103859
9320.000000;1.103329
9319.000000;1.102940
9318.000000;1.102584
9317.000000;1.102163
9316.000000;1.101503
9315.000000;1.100537
9314.000000;1.099498
9313.000000;1.098708
9312.000000;1.098246
9311.000000;1.098005
9310.000000;1.097893
9309.000000;1.097801
9308.000000;1.097604
9307.000000;1.097426
9306.000000;1.097663
9305.000000;1.098408
9304.000000;1.099080
9303.000000;1.099049
9302.000000;1.098400
9301.000000;1.097612
9300.000000;1.096732
9299.000000;1.095492
9298.000000;1.094122
9297.000000;1.093319
9296.000000;1.093253
9295.000000;1.093255
9294.000000;1.092747
9293.000000;1.091952
9292.000000;1.091339
9291.000000;1.090891
9290.000000;1.090391
9289.000000;1.090051
9288.000000;1.090292
9287.000000;1.091032
9286.000000;1.091642
9285.000000;1.091592
9284.000000;1.090843
9283.000000;1.089641
9282.000000;1.088270
9281.000000;1.087070
9280.000000;1.086401
9279.000000;1.086443
9278.000000;1.087069
9277.000000;1.087871
9276.000000;1.088253
9275.000000;1.087699
9274.000000;1.086243
9273.000000;1.084625
9272.000000;1.083725
9271.000000;1.083785
9270.000000;1.084316
9269.000000;1.084724
9268.000000;1.084792
9267.000000;1.084539
9266.000000;1.083939
9265.000000;1.082976
9264.000000;1.081826
9263.000000;1.080777
9262.000000;1.080000
9261.000000;1.079543
9260.000000;1.079480
9259.000000;1.079841
9258.000000;1.080325
9257.000000;1.080287
9256.000000;1.079258
9255.000000;1.077512
9254.000000;1.075941
9253.000000;1.075293
9252.000000;1.075608
9251.000000;1.076441
9250.000000;1.077433
9249.000000;1.078420
9248.000000;1.079082
9247.000000;1.078902
9246.000000;1.077695
9245.000000;1.076011
9244.000000;1.074734
9243.000000;1.074270
9242.000000;1.074236
9241.000000;1.073937
9240.000000;1.073049
9239.000000;1.071831
9238.000000;1.070844
9237.000000;1.070505
9236.000000;1.070802
9235.000000;1.071265
9234.000000;1.071263
9233.000000;1.070436
9232.000000;1.068964
9231.000000;1.067445
9230.000000;1.066504
9229.000000;1.066469
9228.000000;1.067280
9227.000000;1.068550
9226.000000;1.069715
9225.000000;1.070272
9224.000000;1.070067
9223.000000;1.069364
9222.000000;1.068549
9221.000000;1.067764
9220.000000;1.066940
9219.000000;1.066127
9218.000000;1.065567
9217.000000;1.065350
9216.000000;1.065211
9215.000000;1.064831
9214.000000;1.064215
9213.000000;1.063587
9212.000000;1.063071
9211.000000;1.062771
9210.000000;1.063027
9209.000000;1.064135
9208.000000;1.065677
9207.000000;1.066523
9206.000000;1.065819
9205.000000;1.063844
9204.000000;1.061619
9203.000000;1.059832
9202.000000;1.058443
9201.000000;1.057249
9200.000000;1.056456
9199.000000;1.056500
9198.000000;1.057441
9197.000000;1.058697
9196.000000;1.059388
9195.000000;1.058969
9194.000000;1.057588
9193.000000;1.055912
9192.000000;1.054615
9191.000000;1.054010
9190.000000;1.054027
9189.000000;1.054393
9188.000000;1.054794
9187.000000;1.054989
9186.000000;1.054929
9185.000000;1.054728
9184.000000;1.054453
9183.000000;1.054004
9182.000000;1.053302
9181.000000;1.052569
9180.000000;1.052237
9179.000000;1.052541
9178.000000;1.053258
9177.000000;1.053869
9176.000000;1.053958
9175.000000;1.053476
9174.000000;1.052721
9173.000000;1.052114
9172.000000;1.051941
9171.000000;1.052218
9170.000000;1.052714
9169.000000;1.053053
9168.000000;1.052872
9167.000000;1.052028
9166.000000;1.050758
9165.000000;1.049503
9164.000000;1.048466
9163.000000;1.047426
9162.000000;1.046175
9161.000000;1.045062
9160.000000;1.044811
9159.000000;1.045715
9158.000000;1.047190
9157.000000;1.048274
9156.000000;1.048468
9155.000000;1.047991
9154.000000;1.047325
9153.000000;1.046731
9152.000000;1.046164
9151.000000;1.045458
9150.000000;1.044554
9149.000000;1.043591
9148.000000;1.042820
9147.000000;1.042396
9146.000000;1.042289
9145.000000;1.042392
9144.000000;1.042601
9143.000000;1.042734
9142.000000;1.042564
9141.000000;1.042114
9140.000000;1.041776
9139.000000;1.041898
9138.000000;1.042284
9137.000000;1.042400
9136.000000;1.042049
9135.000000;1.041533
9134.000000;1.041066
9133.000000;1.040402
9132.000000;1.039258
9131.000000;1.037871
9130.000000;1.036845
9129.000000;1.036568
9128.000000;1.036988
9127.000000;1.037834
9126.000000;1.038799
9125.000000;1.039527
9124.000000;1.039690
9123.000000;1.039162
9122.000000;1.038069
9121.000000;1.036721
9120.000000;1.035582
9119.000000;1.035126
9118.000000;1.035435
9117.000000;1.036034
9116.000000;1.036371
9115.000000;1.036409
9114.000000;1.036478
9113.000000;1.036645
9112.000000;1.036576
9111.000000;1.036085
9110.000000;1.035479
9109.000000;1.035152
9108.000000;1.035080
9107.000000;1.034931
9106.000000;1.034516
9105.000000;1.033923
9104.000000;1.033325
9103.000000;1.032822
9102.000000;1.032463
9101.000000;1.032269
9100.000000;1.032260
9099.000000;1.032479
9098.000000;1.032883
9097.000000;1.033205
9096.000000;1.033110
9095.000000;1.032592
9094.000000;1.032034
9093.000000;1.031739
9092.000000;1.031566
9091.000000;1.031204
9090.000000;1.030651
9089.000000;1.030177
9088.000000;1.029902
9087.000000;1.029691
9086.000000;1.029473
9085.000000;1.029389
9084.000000;1.029504
9083.000000;1.029583
9082.000000;1.029331
9081.000000;1.028768
9080.000000;1.028164
9079.000000;1.027623
9078.000000;1.026956
9077.000000;1.026081
9076.000000;1.025384
9075.000000;1.025396
9074.000000;1.026108
9073.000000;1.026843
9072.000000;1.026987
9071.000000;1.026651
9070.000000;1.026414
9069.000000;1.026558
9068.000000;1.026856
9067.000000;1.027005
9066.000000;1.026923
9065.000000;1.026575
9064.000000;1.025861
9063.000000;1.024849
9062.000000;1.023898
9061.000000;1.023372
9060.000000;1.023329
9059.000000;1.023569
9058.000000;1.023808
9057.000000;1.023750
9056.000000;1.023220
9055.000000;1.022370
9054.000000;1.021565
9053.000000;1.020931
