Criado como novo conjunto de dados;"1909daniel.spp","-4264003.7 Secs"
cm-1;Abs
10000.000000;1.885515
9999.000000;1.879786
9998.000000;1.874132
9997.000000;1.868551
9996.000000;1.863035
9995.000000;1.857598
9994.000000;1.852212
9993.000000;1.846924
9992.000000;1.841646
9991.000000;1.836530
9990.000000;1.831252
9989.000000;1.827303
9988.000000;1.827087
9987.000000;1.830834
9986.000000;1.836224
9985.000000;1.839522
9984.000000;1.838872
9983.000000;1.835418
9982.000000;1.831545
9981.000000;1.828555
9980.000000;1.826305
9979.000000;1.824409
9978.000000;1.823099
9977.000000;1.822697
9976.000000;1.822710
9975.000000;1.822119
9974.000000;1.820775
9973.000000;1.819917
9972.000000;1.820742
9971.000000;1.822849
9970.000000;1.824666
9969.000000;1.825213
9968.000000;1.824740
9967.000000;1.823677
9966.000000;1.821893
9965.000000;1.819482
9964.000000;1.817581
9963.000000;1.817666
9962.000000;1.820004
9961.000000;1.823020
9960.000000;1.824312
9959.000000;1.822503
9958.000000;1.818395
9957.000000;1.814234
9956.000000;1.811671
9955.000000;1.810506
9954.000000;1.809538
9953.000000;1.808310
9952.000000;1.807405
9951.000000;1.807093
9950.000000;1.806640
9949.000000;1.805460
9948.000000;1.804379
9947.000000;1.804931
9946.000000;1.807428
9945.000000;1.810286
9944.000000;1.811462
9943.000000;1.810284
9942.000000;1.807590
9941.000000;1.804377
9940.000000;1.800983
9939.000000;1.797642
9938.000000;1.795240
9937.000000;1.794983
9936.000000;1.797210
9935.000000;1.800657
9934.000000;1.803082
9933.000000;1.802801
9932.000000;1.799856
9931.000000;1.795947
9930.000000;1.793286
9929.000000;1.793087
9928.000000;1.794656
9927.000000;1.795934
9926.000000;1.795227
9925.000000;1.792569
9924.000000;1.789410
9923.000000;1.787191
9922.000000;1.786480
9921.000000;1.787096
9920.000000;1.788371
9919.000000;1.789274
9918.000000;1.788903
9917.000000;1.787094
9916.000000;1.784336
9915.000000;1.781109
9914.000000;1.777730
9913.000000;1.774852
9912.000000;1.773586
9911.000000;1.774726
9910.000000;1.777971
9909.000000;1.782064
9908.000000;1.785585
9907.000000;1.787573
9906.000000;1.787702
9905.000000;1.786194
9904.000000;1.783610
9903.000000;1.780626
9902.000000;1.777994
9901.000000;1.776575
9900.000000;1.776984
9899.000000;1.778889
9898.000000;1.780775
9897.000000;1.780789
9896.000000;1.778156
9895.000000;1.773948
9894.000000;1.770243
9893.000000;1.768433
9892.000000;1.768495
9891.000000;1.769602
9890.000000;1.770953
9889.000000;1.772054
9888.000000;1.772522
9887.000000;1.771988
9886.000000;1.770518
9885.000000;1.768891
9884.000000;1.767904
9883.000000;1.767566
9882.000000;1.767303
9881.000000;1.766637
9880.000000;1.765197
9879.000000;1.762441
9878.000000;1.758340
9877.000000;1.754321
9876.000000;1.752466
9875.000000;1.753433
9874.000000;1.755754
9873.000000;1.757504
9872.000000;1.758155
9871.000000;1.758298
9870.000000;1.758135
9869.000000;1.757187
9868.000000;1.755419
9867.000000;1.753782
9866.000000;1.753296
9865.000000;1.753952
9864.000000;1.754757
9863.000000;1.754702
9862.000000;1.753515
9861.000000;1.751583
9860.000000;1.749244
9859.000000;1.746503
9858.000000;1.743661
9857.000000;1.741591
9856.000000;1.740945
9855.000000;1.741219
9854.000000;1.741022
9853.000000;1.739600
9852.000000;1.737762
9851.000000;1.736830
9850.000000;1.736995
9849.000000;1.737220
9848.000000;1.736745
9847.000000;1.736097
9846.000000;1.736268
9845.000000;1.737263
9844.000000;1.737893
9843.000000;1.736946
9842.000000;1.734327
9841.000000;1.731071
9840.000000;1.728614
9839.000000;1.728063
9838.000000;1.729695
9837.000000;1.732698
9836.000000;1.735434
9835.000000;1.736417
9834.000000;1.735309
9833.000000;1.732852
9832.000000;1.730015
9831.000000;1.727572
9830.000000;1.726260
9829.000000;1.726501
9828.000000;1.727580
9827.000000;1.727699
9826.000000;1.725609
9825.000000;1.722106
9824.000000;1.719375
9823.000000;1.718928
9822.000000;1.720458
9821.000000;1.722436
9820.000000;1.723400
9819.000000;1.722884
9818.000000;1.721569
9817.000000;1.720538
9816.000000;1.720136
9815.000000;1.719698
9814.000000;1.718548
9813.000000;1.716876
9812.000000;1.715176
9811.000000;1.713246
9810.000000;1.710568
9809.000000;1.707551
9808.000000;1.705662
9807.000000;1.706156
9806.000000;1.709095
9805.000000;1.713496
9804.000000;1.717629
9803.000000;1.719165
9802.000000;1.716386
9801.000000;1.710116
9800.000000;1.703748
9799.000000;1.700639
9798.000000;1.701549
9797.000000;1.704557
9796.000000;1.707035
9795.000000;1.707652
9794.000000;1.706881
9793.000000;1.706017
9792.000000;1.705780
9791.000000;1.705680
9790.000000;1.704668
9789.000000;1.702442
9788.000000;1.699976
9787.000000;1.698583
9786.000000;1.698613
9785.000000;1.699263
9784.000000;1.699352
9783.000000;1.698304
9782.000000;1.696652
9781.000000;1.695366
9780.000000;1.694690
9779.000000;1.693935
9778.000000;1.692475
9777.000000;1.690720
9776.000000;1.689757
9775.000000;1.690082
9774.000000;1.691190
9773.000000;1.692395
9772.000000;1.693287
9771.000000;1.693186
9770.000000;1.691110
9769.000000;1.687195
9768.000000;1.683539
9767.000000;1.682514
9766.000000;1.684283
9765.000000;1.686590
9764.000000;1.687127
9763.000000;1.685791
9762.000000;1.684417
9761.000000;1.684601
9760.000000;1.686025
9759.000000;1.686747
9758.000000;1.685122
9757.000000;1.681568
9756.000000;1.678220
9755.000000;1.676755
9754.000000;1.676928
9753.000000;1.677414
9752.000000;1.677640
9751.000000;1.678186
9750.000000;1.679479
9749.000000;1.680885
9748.000000;1.681391
9747.000000;1.680612
9746.000000;1.678775
9745.000000;1.676018
9744.000000;1.672205
9743.000000;1.667453
9742.000000;1.662624
9741.000000;1.659203
9740.000000;1.658595
9739.000000;1.661139
9738.000000;1.665479
9737.000000;1.669085
9736.000000;1.669896
9735.000000;1.667775
9734.000000;1.664305
9733.000000;1.661253
9732.000000;1.659404
9731.000000;1.658573
9730.000000;1.658209
9729.000000;1.657795
9728.000000;1.657116
9727.000000;1.656441
9726.000000;1.656250
9725.000000;1.656708
9724.000000;1.657349
9723.000000;1.657339
9722.000000;1.656261
9721.000000;1.654438
9720.000000;1.652544
9719.000000;1.651379
9718.000000;1.651881
9717.000000;1.654503
9716.000000;1.658094
9715.000000;1.660069
9714.000000;1.658581
9713.000000;1.654362
9712.000000;1.649874
9711.000000;1.646906
9710.000000;1.645443
9709.000000;1.644555
9708.000000;1.643760
9707.000000;1.643348
9706.000000;1.643676
9705.000000;1.644422
9704.000000;1.644625
9703.000000;1.643704
9702.000000;1.642443
9701.000000;1.642466
9700.000000;1.644335
9699.000000;1.646492
9698.000000;1.646686
9697.000000;1.644465
9696.000000;1.641544
9695.000000;1.639634
9694.000000;1.638809
9693.000000;1.638212
9692.000000;1.637438
9691.000000;1.636652
9690.000000;1.635869
9689.000000;1.634812
9688.000000;1.633408
9687.000000;1.632110
9686.000000;1.631571
9685.000000;1.632025
9684.000000;1.632962
9683.000000;1.633366
9682.000000;1.632527
9681.000000;1.630728
9680.000000;1.628824
9679.000000;1.627217
9678.000000;1.625712
9677.000000;1.624278
9676.000000;1.623380
9675.000000;1.623349
9674.000000;1.623855
9673.000000;1.624290
9672.000000;1.624365
9671.000000;1.624018
9670.000000;1.623120
9669.000000;1.621608
9668.000000;1.619682
9667.000000;1.617574
9666.000000;1.615396
9665.000000;1.613502
9664.000000;1.612665
9663.000000;1.613418
9662.000000;1.615343
9661.000000;1.617387
9660.000000;1.618882
9659.000000;1.619909
9658.000000;1.620648
9657.000000;1.620788
9656.000000;1.619851
9655.000000;1.617922
9654.000000;1.615869
9653.000000;1.614747
9652.000000;1.614929
9651.000000;1.615738
9650.000000;1.615984
9649.000000;1.614923
9648.000000;1.612661
9647.000000;1.609775
9646.000000;1.606939
9645.000000;1.604893
9644.000000;1.604195
9643.000000;1.604557
9642.000000;1.604732
9641.000000;1.603538
9640.000000;1.601050
9639.000000;1.598468
9638.000000;1.596815
9637.000000;1.596023
9636.000000;1.595266
9635.000000;1.593972
9634.000000;1.592466
9633.000000;1.591708
9632.000000;1.592359
9631.000000;1.594059
9630.000000;1.595605
9629.000000;1.595841
9628.000000;1.594397
9627.000000;1.591799
9626.000000;1.589101
9625.000000;1.587319
9624.000000;1.586798
9623.000000;1.587008
9622.000000;1.587303
9621.000000;1.587874
9620.000000;1.589383
9619.000000;1.591494
9618.000000;1.592572
9617.000000;1.591409
9616.000000;1.588738
9615.000000;1.586410
9614.000000;1.585404
9613.000000;1.585282
9612.000000;1.585279
9611.000000;1.585065
9610.000000;1.584415
9609.000000;1.583075
9608.000000;1.581405
9607.000000;1.580610
9606.000000;1.581681
9605.000000;1.584106
9604.000000;1.585928
9603.000000;1.585294
9602.000000;1.582068
9601.000000;1.577948
9600.000000;1.574948
9599.000000;1.573620
9598.000000;1.572752
9597.000000;1.570918
9596.000000;1.568296
9595.000000;1.566694
9594.000000;1.567730
9593.000000;1.571211
9592.000000;1.575277
9591.000000;1.577791
9590.000000;1.577539
9589.000000;1.574664
9588.000000;1.570580
9587.000000;1.567383
9586.000000;1.566573
9585.000000;1.567734
9584.000000;1.568717
9583.000000;1.567740
9582.000000;1.565268
9581.000000;1.563324
9580.000000;1.563096
9579.000000;1.563849
9578.000000;1.564231
9577.000000;1.563981
9576.000000;1.563847
9575.000000;1.564201
9574.000000;1.564447
9573.000000;1.563762
9572.000000;1.561967
9571.000000;1.559623
9570.000000;1.557479
9569.000000;1.555878
9568.000000;1.554657
9567.000000;1.553703
9566.000000;1.553516
9565.000000;1.554738
9564.000000;1.556786
9563.000000;1.557572
9562.000000;1.555471
9561.000000;1.551326
9560.000000;1.547517
9559.000000;1.545314
9558.000000;1.544132
9557.000000;1.543188
9556.000000;1.542664
9555.000000;1.542861
9554.000000;1.543355
9553.000000;1.543795
9552.000000;1.544675
9551.000000;1.546375
9550.000000;1.548053
9549.000000;1.548517
9548.000000;1.547836
9547.000000;1.546985
9546.000000;1.546134
9545.000000;1.544456
9544.000000;1.541781
9543.000000;1.539433
9542.000000;1.538988
9541.000000;1.540651
9540.000000;1.543128
9539.000000;1.544825
9538.000000;1.544888
9537.000000;1.543426
9536.000000;1.541233
9535.000000;1.539197
9534.000000;1.537687
9533.000000;1.536522
9532.000000;1.535525
9531.000000;1.534886
9530.000000;1.534960
9529.000000;1.535848
9528.000000;1.537221
9527.000000;1.538370
9526.000000;1.538469
9525.000000;1.537042
9524.000000;1.534317
9523.000000;1.531067
9522.000000;1.528146
9521.000000;1.526166
9520.000000;1.525292
9519.000000;1.525083
9518.000000;1.524784
9517.000000;1.524134
9516.000000;1.523815
9515.000000;1.524711
9514.000000;1.526694
9513.000000;1.528435
9512.000000;1.528605
9511.000000;1.527146
9510.000000;1.525233
9509.000000;1.524240
9508.000000;1.524715
9507.000000;1.525837
9506.000000;1.525775
9505.000000;1.523229
9504.000000;1.519007
9503.000000;1.515652
9502.000000;1.515131
9501.000000;1.517036
9500.000000;1.519228
9499.000000;1.520132
9498.000000;1.520036
9497.000000;1.520027
9496.000000;1.520298
9495.000000;1.519961
9494.000000;1.518260
9493.000000;1.515474
9492.000000;1.512549
9491.000000;1.510150
9490.000000;1.508222
9489.000000;1.506311
9488.000000;1.504218
9487.000000;1.502434
9486.000000;1.501934
9485.000000;1.503291
9484.000000;1.505897
9483.000000;1.508272
9482.000000;1.509297
9481.000000;1.508976
9480.000000;1.507881
9479.000000;1.506308
9478.000000;1.504355
9477.000000;1.502396
9476.000000;1.500859
9475.000000;1.499709
9474.000000;1.498758
9473.000000;1.498433
9472.000000;1.499483
9471.000000;1.501653
9470.000000;1.503303
9469.000000;1.502888
9468.000000;1.500500
9467.000000;1.497548
9466.000000;1.495440
9465.000000;1.494975
9464.000000;1.496377
9463.000000;1.499087
9462.000000;1.501636
9461.000000;1.502489
9460.000000;1.501288
9459.000000;1.498935
9458.000000;1.496536
9457.000000;1.494716
9456.000000;1.493717
9455.000000;1.493391
9454.000000;1.492935
9453.000000;1.491383
9452.000000;1.488879
9451.000000;1.486896
9450.000000;1.486621
9449.000000;1.487383
9448.000000;1.487391
9447.000000;1.486065
9446.000000;1.484834
9445.000000;1.485261
9444.000000;1.487047
9443.000000;1.488512
9442.000000;1.488685
9441.000000;1.488049
9440.000000;1.487219
9439.000000;1.485985
9438.000000;1.484207
9437.000000;1.482796
9436.000000;1.482763
9435.000000;1.483614
9434.000000;1.483740
9433.000000;1.482507
9432.000000;1.481007
9431.000000;1.480337
9430.000000;1.479982
9429.000000;1.478639
9428.000000;1.476112
9427.000000;1.473592
9426.000000;1.472200
9425.000000;1.472008
9424.000000;1.472478
9423.000000;1.473174
9422.000000;1.473757
9421.000000;1.473751
9420.000000;1.472797
9419.000000;1.471155
9418.000000;1.469668
9417.000000;1.469031
9416.000000;1.469143
9415.000000;1.469301
9414.000000;1.469077
9413.000000;1.468864
9412.000000;1.469343
9411.000000;1.470480
9410.000000;1.471343
9409.000000;1.471025
9408.000000;1.469594
9407.000000;1.467919
9406.000000;1.466736
9405.000000;1.466100
9404.000000;1.465688
9403.000000;1.465441
9402.000000;1.465723
9401.000000;1.466700
9400.000000;1.467675
9399.000000;1.467542
9398.000000;1.466116
9397.000000;1.464530
9396.000000;1.463779
9395.000000;1.463271
9394.000000;1.461638
9393.000000;1.458875
9392.000000;1.456645
9391.000000;1.456179
9390.000000;1.456840
9389.000000;1.457338
9388.000000;1.457581
9387.000000;1.458429
9386.000000;1.459956
9385.000000;1.460879
9384.000000;1.459899
9383.000000;1.457138
9382.000000;1.454070
9381.000000;1.452305
9380.000000;1.452453
9379.000000;1.453825
9378.000000;1.455076
9377.000000;1.455301
9376.000000;1.454583
9375.000000;1.453459
9374.000000;1.452165
9373.000000;1.450582
9372.000000;1.448652
9371.000000;1.446633
9370.000000;1.445164
9369.000000;1.445133
9368.000000;1.446983
9367.000000;1.449766
9366.000000;1.451319
9365.000000;1.450053
9364.000000;1.446549
9363.000000;1.442889
9362.000000;1.440727
9361.000000;1.440410
9360.000000;1.441380
9359.000000;1.442704
9358.000000;1.443469
9357.000000;1.443368
9356.000000;1.442966
9355.000000;1.442797
9354.000000;1.442350
9353.000000;1.440720
9352.000000;1.438279
9351.000000;1.436690
9350.000000;1.436944
9349.000000;1.438169
9348.000000;1.438836
9347.000000;1.438526
9346.000000;1.437822
9345.000000;1.437024
9344.000000;1.435894
9343.000000;1.434562
9342.000000;1.433790
9341.000000;1.434054
9340.000000;1.434845
9339.000000;1.435208
9338.000000;1.434720
9337.000000;1.433726
9336.000000;1.432848
9335.000000;1.432560
9334.000000;1.433056
9333.000000;1.434161
9332.000000;1.435197
9331.000000;1.435210
9330.000000;1.433669
9329.000000;1.430939
9328.000000;1.427970
9327.000000;1.425652
9326.000000;1.424581
9325.000000;1.425054
9324.000000;1.426787
9323.000000;1.428669
9322.000000;1.429352
9321.000000;1.428447
9320.000000;1.426899
9319.000000;1.425913
9318.000000;1.425809
9317.000000;1.426079
9316.000000;1.426199
9315.000000;1.426072
9314.000000;1.425808
9313.000000;1.425424
9312.000000;1.424744
9311.000000;1.423524
9310.000000;1.421835
9309.000000;1.420406
9308.000000;1.420212
9307.000000;1.421465
9306.000000;1.423177
9305.000000;1.423910
9304.000000;1.422907
9303.000000;1.420385
9302.000000;1.417170
9301.000000;1.414442
9300.000000;1.413360
9299.000000;1.414221
9298.000000;1.416007
9297.000000;1.417288
9296.000000;1.417500
9295.000000;1.416872
9294.000000;1.415405
9293.000000;1.412850
9292.000000;1.409807
9291.000000;1.407859
9290.000000;1.407974
9289.000000;1.409210
9288.000000;1.409519
9287.000000;1.407851
9286.000000;1.405217
9285.000000;1.403624
9284.000000;1.404215
9283.000000;1.406414
9282.000000;1.408621
9281.000000;1.409700
9280.000000;1.409798
9279.000000;1.409604
9278.000000;1.409062
9277.000000;1.407384
9276.000000;1.404436
9275.000000;1.401538
9274.000000;1.400439
9273.000000;1.401668
9272.000000;1.404095
9271.000000;1.405984
9270.000000;1.406430
9269.000000;1.405901
9268.000000;1.405460
9267.000000;1.405516
9266.000000;1.405423
9265.000000;1.404458
9264.000000;1.403011
9263.000000;1.402333
9262.000000;1.402964
9261.000000;1.403920
9260.000000;1.403786
9259.000000;1.402318
9258.000000;1.400521
9257.000000;1.399340
9256.000000;1.398775
9255.000000;1.398272
9254.000000;1.397537
9253.000000;1.396711
9252.000000;1.396001
9251.000000;1.395502
9250.000000;1.395405
9249.000000;1.396040
9248.000000;1.397396
9247.000000;1.398621
9246.000000;1.398441
9245.000000;1.396475
9244.000000;1.394004
9243.000000;1.392916
9242.000000;1.393753
9241.000000;1.395137
9240.000000;1.395344
9239.000000;1.394132
9238.000000;1.392714
9237.000000;1.392231
9236.000000;1.392756
9235.000000;1.393634
9234.000000;1.394161
9233.000000;1.393748
9232.000000;1.392041
9231.000000;1.389409
9230.000000;1.387057
9229.000000;1.386063
9228.000000;1.386263
9227.000000;1.386464
9226.000000;1.385882
9225.000000;1.385045
9224.000000;1.384961
9223.000000;1.385643
9222.000000;1.385930
9221.000000;1.384840
9220.000000;1.382758
9219.000000;1.381075
9218.000000;1.380902
9217.000000;1.382206
9216.000000;1.384005
9215.000000;1.385205
9214.000000;1.385260
9213.000000;1.384362
9212.000000;1.383240
9211.000000;1.382646
9210.000000;1.382751
9209.000000;1.382930
9208.000000;1.382263
9207.000000;1.380355
9206.000000;1.377705
9205.000000;1.375309
9204.000000;1.373906
9203.000000;1.373526
9202.000000;1.373651
9201.000000;1.373741
9200.000000;1.373612
9199.000000;1.373500
9198.000000;1.373871
9197.000000;1.375000
9196.000000;1.376534
9195.000000;1.377512
9194.000000;1.377138
9193.000000;1.375606
9192.000000;1.373890
9191.000000;1.372747
9190.000000;1.372225
9189.000000;1.372149
9188.000000;1.372604
9187.000000;1.373705
9186.000000;1.375184
9185.000000;1.376596
9184.000000;1.377744
9183.000000;1.378530
9182.000000;1.378587
9181.000000;1.377508
9180.000000;1.375423
9179.000000;1.373006
9178.000000;1.370869
9177.000000;1.369216
9176.000000;1.368094
9175.000000;1.367618
9174.000000;1.367782
9173.000000;1.368193
9172.000000;1.368230
9171.000000;1.367531
9170.000000;1.366295
9169.000000;1.365118
9168.000000;1.364613
9167.000000;1.365091
9166.000000;1.366441
9165.000000;1.368084
9164.000000;1.369058
9163.000000;1.368511
9162.000000;1.366571
9161.000000;1.364674
9160.000000;1.364474
9159.000000;1.366152
9158.000000;1.368015
9157.000000;1.368122
9156.000000;1.366234
9155.000000;1.363828
9154.000000;1.362399
9153.000000;1.362199
9152.000000;1.362503
9151.000000;1.362601
9150.000000;1.362321
9149.000000;1.361871
9148.000000;1.361535
9147.000000;1.361531
9146.000000;1.361971
9145.000000;1.362817
9144.000000;1.363808
9143.000000;1.364474
9142.000000;1.364333
9141.000000;1.363196
9140.000000;1.361293
9139.000000;1.359179
9138.000000;1.357537
9137.000000;1.356896
9136.000000;1.357249
9135.000000;1.357979
9134.000000;1.358438
9133.000000;1.358643
9132.000000;1.359059
9131.000000;1.359686
9130.000000;1.359871
9129.000000;1.359281
9128.000000;1.358516
9127.000000;1.358321
9126.000000;1.358621
9125.000000;1.358751
9124.000000;1.358307
9123.000000;1.357298
9122.000000;1.355827
9121.000000;1.354298
9120.000000;1.353674
9119.000000;1.354673
9118.000000;1.356606
9117.000000;1.357691
9116.000000;1.356806
9115.000000;1.354440
9114.000000;1.351825
9113.000000;1.349874
9112.000000;1.349117
9111.000000;1.349855
9110.000000;1.351781
9109.000000;1.353874
9108.000000;1.355176
9107.000000;1.355484
9106.000000;1.355010
9105.000000;1.353787
9104.000000;1.351925
9103.000000;1.350102
9102.000000;1.349159
9101.000000;1.349242
9100.000000;1.349778
9099.000000;1.350253
9098.000000;1.350624
9097.000000;1.350979
9096.000000;1.351153
9095.000000;1.350843
9094.000000;1.349919
9093.000000;1.348557
9092.000000;1.347175
9091.000000;1.346209
9090.000000;1.345773
9089.000000;1.345553
9088.000000;1.345221
9087.000000;1.344861
9086.000000;1.344784
9085.000000;1.345002
9084.000000;1.345137
9083.000000;1.344901
9082.000000;1.344411
9081.000000;1.343885
9080.000000;1.343259
9079.000000;1.342350
9078.000000;1.341264
9077.000000;1.340447
9076.000000;1.340295
9075.000000;1.340806
9074.000000;1.341584
9073.000000;1.342160
9072.000000;1.342277
9071.000000;1.341916
9070.000000;1.341090
9069.000000;1.339793
9068.000000;1.338279
9067.000000;1.337277
9066.000000;1.337554
9065.000000;1.339041
9064.000000;1.340605
9063.000000;1.341064
9062.000000;1.340426
9061.000000;1.339797
9060.000000;1.340055
9059.000000;1.341001
9058.000000;1.341840
9057.000000;1.342006
9056.000000;1.341256
9055.000000;1.339442
9054.000000;1.336812
9053.000000;1.334339
