Criado como novo conjunto de dados;"1909daniel.spp","-4280744.6 Secs"
cm-1;Abs
10000.000000;1.284861
9999.000000;1.284361
9998.000000;1.283710
9997.000000;1.282074
9996.000000;1.279780
9995.000000;1.277812
9994.000000;1.276735
9993.000000;1.276433
9992.000000;1.276491
9991.000000;1.276462
9990.000000;1.276009
9989.000000;1.275143
9988.000000;1.274146
9987.000000;1.273051
9986.000000;1.271503
9985.000000;1.269374
9984.000000;1.267238
9983.000000;1.265889
9982.000000;1.265611
9981.000000;1.266132
9980.000000;1.266928
9979.000000;1.267298
9978.000000;1.266608
9977.000000;1.265011
9976.000000;1.263621
9975.000000;1.263391
9974.000000;1.264029
9973.000000;1.264507
9972.000000;1.264389
9971.000000;1.263983
9970.000000;1.263402
9969.000000;1.262375
9968.000000;1.261008
9967.000000;1.259870
9966.000000;1.259078
9965.000000;1.258049
9964.000000;1.256502
9963.000000;1.255088
9962.000000;1.254527
9961.000000;1.254635
9960.000000;1.254670
9959.000000;1.254267
9958.000000;1.253589
9957.000000;1.252841
9956.000000;1.252123
9955.000000;1.251623
9954.000000;1.251507
9953.000000;1.251637
9952.000000;1.251611
9951.000000;1.251074
9950.000000;1.249925
9949.000000;1.248381
9948.000000;1.246936
9947.000000;1.246081
9946.000000;1.245836
9945.000000;1.245715
9944.000000;1.245388
9943.000000;1.245133
9942.000000;1.245303
9941.000000;1.245583
9940.000000;1.245294
9939.000000;1.244295
9938.000000;1.243096
9937.000000;1.242108
9936.000000;1.241206
9935.000000;1.240075
9934.000000;1.238617
9933.000000;1.236966
9932.000000;1.235423
9931.000000;1.234423
9930.000000;1.234151
9929.000000;1.234069
9928.000000;1.233277
9927.000000;1.231581
9926.000000;1.229759
9925.000000;1.228533
9924.000000;1.227746
9923.000000;1.226887
9922.000000;1.226001
9921.000000;1.225515
9920.000000;1.225451
9919.000000;1.225449
9918.000000;1.225487
9917.000000;1.225835
9916.000000;1.226167
9915.000000;1.225499
9914.000000;1.223445
9913.000000;1.220965
9912.000000;1.219361
9911.000000;1.218878
9910.000000;1.218727
9909.000000;1.218197
9908.000000;1.217226
9907.000000;1.216071
9906.000000;1.215092
9905.000000;1.214811
9904.000000;1.215502
9903.000000;1.216576
9902.000000;1.216879
9901.000000;1.215910
9900.000000;1.214377
9899.000000;1.213296
9898.000000;1.212892
9897.000000;1.212676
9896.000000;1.212257
9895.000000;1.211699
9894.000000;1.211181
9893.000000;1.210651
9892.000000;1.209877
9891.000000;1.208730
9890.000000;1.207437
9889.000000;1.206520
9888.000000;1.206285
9887.000000;1.206305
9886.000000;1.205692
9885.000000;1.204049
9884.000000;1.201901
9883.000000;1.200003
9882.000000;1.198483
9881.000000;1.197007
9880.000000;1.195548
9879.000000;1.194517
9878.000000;1.194218
9877.000000;1.194588
9876.000000;1.195482
9875.000000;1.196740
9874.000000;1.197836
9873.000000;1.197951
9872.000000;1.196784
9871.000000;1.195044
9870.000000;1.193773
9869.000000;1.193272
9868.000000;1.192976
9867.000000;1.192215
9866.000000;1.190772
9865.000000;1.188805
9864.000000;1.186675
9863.000000;1.184983
9862.000000;1.184349
9861.000000;1.184823
9860.000000;1.185622
9859.000000;1.185729
9858.000000;1.184720
9857.000000;1.182892
9856.000000;1.180722
9855.000000;1.178602
9854.000000;1.177022
9853.000000;1.176472
9852.000000;1.176899
9851.000000;1.177580
9850.000000;1.177882
9849.000000;1.177946
9848.000000;1.178200
9847.000000;1.178385
9846.000000;1.177627
9845.000000;1.175601
9844.000000;1.173110
9843.000000;1.171223
9842.000000;1.170193
9841.000000;1.169561
9840.000000;1.169019
9839.000000;1.168699
9838.000000;1.168641
9837.000000;1.168433
9836.000000;1.167642
9835.000000;1.166402
9834.000000;1.165283
9833.000000;1.164612
9832.000000;1.164145
9831.000000;1.163488
9830.000000;1.162708
9829.000000;1.162322
9828.000000;1.162641
9827.000000;1.163302
9826.000000;1.163565
9825.000000;1.163059
9824.000000;1.162113
9823.000000;1.161335
9822.000000;1.160963
9821.000000;1.160672
9820.000000;1.159897
9819.000000;1.158337
9818.000000;1.156283
9817.000000;1.154494
9816.000000;1.153640
9815.000000;1.153777
9814.000000;1.154408
9813.000000;1.154971
9812.000000;1.155155
9811.000000;1.154775
9810.000000;1.153670
9809.000000;1.151905
9808.000000;1.149889
9807.000000;1.148092
9806.000000;1.146682
9805.000000;1.145570
9804.000000;1.144687
9803.000000;1.144031
9802.000000;1.143509
9801.000000;1.142950
9800.000000;1.142312
9799.000000;1.141713
9798.000000;1.141249
9797.000000;1.140876
9796.000000;1.140531
9795.000000;1.140246
9794.000000;1.140055
9793.000000;1.139825
9792.000000;1.139286
9791.000000;1.138268
9790.000000;1.136922
9789.000000;1.135668
9788.000000;1.134882
9787.000000;1.134595
9786.000000;1.134547
9785.000000;1.134514
9784.000000;1.134466
9783.000000;1.134336
9782.000000;1.133802
9781.000000;1.132555
9780.000000;1.130727
9779.000000;1.128851
9778.000000;1.127305
9777.000000;1.125974
9776.000000;1.124582
9775.000000;1.123251
9774.000000;1.122475
9773.000000;1.122530
9772.000000;1.123110
9771.000000;1.123663
9770.000000;1.123893
9769.000000;1.123696
9768.000000;1.122744
9767.000000;1.120604
9766.000000;1.117495
9765.000000;1.114590
9764.000000;1.113138
9763.000000;1.113344
9762.000000;1.114336
9761.000000;1.115167
9760.000000;1.115518
9759.000000;1.115408
9758.000000;1.114751
9757.000000;1.113546
9756.000000;1.112230
9755.000000;1.111381
9754.000000;1.111079
9753.000000;1.110827
9752.000000;1.110130
9751.000000;1.108945
9750.000000;1.107595
9749.000000;1.106487
9748.000000;1.105935
9747.000000;1.105943
9746.000000;1.106045
9745.000000;1.105609
9744.000000;1.104522
9743.000000;1.103430
9742.000000;1.103103
9741.000000;1.103638
9740.000000;1.104414
9739.000000;1.104749
9738.000000;1.104407
9737.000000;1.103491
9736.000000;1.102089
9735.000000;1.100210
9734.000000;1.098003
9733.000000;1.095873
9732.000000;1.094307
9731.000000;1.093536
9730.000000;1.093356
9729.000000;1.093300
9728.000000;1.093074
9727.000000;1.092786
9726.000000;1.092719
9725.000000;1.092900
9724.000000;1.093018
9723.000000;1.092751
9722.000000;1.092063
9721.000000;1.091135
9720.000000;1.090161
9719.000000;1.089287
9718.000000;1.088624
9717.000000;1.088169
9716.000000;1.087731
9715.000000;1.087034
9714.000000;1.085900
9713.000000;1.084346
9712.000000;1.082659
9711.000000;1.081392
9710.000000;1.081064
9709.000000;1.081605
9708.000000;1.082169
9707.000000;1.081799
9706.000000;1.080342
9705.000000;1.078550
9704.000000;1.077274
9703.000000;1.076743
9702.000000;1.076612
9701.000000;1.076455
9700.000000;1.076080
9699.000000;1.075530
9698.000000;1.074925
9697.000000;1.074287
9696.000000;1.073456
9695.000000;1.072257
9694.000000;1.070766
9693.000000;1.069324
9692.000000;1.068295
9691.000000;1.067894
9690.000000;1.068119
9689.000000;1.068630
9688.000000;1.068777
9687.000000;1.068051
9686.000000;1.066628
9685.000000;1.065242
9684.000000;1.064426
9683.000000;1.064054
9682.000000;1.063718
9681.000000;1.063226
9680.000000;1.062617
9679.000000;1.061941
9678.000000;1.061259
9677.000000;1.060618
9676.000000;1.059854
9675.000000;1.058683
9674.000000;1.057202
9673.000000;1.056031
9672.000000;1.055590
9671.000000;1.055490
9670.000000;1.055030
9669.000000;1.054131
9668.000000;1.053324
9667.000000;1.052890
9666.000000;1.052500
9665.000000;1.051784
9664.000000;1.050806
9663.000000;1.049783
9662.000000;1.048705
9661.000000;1.047490
9660.000000;1.046333
9659.000000;1.045666
9658.000000;1.045777
9657.000000;1.046492
9656.000000;1.047197
9655.000000;1.047245
9654.000000;1.046453
9653.000000;1.045192
9652.000000;1.043920
9651.000000;1.042798
9650.000000;1.041832
9649.000000;1.041087
9648.000000;1.040476
9647.000000;1.039599
9646.000000;1.038209
9645.000000;1.036669
9644.000000;1.035523
9643.000000;1.034782
9642.000000;1.034106
9641.000000;1.033613
9640.000000;1.033818
9639.000000;1.034667
9638.000000;1.035246
9637.000000;1.034818
9636.000000;1.033684
9635.000000;1.032641
9634.000000;1.031999
9633.000000;1.031501
9632.000000;1.030870
9631.000000;1.029996
9630.000000;1.028810
9629.000000;1.027402
9628.000000;1.026167
9627.000000;1.025470
9626.000000;1.025208
9625.000000;1.024973
9624.000000;1.024532
9623.000000;1.023947
9622.000000;1.023330
9621.000000;1.022794
9620.000000;1.022514
9619.000000;1.022526
9618.000000;1.022487
9617.000000;1.021925
9616.000000;1.020737
9615.000000;1.019251
9614.000000;1.017843
9613.000000;1.016704
9612.000000;1.015913
9611.000000;1.015438
9610.000000;1.015079
9609.000000;1.014656
9608.000000;1.014253
9607.000000;1.014045
9606.000000;1.013871
9605.000000;1.013304
9604.000000;1.012275
9603.000000;1.011359
9602.000000;1.011195
9601.000000;1.011726
9600.000000;1.012181
9599.000000;1.011814
9598.000000;1.010560
9597.000000;1.008986
9596.000000;1.007704
9595.000000;1.006897
9594.000000;1.006342
9593.000000;1.005791
9592.000000;1.005177
9591.000000;1.004467
9590.000000;1.003550
9589.000000;1.002464
9588.000000;1.001591
9587.000000;1.001307
9586.000000;1.001450
9585.000000;1.001368
9584.000000;1.000610
9583.000000;0.999355
9582.000000;0.998065
9581.000000;0.996945
9580.000000;0.995959
9579.000000;0.995177
9578.000000;0.994761
9577.000000;0.994590
9576.000000;0.994191
9575.000000;0.993234
9574.000000;0.991966
9573.000000;0.990950
9572.000000;0.990456
9571.000000;0.990292
9570.000000;0.990210
9569.000000;0.990221
9568.000000;0.990332
9567.000000;0.990186
9566.000000;0.989336
9565.000000;0.987909
9564.000000;0.986664
9563.000000;0.986203
9562.000000;0.986270
9561.000000;0.986014
9560.000000;0.984898
9559.000000;0.983195
9558.000000;0.981654
9557.000000;0.980889
9556.000000;0.981069
9555.000000;0.981931
9554.000000;0.982888
9553.000000;0.983283
9552.000000;0.982772
9551.000000;0.981529
9550.000000;0.980037
9549.000000;0.978707
9548.000000;0.977709
9547.000000;0.977045
9546.000000;0.976600
9545.000000;0.976129
9544.000000;0.975410
9543.000000;0.974525
9542.000000;0.973840
9541.000000;0.973570
9540.000000;0.973452
9539.000000;0.973025
9538.000000;0.972216
9537.000000;0.971397
9536.000000;0.970846
9535.000000;0.970364
9534.000000;0.969579
9533.000000;0.968449
9532.000000;0.967276
9531.000000;0.966336
9530.000000;0.965679
9529.000000;0.965223
9528.000000;0.964814
9527.000000;0.964251
9526.000000;0.963434
9525.000000;0.962560
9524.000000;0.961970
9523.000000;0.961753
9522.000000;0.961622
9521.000000;0.961231
9520.000000;0.960523
9519.000000;0.959710
9518.000000;0.959019
9517.000000;0.958470
9516.000000;0.957842
9515.000000;0.956887
9514.000000;0.955709
9513.000000;0.954855
9512.000000;0.954813
9511.000000;0.955380
9510.000000;0.955763
9509.000000;0.955417
9508.000000;0.954581
9507.000000;0.953813
9506.000000;0.953269
9505.000000;0.952691
9504.000000;0.951917
9503.000000;0.951060
9502.000000;0.950247
9501.000000;0.949486
9500.000000;0.948791
9499.000000;0.948169
9498.000000;0.947498
9497.000000;0.946678
9496.000000;0.945916
9495.000000;0.945551
9494.000000;0.945518
9493.000000;0.945334
9492.000000;0.944760
9491.000000;0.944151
9490.000000;0.943897
9489.000000;0.943833
9488.000000;0.943510
9487.000000;0.942843
9486.000000;0.942074
9485.000000;0.941229
9484.000000;0.940136
9483.000000;0.939001
9482.000000;0.938406
9481.000000;0.938524
9480.000000;0.938719
9479.000000;0.938270
9478.000000;0.937234
9477.000000;0.936268
9476.000000;0.935801
9475.000000;0.935725
9474.000000;0.935699
9473.000000;0.935402
9472.000000;0.934556
9471.000000;0.933142
9470.000000;0.931613
9469.000000;0.930562
9468.000000;0.930068
9467.000000;0.929645
9466.000000;0.928927
9465.000000;0.928124
9464.000000;0.927685
9463.000000;0.927759
9462.000000;0.928139
9461.000000;0.928503
9460.000000;0.928507
9459.000000;0.927868
9458.000000;0.926594
9457.000000;0.925074
9456.000000;0.923771
9455.000000;0.922861
9454.000000;0.922262
9453.000000;0.921866
9452.000000;0.921619
9451.000000;0.921489
9450.000000;0.921520
9449.000000;0.921834
9448.000000;0.922416
9447.000000;0.922974
9446.000000;0.923099
9445.000000;0.922514
9444.000000;0.921159
9443.000000;0.919223
9442.000000;0.917193
9441.000000;0.915631
9440.000000;0.914702
9439.000000;0.914080
9438.000000;0.913506
9437.000000;0.913215
9436.000000;0.913535
9435.000000;0.914273
9434.000000;0.914858
9433.000000;0.914947
9432.000000;0.914523
9431.000000;0.913499
9430.000000;0.911751
9429.000000;0.909631
9428.000000;0.907972
9427.000000;0.907336
9426.000000;0.907505
9425.000000;0.907868
9424.000000;0.908055
9423.000000;0.907968
9422.000000;0.907504
9421.000000;0.906626
9420.000000;0.905609
9419.000000;0.904884
9418.000000;0.904586
9417.000000;0.904426
9416.000000;0.904060
9415.000000;0.903428
9414.000000;0.902700
9413.000000;0.902017
9412.000000;0.901359
9411.000000;0.900636
9410.000000;0.899812
9409.000000;0.898924
9408.000000;0.898041
9407.000000;0.897296
9406.000000;0.896931
9405.000000;0.897152
9404.000000;0.897802
9403.000000;0.898301
9402.000000;0.898111
9401.000000;0.897271
9400.000000;0.896257
9399.000000;0.895368
9398.000000;0.894515
9397.000000;0.893649
9396.000000;0.893040
9395.000000;0.892894
9394.000000;0.892922
9393.000000;0.892581
9392.000000;0.891691
9391.000000;0.890599
9390.000000;0.889780
9389.000000;0.889458
9388.000000;0.889563
9387.000000;0.889786
9386.000000;0.889665
9385.000000;0.888892
9384.000000;0.887661
9383.000000;0.886576
9382.000000;0.886112
9381.000000;0.886248
9380.000000;0.886609
9379.000000;0.886801
9378.000000;0.886514
9377.000000;0.885545
9376.000000;0.883978
9375.000000;0.882307
9374.000000;0.881130
9373.000000;0.880649
9372.000000;0.880573
9371.000000;0.880509
9370.000000;0.880295
9369.000000;0.879943
9368.000000;0.879482
9367.000000;0.878967
9366.000000;0.878486
9365.000000;0.877993
9364.000000;0.877274
9363.000000;0.876259
9362.000000;0.875293
9361.000000;0.874826
9360.000000;0.874857
9359.000000;0.874874
9358.000000;0.874441
9357.000000;0.873666
9356.000000;0.872985
9355.000000;0.872605
9354.000000;0.872313
9353.000000;0.871770
9352.000000;0.870888
9351.000000;0.869942
9350.000000;0.869324
9349.000000;0.869180
9348.000000;0.869252
9347.000000;0.869115
9346.000000;0.868572
9345.000000;0.867789
9344.000000;0.867082
9343.000000;0.866690
9342.000000;0.866680
9341.000000;0.866900
9340.000000;0.866971
9339.000000;0.866541
9338.000000;0.865645
9337.000000;0.864666
9336.000000;0.863885
9335.000000;0.863206
9334.000000;0.862406
9333.000000;0.861492
9332.000000;0.860670
9331.000000;0.860104
9330.000000;0.859860
9329.000000;0.859985
9328.000000;0.860444
9327.000000;0.860956
9326.000000;0.861065
9325.000000;0.860453
9324.000000;0.859230
9323.000000;0.857921
9322.000000;0.857114
9321.000000;0.856963
9320.000000;0.856970
9319.000000;0.856437
9318.000000;0.855242
9317.000000;0.854055
9316.000000;0.853628
9315.000000;0.853991
9314.000000;0.854470
9313.000000;0.854448
9312.000000;0.853930
9311.000000;0.853375
9310.000000;0.853098
9309.000000;0.852916
9308.000000;0.852344
9307.000000;0.851182
9306.000000;0.849844
9305.000000;0.849002
9304.000000;0.848869
9303.000000;0.848999
9302.000000;0.848846
9301.000000;0.848342
9300.000000;0.847819
9299.000000;0.847538
9298.000000;0.847476
9297.000000;0.847455
9296.000000;0.847273
9295.000000;0.846805
9294.000000;0.846114
9293.000000;0.845432
9292.000000;0.844892
9291.000000;0.844377
9290.000000;0.843724
9289.000000;0.842930
9288.000000;0.842040
9287.000000;0.841064
9286.000000;0.840194
9285.000000;0.839899
9284.000000;0.840427
9283.000000;0.841294
9282.000000;0.841601
9281.000000;0.840932
9280.000000;0.839700
9279.000000;0.838594
9278.000000;0.837954
9277.000000;0.837752
9276.000000;0.837861
9275.000000;0.838118
9274.000000;0.838276
9273.000000;0.838086
9272.000000;0.837456
9271.000000;0.836476
9270.000000;0.835383
9269.000000;0.834549
9268.000000;0.834286
9267.000000;0.834525
9266.000000;0.834768
9265.000000;0.834560
9264.000000;0.833994
9263.000000;0.833570
9262.000000;0.833499
9261.000000;0.833363
9260.000000;0.832619
9259.000000;0.831349
9258.000000;0.830234
9257.000000;0.829762
9256.000000;0.829711
9255.000000;0.829556
9254.000000;0.829136
9253.000000;0.828645
9252.000000;0.828181
9251.000000;0.827693
9250.000000;0.827355
9249.000000;0.827499
9248.000000;0.828036
9247.000000;0.828297
9246.000000;0.827711
9245.000000;0.826393
9244.000000;0.824919
9243.000000;0.823742
9242.000000;0.823002
9241.000000;0.822647
9240.000000;0.822475
9239.000000;0.822243
9238.000000;0.821976
9237.000000;0.822003
9236.000000;0.822465
9235.000000;0.823002
9234.000000;0.823135
9233.000000;0.822793
9232.000000;0.822189
9231.000000;0.821403
9230.000000;0.820421
9229.000000;0.819416
9228.000000;0.818651
9227.000000;0.818172
9226.000000;0.817881
9225.000000;0.817787
9224.000000;0.817865
9223.000000;0.817835
9222.000000;0.817446
9221.000000;0.816902
9220.000000;0.816611
9219.000000;0.816539
9218.000000;0.816231
9217.000000;0.815488
9216.000000;0.814639
9215.000000;0.814060
9214.000000;0.813781
9213.000000;0.813644
9212.000000;0.813548
9211.000000;0.813413
9210.000000;0.813182
9209.000000;0.812937
9208.000000;0.812816
9207.000000;0.812752
9206.000000;0.812513
9205.000000;0.812009
9204.000000;0.811365
9203.000000;0.810684
9202.000000;0.810046
9201.000000;0.809711
9200.000000;0.809969
9199.000000;0.810670
9198.000000;0.811238
9197.000000;0.811248
9196.000000;0.810751
9195.000000;0.809918
9194.000000;0.808758
9193.000000;0.807367
9192.000000;0.806139
9191.000000;0.805451
9190.000000;0.805275
9189.000000;0.805325
9188.000000;0.805408
9187.000000;0.805466
9186.000000;0.805428
9185.000000;0.805210
9184.000000;0.804772
9183.000000;0.804118
9182.000000;0.803367
9181.000000;0.802873
9180.000000;0.803020
9179.000000;0.803728
9178.000000;0.804326
9177.000000;0.804138
9176.000000;0.803138
9175.000000;0.801895
9174.000000;0.800967
9173.000000;0.800482
9172.000000;0.800205
9171.000000;0.799868
9170.000000;0.799448
9169.000000;0.799179
9168.000000;0.799229
9167.000000;0.799406
9166.000000;0.799323
9165.000000;0.798880
9164.000000;0.798362
9163.000000;0.797999
9162.000000;0.797640
9161.000000;0.797036
9160.000000;0.796284
9159.000000;0.795754
9158.000000;0.795620
9157.000000;0.795630
9156.000000;0.795362
9155.000000;0.794652
9154.000000;0.793755
9153.000000;0.793079
9152.000000;0.792725
9151.000000;0.792379
9150.000000;0.791741
9149.000000;0.790955
9148.000000;0.790406
9147.000000;0.790191
9146.000000;0.790078
9145.000000;0.789955
9144.000000;0.790005
9143.000000;0.790317
9142.000000;0.790644
9141.000000;0.790732
9140.000000;0.790634
9139.000000;0.790510
9138.000000;0.790342
9137.000000;0.790055
9136.000000;0.789721
9135.000000;0.789399
9134.000000;0.788922
9133.000000;0.788128
9132.000000;0.787223
9131.000000;0.786643
9130.000000;0.786563
9129.000000;0.786707
9128.000000;0.786646
9127.000000;0.786163
9126.000000;0.785385
9125.000000;0.784727
9124.000000;0.784645
9123.000000;0.785213
9122.000000;0.785953
9121.000000;0.786209
9120.000000;0.785720
9119.000000;0.784765
9118.000000;0.783830
9117.000000;0.783220
9116.000000;0.782942
9115.000000;0.782773
9114.000000;0.782450
9113.000000;0.781926
9112.000000;0.781449
9111.000000;0.781311
9110.000000;0.781509
9109.000000;0.781789
9108.000000;0.781973
9107.000000;0.782080
9106.000000;0.782118
9105.000000;0.781950
9104.000000;0.781496
9103.000000;0.780934
9102.000000;0.780568
9101.000000;0.780504
9100.000000;0.780552
9099.000000;0.780434
9098.000000;0.780007
9097.000000;0.779292
9096.000000;0.778411
9095.000000;0.777626
9094.000000;0.777301
9093.000000;0.777577
9092.000000;0.778034
9091.000000;0.777903
9090.000000;0.776828
9089.000000;0.775351
9088.000000;0.774394
9087.000000;0.774306
9086.000000;0.774585
9085.000000;0.774548
9084.000000;0.774064
9083.000000;0.773553
9082.000000;0.773416
9081.000000;0.773626
9080.000000;0.773784
9079.000000;0.773482
9078.000000;0.772649
9077.000000;0.771623
9076.000000;0.770863
9075.000000;0.770571
9074.000000;0.770598
9073.000000;0.770704
9072.000000;0.770825
9071.000000;0.771063
9070.000000;0.771493
9069.000000;0.772031
9068.000000;0.772422
9067.000000;0.772347
9066.000000;0.771669
9065.000000;0.770607
9064.000000;0.769587
9063.000000;0.768868
9062.000000;0.768358
9061.000000;0.767849
9060.000000;0.767323
9059.000000;0.766981
9058.000000;0.767041
9057.000000;0.767547
9056.000000;0.768282
9055.000000;0.768847
9054.000000;0.768925
9053.000000;0.768559
