Criado como novo conjunto de dados;"e2410_daniel_v2.spp","59945.1 Secs"
cm-1;Abs
10000.000000;1.122789
9999.000000;1.122456
9998.000000;1.122291
9997.000000;1.122152
9996.000000;1.121774
9995.000000;1.121164
9994.000000;1.120513
9993.000000;1.119798
9992.000000;1.118816
9991.000000;1.117634
9990.000000;1.116646
9989.000000;1.116099
9988.000000;1.115848
9987.000000;1.115658
9986.000000;1.115426
9985.000000;1.115037
9984.000000;1.114350
9983.000000;1.113430
9982.000000;1.112514
9981.000000;1.111656
9980.000000;1.110732
9979.000000;1.109882
9978.000000;1.109544
9977.000000;1.109840
9976.000000;1.110300
9975.000000;1.110438
9974.000000;1.110253
9973.000000;1.109941
9972.000000;1.109446
9971.000000;1.108630
9970.000000;1.107649
9969.000000;1.106822
9968.000000;1.106233
9967.000000;1.105707
9966.000000;1.105081
9965.000000;1.104332
9964.000000;1.103598
9963.000000;1.103188
9962.000000;1.103298
9961.000000;1.103545
9960.000000;1.103117
9959.000000;1.101723
9958.000000;1.100165
9957.000000;1.099600
9956.000000;1.100349
9955.000000;1.101642
9954.000000;1.102416
9953.000000;1.102120
9952.000000;1.100863
9951.000000;1.099136
9950.000000;1.097467
9949.000000;1.096184
9948.000000;1.095379
9947.000000;1.095049
9946.000000;1.095100
9945.000000;1.095238
9944.000000;1.095100
9943.000000;1.094622
9942.000000;1.094044
9941.000000;1.093447
9940.000000;1.092557
9939.000000;1.091204
9938.000000;1.089711
9937.000000;1.088572
9936.000000;1.087911
9935.000000;1.087492
9934.000000;1.087097
9933.000000;1.086675
9932.000000;1.086264
9931.000000;1.085996
9930.000000;1.086055
9929.000000;1.086407
9928.000000;1.086676
9927.000000;1.086508
9926.000000;1.085974
9925.000000;1.085386
9924.000000;1.084798
9923.000000;1.083953
9922.000000;1.082693
9921.000000;1.081224
9920.000000;1.079919
9919.000000;1.079055
9918.000000;1.078752
9917.000000;1.078991
9916.000000;1.079589
9915.000000;1.080178
9914.000000;1.080296
9913.000000;1.079638
9912.000000;1.078348
9911.000000;1.076985
9910.000000;1.076073
9909.000000;1.075674
9908.000000;1.075517
9907.000000;1.075437
9906.000000;1.075458
9905.000000;1.075461
9904.000000;1.075105
9903.000000;1.074230
9902.000000;1.073139
9901.000000;1.072334
9900.000000;1.072065
9899.000000;1.072199
9898.000000;1.072352
9897.000000;1.072116
9896.000000;1.071361
9895.000000;1.070394
9894.000000;1.069632
9893.000000;1.069119
9892.000000;1.068572
9891.000000;1.067851
9890.000000;1.067081
9889.000000;1.066328
9888.000000;1.065492
9887.000000;1.064613
9886.000000;1.063938
9885.000000;1.063561
9884.000000;1.063293
9883.000000;1.062982
9882.000000;1.062676
9881.000000;1.062322
9880.000000;1.061685
9879.000000;1.060763
9878.000000;1.059955
9877.000000;1.059554
9876.000000;1.059353
9875.000000;1.059013
9874.000000;1.058570
9873.000000;1.058264
9872.000000;1.058093
9871.000000;1.057849
9870.000000;1.057475
9869.000000;1.057105
9868.000000;1.056811
9867.000000;1.056548
9866.000000;1.056276
9865.000000;1.055953
9864.000000;1.055481
9863.000000;1.054793
9862.000000;1.053931
9861.000000;1.052971
9860.000000;1.051988
9859.000000;1.051158
9858.000000;1.050692
9857.000000;1.050550
9856.000000;1.050430
9855.000000;1.050165
9854.000000;1.049877
9853.000000;1.049635
9852.000000;1.049234
9851.000000;1.048561
9850.000000;1.047902
9849.000000;1.047549
9848.000000;1.047335
9847.000000;1.046867
9846.000000;1.046077
9845.000000;1.045179
9844.000000;1.044184
9843.000000;1.042891
9842.000000;1.041418
9841.000000;1.040359
9840.000000;1.040202
9839.000000;1.040754
9838.000000;1.041309
9837.000000;1.041320
9836.000000;1.040846
9835.000000;1.040366
9834.000000;1.040267
9833.000000;1.040504
9832.000000;1.040702
9831.000000;1.040477
9830.000000;1.039686
9829.000000;1.038485
9828.000000;1.037272
9827.000000;1.036493
9826.000000;1.036346
9825.000000;1.036593
9824.000000;1.036755
9823.000000;1.036455
9822.000000;1.035570
9821.000000;1.034181
9820.000000;1.032594
9819.000000;1.031315
9818.000000;1.030712
9817.000000;1.030658
9816.000000;1.030679
9815.000000;1.030425
9814.000000;1.029873
9813.000000;1.029153
9812.000000;1.028429
9811.000000;1.027880
9810.000000;1.027518
9809.000000;1.027018
9808.000000;1.026038
9807.000000;1.024738
9806.000000;1.023704
9805.000000;1.023290
9804.000000;1.023298
9803.000000;1.023292
9802.000000;1.022990
9801.000000;1.022322
9800.000000;1.021432
9799.000000;1.020693
9798.000000;1.020428
9797.000000;1.020497
9796.000000;1.020436
9795.000000;1.020058
9794.000000;1.019638
9793.000000;1.019448
9792.000000;1.019428
9791.000000;1.019423
9790.000000;1.019360
9789.000000;1.019085
9788.000000;1.018380
9787.000000;1.017364
9786.000000;1.016554
9785.000000;1.016272
9784.000000;1.016244
9783.000000;1.015975
9782.000000;1.015285
9781.000000;1.014283
9780.000000;1.013118
9779.000000;1.012016
9778.000000;1.011340
9777.000000;1.011268
9776.000000;1.011512
9775.000000;1.011569
9774.000000;1.011168
9773.000000;1.010356
9772.000000;1.009329
9771.000000;1.008352
9770.000000;1.007714
9769.000000;1.007521
9768.000000;1.007575
9767.000000;1.007568
9766.000000;1.007322
9765.000000;1.006798
9764.000000;1.006063
9763.000000;1.005342
9762.000000;1.004924
9761.000000;1.004841
9760.000000;1.004783
9759.000000;1.004384
9758.000000;1.003528
9757.000000;1.002343
9756.000000;1.001107
9755.000000;1.000212
9754.000000;0.999949
9753.000000;1.000185
9752.000000;1.000399
9751.000000;1.000124
9750.000000;0.999271
9749.000000;0.998076
9748.000000;0.996953
9747.000000;0.996343
9746.000000;0.996370
9745.000000;0.996575
9744.000000;0.996319
9743.000000;0.995537
9742.000000;0.994752
9741.000000;0.994303
9740.000000;0.993971
9739.000000;0.993511
9738.000000;0.993058
9737.000000;0.992759
9736.000000;0.992419
9735.000000;0.991863
9734.000000;0.991334
9733.000000;0.991140
9732.000000;0.991146
9731.000000;0.990970
9730.000000;0.990504
9729.000000;0.989922
9728.000000;0.989357
9727.000000;0.988868
9726.000000;0.988569
9725.000000;0.988459
9724.000000;0.988239
9723.000000;0.987580
9722.000000;0.986497
9721.000000;0.985244
9720.000000;0.984011
9719.000000;0.982961
9718.000000;0.982384
9717.000000;0.982446
9716.000000;0.982860
9715.000000;0.983121
9714.000000;0.983053
9713.000000;0.982876
9712.000000;0.982731
9711.000000;0.982447
9710.000000;0.981835
9709.000000;0.980992
9708.000000;0.980191
9707.000000;0.979569
9706.000000;0.979037
9705.000000;0.978471
9704.000000;0.977907
9703.000000;0.977483
9702.000000;0.977154
9701.000000;0.976624
9700.000000;0.975704
9699.000000;0.974654
9698.000000;0.973945
9697.000000;0.973724
9696.000000;0.973765
9695.000000;0.973894
9694.000000;0.974133
9693.000000;0.974361
9692.000000;0.974183
9691.000000;0.973358
9690.000000;0.972109
9689.000000;0.970863
9688.000000;0.969913
9687.000000;0.969447
9686.000000;0.969561
9685.000000;0.970002
9684.000000;0.970158
9683.000000;0.969608
9682.000000;0.968531
9681.000000;0.967404
9680.000000;0.966523
9679.000000;0.966011
9678.000000;0.965984
9677.000000;0.966391
9676.000000;0.966850
9675.000000;0.966948
9674.000000;0.966612
9673.000000;0.965987
9672.000000;0.965105
9671.000000;0.963979
9670.000000;0.962860
9669.000000;0.962118
9668.000000;0.961843
9667.000000;0.961758
9666.000000;0.961489
9665.000000;0.960834
9664.000000;0.959901
9663.000000;0.959128
9662.000000;0.958964
9661.000000;0.959331
9660.000000;0.959543
9659.000000;0.958985
9658.000000;0.957775
9657.000000;0.956544
9656.000000;0.955697
9655.000000;0.955159
9654.000000;0.954711
9653.000000;0.954293
9652.000000;0.953988
9651.000000;0.953920
9650.000000;0.954141
9649.000000;0.954472
9648.000000;0.954517
9647.000000;0.954014
9646.000000;0.953147
9645.000000;0.952323
9644.000000;0.951698
9643.000000;0.951111
9642.000000;0.950416
9641.000000;0.949677
9640.000000;0.949012
9639.000000;0.948435
9638.000000;0.947900
9637.000000;0.947414
9636.000000;0.947079
9635.000000;0.947049
9634.000000;0.947339
9633.000000;0.947636
9632.000000;0.947463
9631.000000;0.946694
9630.000000;0.945792
9629.000000;0.945324
9628.000000;0.945295
9627.000000;0.945153
9626.000000;0.944464
9625.000000;0.943372
9624.000000;0.942384
9623.000000;0.941851
9622.000000;0.941729
9621.000000;0.941738
9620.000000;0.941646
9619.000000;0.941405
9618.000000;0.941097
9617.000000;0.940793
9616.000000;0.940509
9615.000000;0.940224
9614.000000;0.939846
9613.000000;0.939205
9612.000000;0.938203
9611.000000;0.936998
9610.000000;0.935939
9609.000000;0.935277
9608.000000;0.935011
9607.000000;0.934977
9606.000000;0.934964
9605.000000;0.934772
9604.000000;0.934330
9603.000000;0.933784
9602.000000;0.933290
9601.000000;0.932738
9600.000000;0.931891
9599.000000;0.930823
9598.000000;0.929974
9597.000000;0.929658
9596.000000;0.929726
9595.000000;0.929835
9594.000000;0.929833
9593.000000;0.929711
9592.000000;0.929378
9591.000000;0.928731
9590.000000;0.927897
9589.000000;0.927196
9588.000000;0.926847
9587.000000;0.926780
9586.000000;0.926738
9585.000000;0.926525
9584.000000;0.926194
9583.000000;0.925988
9582.000000;0.925998
9581.000000;0.925948
9580.000000;0.925467
9579.000000;0.924575
9578.000000;0.923676
9577.000000;0.923078
9576.000000;0.922766
9575.000000;0.922664
9574.000000;0.922797
9573.000000;0.923052
9572.000000;0.923035
9571.000000;0.922418
9570.000000;0.921319
9569.000000;0.920187
9568.000000;0.919405
9567.000000;0.919074
9566.000000;0.918999
9565.000000;0.918771
9564.000000;0.918078
9563.000000;0.917086
9562.000000;0.916343
9561.000000;0.916166
9560.000000;0.916314
9559.000000;0.916388
9558.000000;0.916304
9557.000000;0.916173
9556.000000;0.915948
9555.000000;0.915489
9554.000000;0.914855
9553.000000;0.914258
9552.000000;0.913805
9551.000000;0.913497
9550.000000;0.913349
9549.000000;0.913245
9548.000000;0.912777
9547.000000;0.911590
9546.000000;0.909939
9545.000000;0.908599
9544.000000;0.908133
9543.000000;0.908406
9542.000000;0.908842
9541.000000;0.908989
9540.000000;0.908758
9539.000000;0.908301
9538.000000;0.907814
9537.000000;0.907384
9536.000000;0.906915
9535.000000;0.906235
9534.000000;0.905342
9533.000000;0.904517
9532.000000;0.904088
9531.000000;0.904066
9530.000000;0.904088
9529.000000;0.903797
9528.000000;0.903240
9527.000000;0.902782
9526.000000;0.902617
9525.000000;0.902515
9524.000000;0.902145
9523.000000;0.901506
9522.000000;0.900855
9521.000000;0.900294
9520.000000;0.899691
9519.000000;0.899008
9518.000000;0.898482
9517.000000;0.898352
9516.000000;0.898551
9515.000000;0.898769
9514.000000;0.898722
9513.000000;0.898287
9512.000000;0.897482
9511.000000;0.896434
9510.000000;0.895339
9509.000000;0.894382
9508.000000;0.893688
9507.000000;0.893311
9506.000000;0.893166
9505.000000;0.893029
9504.000000;0.892730
9503.000000;0.892348
9502.000000;0.892085
9501.000000;0.891962
9500.000000;0.891813
9499.000000;0.891588
9498.000000;0.891454
9497.000000;0.891505
9496.000000;0.891552
9495.000000;0.891329
9494.000000;0.890776
9493.000000;0.890008
9492.000000;0.889107
9491.000000;0.888125
9490.000000;0.887236
9489.000000;0.886715
9488.000000;0.886697
9487.000000;0.887003
9486.000000;0.887254
9485.000000;0.887212
9484.000000;0.886969
9483.000000;0.886729
9482.000000;0.886430
9481.000000;0.885743
9480.000000;0.884562
9479.000000;0.883301
9478.000000;0.882502
9477.000000;0.882276
9476.000000;0.882336
9475.000000;0.882479
9474.000000;0.882726
9473.000000;0.883019
9472.000000;0.883086
9471.000000;0.882740
9470.000000;0.882073
9469.000000;0.881295
9468.000000;0.880549
9467.000000;0.879979
9466.000000;0.879726
9465.000000;0.879708
9464.000000;0.879563
9463.000000;0.878962
9462.000000;0.877948
9461.000000;0.876867
9460.000000;0.876064
9459.000000;0.875688
9458.000000;0.875685
9457.000000;0.875872
9456.000000;0.876058
9455.000000;0.876121
9454.000000;0.875979
9453.000000;0.875549
9452.000000;0.874847
9451.000000;0.874064
9450.000000;0.873418
9449.000000;0.872945
9448.000000;0.872524
9447.000000;0.872074
9446.000000;0.871586
9445.000000;0.871045
9444.000000;0.870486
9443.000000;0.870073
9442.000000;0.869929
9441.000000;0.869935
9440.000000;0.869877
9439.000000;0.869763
9438.000000;0.869730
9437.000000;0.869714
9436.000000;0.869468
9435.000000;0.868961
9434.000000;0.868479
9433.000000;0.868253
9432.000000;0.868197
9431.000000;0.868090
9430.000000;0.867841
9429.000000;0.867490
9428.000000;0.867107
9427.000000;0.866738
9426.000000;0.866315
9425.000000;0.865658
9424.000000;0.864734
9423.000000;0.863872
9422.000000;0.863457
9421.000000;0.863426
9420.000000;0.863323
9419.000000;0.862911
9418.000000;0.862427
9417.000000;0.862161
9416.000000;0.862040
9415.000000;0.861790
9414.000000;0.861299
9413.000000;0.860686
9412.000000;0.860155
9411.000000;0.859856
9410.000000;0.859788
9409.000000;0.859770
9408.000000;0.859618
9407.000000;0.859329
9406.000000;0.858963
9405.000000;0.858434
9404.000000;0.857689
9403.000000;0.856995
9402.000000;0.856702
9401.000000;0.856702
9400.000000;0.856497
9399.000000;0.855881
9398.000000;0.855207
9397.000000;0.854824
9396.000000;0.854621
9395.000000;0.854302
9394.000000;0.853835
9393.000000;0.853374
9392.000000;0.852978
9391.000000;0.852622
9390.000000;0.852315
9389.000000;0.852005
9388.000000;0.851542
9387.000000;0.850928
9386.000000;0.850423
9385.000000;0.850247
9384.000000;0.850284
9383.000000;0.850264
9382.000000;0.850089
9381.000000;0.849818
9380.000000;0.849470
9379.000000;0.849016
9378.000000;0.848498
9377.000000;0.848005
9376.000000;0.847575
9375.000000;0.847190
9374.000000;0.846787
9373.000000;0.846271
9372.000000;0.845621
9371.000000;0.845012
9370.000000;0.844668
9369.000000;0.844589
9368.000000;0.844610
9367.000000;0.844703
9366.000000;0.844967
9365.000000;0.845267
9364.000000;0.845223
9363.000000;0.844706
9362.000000;0.844057
9361.000000;0.843613
9360.000000;0.843255
9359.000000;0.842666
9358.000000;0.841840
9357.000000;0.841081
9356.000000;0.840631
9355.000000;0.840498
9354.000000;0.840546
9353.000000;0.840577
9352.000000;0.840381
9351.000000;0.839894
9350.000000;0.839282
9349.000000;0.838765
9348.000000;0.838413
9347.000000;0.838172
9346.000000;0.837976
9345.000000;0.837747
9344.000000;0.837424
9343.000000;0.837070
9342.000000;0.836866
9341.000000;0.836879
9340.000000;0.836932
9339.000000;0.836755
9338.000000;0.836192
9337.000000;0.835233
9336.000000;0.834057
9335.000000;0.833084
9334.000000;0.832774
9333.000000;0.833169
9332.000000;0.833744
9331.000000;0.833842
9330.000000;0.833253
9329.000000;0.832305
9328.000000;0.831524
9327.000000;0.831277
9326.000000;0.831576
9325.000000;0.832098
9324.000000;0.832428
9323.000000;0.832369
9322.000000;0.831950
9321.000000;0.831208
9320.000000;0.830163
9319.000000;0.829033
9318.000000;0.828225
9317.000000;0.827994
9316.000000;0.828202
9315.000000;0.828497
9314.000000;0.828602
9313.000000;0.828429
9312.000000;0.828080
9311.000000;0.827797
9310.000000;0.827731
9309.000000;0.827685
9308.000000;0.827295
9307.000000;0.826520
9306.000000;0.825741
9305.000000;0.825289
9304.000000;0.825082
9303.000000;0.824829
9302.000000;0.824398
9301.000000;0.823885
9300.000000;0.823490
9299.000000;0.823409
9298.000000;0.823647
9297.000000;0.823854
9296.000000;0.823577
9295.000000;0.822814
9294.000000;0.822065
9293.000000;0.821708
9292.000000;0.821556
9291.000000;0.821219
9290.000000;0.820662
9289.000000;0.820166
9288.000000;0.819895
9287.000000;0.819759
9286.000000;0.819594
9285.000000;0.819311
9284.000000;0.818917
9283.000000;0.818527
9282.000000;0.818262
9281.000000;0.818042
9280.000000;0.817640
9279.000000;0.817040
9278.000000;0.816558
9277.000000;0.816429
9276.000000;0.816451
9275.000000;0.816253
9274.000000;0.815772
9273.000000;0.815251
9272.000000;0.814886
9271.000000;0.814697
9270.000000;0.814651
9269.000000;0.814679
9268.000000;0.814597
9267.000000;0.814204
9266.000000;0.813509
9265.000000;0.812744
9264.000000;0.812158
9263.000000;0.811877
9262.000000;0.811883
9261.000000;0.812016
9260.000000;0.812041
9259.000000;0.811851
9258.000000;0.811564
9257.000000;0.811362
9256.000000;0.811259
9255.000000;0.811107
9254.000000;0.810767
9253.000000;0.810208
9252.000000;0.809520
9251.000000;0.808893
9250.000000;0.808468
9249.000000;0.808166
9248.000000;0.807755
9247.000000;0.807184
9246.000000;0.806705
9245.000000;0.806552
9244.000000;0.806609
9243.000000;0.806547
9242.000000;0.806236
9241.000000;0.805863
9240.000000;0.805654
9239.000000;0.805601
9238.000000;0.805484
9237.000000;0.805110
9236.000000;0.804521
9235.000000;0.803977
9234.000000;0.803699
9233.000000;0.803624
9232.000000;0.803491
9231.000000;0.803136
9230.000000;0.802635
9229.000000;0.802133
9228.000000;0.801689
9227.000000;0.801320
9226.000000;0.801088
9225.000000;0.801030
9224.000000;0.801083
9223.000000;0.801129
9222.000000;0.801085
9221.000000;0.800938
9220.000000;0.800758
9219.000000;0.800651
9218.000000;0.800616
9217.000000;0.800471
9216.000000;0.800048
9215.000000;0.799431
9214.000000;0.798879
9213.000000;0.798515
9212.000000;0.798262
9211.000000;0.798072
9210.000000;0.798023
9209.000000;0.798137
9208.000000;0.798267
9207.000000;0.798249
9206.000000;0.798032
9205.000000;0.797644
9204.000000;0.797152
9203.000000;0.796729
9202.000000;0.796565
9201.000000;0.796650
9200.000000;0.796750
9199.000000;0.796648
9198.000000;0.796312
9197.000000;0.795816
9196.000000;0.795248
9195.000000;0.794731
9194.000000;0.794383
9193.000000;0.794186
9192.000000;0.794015
9191.000000;0.793825
9190.000000;0.793660
9189.000000;0.793478
9188.000000;0.793147
9187.000000;0.792658
9186.000000;0.792157
9185.000000;0.791707
9184.000000;0.791201
9183.000000;0.790593
9182.000000;0.790070
9181.000000;0.789889
9180.000000;0.790119
9179.000000;0.790581
9178.000000;0.790954
9177.000000;0.790959
9176.000000;0.790598
9175.000000;0.790189
9174.000000;0.789999
9173.000000;0.789869
9172.000000;0.789399
9171.000000;0.788493
9170.000000;0.787491
9169.000000;0.786746
9168.000000;0.786336
9167.000000;0.786225
9166.000000;0.786416
9165.000000;0.786815
9164.000000;0.787147
9163.000000;0.787171
9162.000000;0.786851
9161.000000;0.786285
9160.000000;0.785641
9159.000000;0.785171
9158.000000;0.785041
9157.000000;0.785070
9156.000000;0.784881
9155.000000;0.784384
9154.000000;0.783870
9153.000000;0.783541
9152.000000;0.783254
9151.000000;0.782856
9150.000000;0.782506
9149.000000;0.782424
9148.000000;0.782529
9147.000000;0.782560
9146.000000;0.782404
9145.000000;0.782140
9144.000000;0.781890
9143.000000;0.781765
9142.000000;0.781839
9141.000000;0.782017
9140.000000;0.782065
9139.000000;0.781869
9138.000000;0.781524
9137.000000;0.781108
9136.000000;0.780551
9135.000000;0.779862
9134.000000;0.779247
9133.000000;0.778855
9132.000000;0.778588
9131.000000;0.778309
9130.000000;0.778052
9129.000000;0.777896
9128.000000;0.777791
9127.000000;0.777699
9126.000000;0.777706
9125.000000;0.777832
9124.000000;0.777882
9123.000000;0.777684
9122.000000;0.777319
9121.000000;0.776938
9120.000000;0.776518
9119.000000;0.775994
9118.000000;0.775469
9117.000000;0.775097
9116.000000;0.774853
9115.000000;0.774643
9114.000000;0.774520
9113.000000;0.774576
9112.000000;0.774721
9111.000000;0.774750
9110.000000;0.774572
9109.000000;0.774210
9108.000000;0.773692
9107.000000;0.773121
9106.000000;0.772723
9105.000000;0.772613
9104.000000;0.772586
9103.000000;0.772363
9102.000000;0.771974
9101.000000;0.771693
9100.000000;0.771646
9099.000000;0.771677
9098.000000;0.771577
9097.000000;0.771247
9096.000000;0.770682
9095.000000;0.770007
9094.000000;0.769514
9093.000000;0.769466
9092.000000;0.769784
9091.000000;0.770063
9090.000000;0.769977
9089.000000;0.769582
9088.000000;0.769185
9087.000000;0.769014
9086.000000;0.769055
9085.000000;0.769149
9084.000000;0.769170
9083.000000;0.769085
9082.000000;0.768888
9081.000000;0.768533
9080.000000;0.768029
9079.000000;0.767540
9078.000000;0.767245
9077.000000;0.767097
9076.000000;0.766859
9075.000000;0.766422
9074.000000;0.765950
9073.000000;0.765628
9072.000000;0.765428
9071.000000;0.765217
9070.000000;0.764965
9069.000000;0.764731
9068.000000;0.764536
9067.000000;0.764376
9066.000000;0.764256
9065.000000;0.764110
9064.000000;0.763809
9063.000000;0.763353
9062.000000;0.762948
9061.000000;0.762754
9060.000000;0.762652
9059.000000;0.762424
9058.000000;0.762074
9057.000000;0.761826
9056.000000;0.761822
9055.000000;0.761975
9054.000000;0.762113
9053.000000;0.762147
