Criado como novo conjunto de dados;"e2410_daniel_v2.spp","105127.8 Secs"
cm-1;Abs
10000.000000;0.142735
9999.000000;0.143783
9998.000000;0.144794
9997.000000;0.145582
9996.000000;0.146094
9995.000000;0.146395
9994.000000;0.146629
9993.000000;0.146993
9992.000000;0.147641
9991.000000;0.148510
9990.000000;0.149301
9989.000000;0.149777
9988.000000;0.150028
9987.000000;0.150332
9986.000000;0.150794
9985.000000;0.151314
9984.000000;0.151903
9983.000000;0.152793
9982.000000;0.154093
9981.000000;0.155507
9980.000000;0.156585
9979.000000;0.157222
9978.000000;0.157711
9977.000000;0.158343
9976.000000;0.159092
9975.000000;0.159772
9974.000000;0.160333
9973.000000;0.160894
9972.000000;0.161547
9971.000000;0.162263
9970.000000;0.162993
9969.000000;0.163769
9968.000000;0.164649
9967.000000;0.165574
9966.000000;0.166359
9965.000000;0.166855
9964.000000;0.167085
9963.000000;0.167218
9962.000000;0.167439
9961.000000;0.167870
9960.000000;0.168568
9959.000000;0.169499
9958.000000;0.170499
9957.000000;0.171357
9956.000000;0.172006
9955.000000;0.172586
9954.000000;0.173268
9953.000000;0.174063
9952.000000;0.174857
9951.000000;0.175599
9950.000000;0.176357
9949.000000;0.177203
9948.000000;0.178124
9947.000000;0.179063
9946.000000;0.179967
9945.000000;0.180759
9944.000000;0.181353
9943.000000;0.181762
9942.000000;0.182161
9941.000000;0.182731
9940.000000;0.183484
9939.000000;0.184276
9938.000000;0.185005
9937.000000;0.185692
9936.000000;0.186362
9935.000000;0.186949
9934.000000;0.187398
9933.000000;0.187798
9932.000000;0.188314
9931.000000;0.189009
9930.000000;0.189809
9929.000000;0.190646
9928.000000;0.191549
9927.000000;0.192551
9926.000000;0.193600
9925.000000;0.194617
9924.000000;0.195567
9923.000000;0.196432
9922.000000;0.197147
9921.000000;0.197671
9920.000000;0.198080
9919.000000;0.198522
9918.000000;0.199090
9917.000000;0.199799
9916.000000;0.200651
9915.000000;0.201630
9914.000000;0.202640
9913.000000;0.203567
9912.000000;0.204409
9911.000000;0.205272
9910.000000;0.206208
9909.000000;0.207141
9908.000000;0.208001
9907.000000;0.208815
9906.000000;0.209589
9905.000000;0.210186
9904.000000;0.210452
9903.000000;0.210457
9902.000000;0.210510
9901.000000;0.210915
9900.000000;0.211727
9899.000000;0.212744
9898.000000;0.213701
9897.000000;0.214481
9896.000000;0.215199
9895.000000;0.216061
9894.000000;0.217138
9893.000000;0.218285
9892.000000;0.219300
9891.000000;0.220143
9890.000000;0.220918
9889.000000;0.221700
9888.000000;0.222447
9887.000000;0.223122
9886.000000;0.223808
9885.000000;0.224643
9884.000000;0.225653
9883.000000;0.226691
9882.000000;0.227573
9881.000000;0.228240
9880.000000;0.228805
9879.000000;0.229451
9878.000000;0.230305
9877.000000;0.231376
9876.000000;0.232548
9875.000000;0.233635
9874.000000;0.234478
9873.000000;0.235061
9872.000000;0.235528
9871.000000;0.236074
9870.000000;0.236802
9869.000000;0.237720
9868.000000;0.238811
9867.000000;0.239996
9866.000000;0.241050
9865.000000;0.241702
9864.000000;0.241923
9863.000000;0.242038
9862.000000;0.242456
9861.000000;0.243312
9860.000000;0.244447
9859.000000;0.245652
9858.000000;0.246821
9857.000000;0.247883
9856.000000;0.248766
9855.000000;0.249467
9854.000000;0.250090
9853.000000;0.250755
9852.000000;0.251517
9851.000000;0.252385
9850.000000;0.253333
9849.000000;0.254261
9848.000000;0.255039
9847.000000;0.255655
9846.000000;0.256257
9845.000000;0.256979
9844.000000;0.257802
9843.000000;0.258660
9842.000000;0.259601
9841.000000;0.260712
9840.000000;0.261898
9839.000000;0.262901
9838.000000;0.263613
9837.000000;0.264249
9836.000000;0.265105
9835.000000;0.266198
9834.000000;0.267243
9833.000000;0.267989
9832.000000;0.268486
9831.000000;0.269011
9830.000000;0.269790
9829.000000;0.270836
9828.000000;0.272001
9827.000000;0.273094
9826.000000;0.273974
9825.000000;0.274614
9824.000000;0.275143
9823.000000;0.275770
9822.000000;0.276605
9821.000000;0.277551
9820.000000;0.278420
9819.000000;0.279140
9818.000000;0.279815
9817.000000;0.280588
9816.000000;0.281517
9815.000000;0.282579
9814.000000;0.283732
9813.000000;0.284924
9812.000000;0.286110
9811.000000;0.287284
9810.000000;0.288447
9809.000000;0.289528
9808.000000;0.290419
9807.000000;0.291133
9806.000000;0.291840
9805.000000;0.292632
9804.000000;0.293351
9803.000000;0.293782
9802.000000;0.294028
9801.000000;0.294519
9800.000000;0.295591
9799.000000;0.297128
9798.000000;0.298694
9797.000000;0.299922
9796.000000;0.300740
9795.000000;0.301321
9794.000000;0.301937
9793.000000;0.302838
9792.000000;0.304099
9791.000000;0.305538
9790.000000;0.306823
9789.000000;0.307712
9788.000000;0.308210
9787.000000;0.308497
9786.000000;0.308739
9785.000000;0.308994
9784.000000;0.309295
9783.000000;0.309792
9782.000000;0.310732
9781.000000;0.312233
9780.000000;0.314116
9779.000000;0.316020
9778.000000;0.317665
9777.000000;0.318942
9776.000000;0.319799
9775.000000;0.320241
9774.000000;0.320484
9773.000000;0.320948
9772.000000;0.321919
9771.000000;0.323272
9770.000000;0.324621
9769.000000;0.325716
9768.000000;0.326602
9767.000000;0.327446
9766.000000;0.328340
9765.000000;0.329274
9764.000000;0.330185
9763.000000;0.331023
9762.000000;0.331812
9761.000000;0.332637
9760.000000;0.333524
9759.000000;0.334396
9758.000000;0.335198
9757.000000;0.335964
9756.000000;0.336695
9755.000000;0.337280
9754.000000;0.337732
9753.000000;0.338396
9752.000000;0.339637
9751.000000;0.341327
9750.000000;0.342885
9749.000000;0.343899
9748.000000;0.344492
9747.000000;0.344974
9746.000000;0.345430
9745.000000;0.345865
9744.000000;0.346503
9743.000000;0.347614
9742.000000;0.349101
9741.000000;0.350561
9740.000000;0.351782
9739.000000;0.352915
9738.000000;0.354121
9737.000000;0.355275
9736.000000;0.356196
9735.000000;0.356971
9734.000000;0.357871
9733.000000;0.358961
9732.000000;0.360006
9731.000000;0.360797
9730.000000;0.361459
9729.000000;0.362329
9728.000000;0.363543
9727.000000;0.364842
9726.000000;0.365845
9725.000000;0.366478
9724.000000;0.367067
9723.000000;0.367968
9722.000000;0.369192
9721.000000;0.370443
9720.000000;0.371491
9719.000000;0.372408
9718.000000;0.373417
9717.000000;0.374578
9716.000000;0.375720
9715.000000;0.376679
9714.000000;0.377505
9713.000000;0.378375
9712.000000;0.379348
9711.000000;0.380295
9710.000000;0.381107
9709.000000;0.381866
9708.000000;0.382755
9707.000000;0.383838
9706.000000;0.384996
9705.000000;0.386047
9704.000000;0.386904
9703.000000;0.387653
9702.000000;0.388554
9701.000000;0.389886
9700.000000;0.391665
9699.000000;0.393509
9698.000000;0.394901
9697.000000;0.395622
9696.000000;0.395885
9695.000000;0.396059
9694.000000;0.396401
9693.000000;0.397037
9692.000000;0.398016
9691.000000;0.399271
9690.000000;0.400615
9689.000000;0.401862
9688.000000;0.402947
9687.000000;0.403912
9686.000000;0.404851
9685.000000;0.405883
9684.000000;0.407062
9683.000000;0.408248
9682.000000;0.409196
9681.000000;0.409864
9680.000000;0.410560
9679.000000;0.411627
9678.000000;0.413004
9677.000000;0.414206
9676.000000;0.414772
9675.000000;0.414756
9674.000000;0.414773
9673.000000;0.415521
9672.000000;0.417175
9671.000000;0.419194
9670.000000;0.420793
9669.000000;0.421612
9668.000000;0.421893
9667.000000;0.422098
9666.000000;0.422559
9665.000000;0.423477
9664.000000;0.424946
9663.000000;0.426796
9662.000000;0.428563
9661.000000;0.429894
9660.000000;0.430911
9659.000000;0.431985
9658.000000;0.433210
9657.000000;0.434291
9656.000000;0.434982
9655.000000;0.435430
9654.000000;0.436009
9653.000000;0.436886
9652.000000;0.437848
9651.000000;0.438561
9650.000000;0.438983
9649.000000;0.439485
9648.000000;0.440490
9647.000000;0.442008
9646.000000;0.443635
9645.000000;0.445044
9644.000000;0.446324
9643.000000;0.447704
9642.000000;0.449090
9641.000000;0.450090
9640.000000;0.450501
9639.000000;0.450596
9638.000000;0.450870
9637.000000;0.451593
9636.000000;0.452646
9635.000000;0.453724
9634.000000;0.454658
9633.000000;0.455511
9632.000000;0.456404
9631.000000;0.457327
9630.000000;0.458217
9629.000000;0.459191
9628.000000;0.460490
9627.000000;0.462117
9626.000000;0.463666
9625.000000;0.464668
9624.000000;0.465044
9623.000000;0.465157
9622.000000;0.465484
9621.000000;0.466278
9620.000000;0.467402
9619.000000;0.468429
9618.000000;0.469035
9617.000000;0.469396
9616.000000;0.470025
9615.000000;0.471141
9614.000000;0.472397
9613.000000;0.473394
9612.000000;0.474207
9611.000000;0.475130
9610.000000;0.476099
9609.000000;0.476751
9608.000000;0.477017
9607.000000;0.477305
9606.000000;0.478032
9605.000000;0.479237
9604.000000;0.480697
9603.000000;0.482182
9602.000000;0.483489
9601.000000;0.484455
9600.000000;0.485082
9599.000000;0.485568
9598.000000;0.486161
9597.000000;0.487044
9596.000000;0.488276
9595.000000;0.489640
9594.000000;0.490622
9593.000000;0.490831
9592.000000;0.490531
9591.000000;0.490530
9590.000000;0.491391
9589.000000;0.492896
9588.000000;0.494368
9587.000000;0.495392
9586.000000;0.496115
9585.000000;0.496970
9584.000000;0.498239
9583.000000;0.499808
9582.000000;0.501264
9581.000000;0.502281
9580.000000;0.502913
9579.000000;0.503422
9578.000000;0.503823
9577.000000;0.503808
9576.000000;0.503212
9575.000000;0.502381
9574.000000;0.501968
9573.000000;0.502420
9572.000000;0.503741
9571.000000;0.505577
9570.000000;0.507405
9569.000000;0.508788
9568.000000;0.509612
9567.000000;0.510060
9566.000000;0.510345
9565.000000;0.510544
9564.000000;0.510734
9563.000000;0.511119
9562.000000;0.511837
9561.000000;0.512751
9560.000000;0.513585
9559.000000;0.514272
9558.000000;0.514952
9557.000000;0.515659
9556.000000;0.516180
9555.000000;0.516371
9554.000000;0.516462
9553.000000;0.516840
9552.000000;0.517556
9551.000000;0.518230
9550.000000;0.518528
9549.000000;0.518640
9548.000000;0.519152
9547.000000;0.520473
9546.000000;0.522432
9545.000000;0.524409
9544.000000;0.525752
9543.000000;0.526157
9542.000000;0.525867
9541.000000;0.525547
9540.000000;0.525807
9539.000000;0.526711
9538.000000;0.527795
9537.000000;0.528603
9536.000000;0.529084
9535.000000;0.529453
9534.000000;0.529878
9533.000000;0.530417
9532.000000;0.531050
9531.000000;0.531567
9530.000000;0.531618
9529.000000;0.531125
9528.000000;0.530508
9527.000000;0.530255
9526.000000;0.530394
9525.000000;0.530657
9524.000000;0.531070
9523.000000;0.531955
9522.000000;0.533338
9521.000000;0.534681
9520.000000;0.535407
9519.000000;0.535453
9518.000000;0.535200
9517.000000;0.535035
9516.000000;0.535119
9515.000000;0.535400
9514.000000;0.535719
9513.000000;0.535998
9512.000000;0.536383
9511.000000;0.537052
9510.000000;0.537861
9509.000000;0.538378
9508.000000;0.538349
9507.000000;0.537999
9506.000000;0.537790
9505.000000;0.538061
9504.000000;0.538904
9503.000000;0.540120
9502.000000;0.541201
9501.000000;0.541651
9500.000000;0.541524
9499.000000;0.541415
9498.000000;0.541737
9497.000000;0.542227
9496.000000;0.542354
9495.000000;0.541997
9494.000000;0.541453
9493.000000;0.540986
9492.000000;0.540694
9491.000000;0.540686
9490.000000;0.540998
9489.000000;0.541378
9488.000000;0.541507
9487.000000;0.541474
9486.000000;0.541755
9485.000000;0.542582
9484.000000;0.543597
9483.000000;0.544260
9482.000000;0.544422
9481.000000;0.544370
9480.000000;0.544444
9479.000000;0.544741
9478.000000;0.545099
9477.000000;0.545257
9476.000000;0.545060
9475.000000;0.544642
9474.000000;0.544379
9473.000000;0.544564
9472.000000;0.545091
9471.000000;0.545508
9470.000000;0.545426
9469.000000;0.544908
9468.000000;0.544451
9467.000000;0.544543
9466.000000;0.545171
9465.000000;0.545800
9464.000000;0.545866
9463.000000;0.545309
9462.000000;0.544592
9461.000000;0.544235
9460.000000;0.544350
9459.000000;0.544594
9458.000000;0.544525
9457.000000;0.544040
9456.000000;0.543492
9455.000000;0.543321
9454.000000;0.543574
9453.000000;0.543868
9452.000000;0.543885
9451.000000;0.543761
9450.000000;0.543833
9449.000000;0.544130
9448.000000;0.544346
9447.000000;0.544238
9446.000000;0.543807
9445.000000;0.543089
9444.000000;0.542100
9443.000000;0.541075
9442.000000;0.540488
9441.000000;0.540547
9440.000000;0.540833
9439.000000;0.540690
9438.000000;0.539936
9437.000000;0.538999
9436.000000;0.538351
9435.000000;0.538036
9434.000000;0.537782
9433.000000;0.537351
9432.000000;0.536675
9431.000000;0.535785
9430.000000;0.534828
9429.000000;0.534103
9428.000000;0.533900
9427.000000;0.534234
9426.000000;0.534824
9425.000000;0.535386
9424.000000;0.535829
9423.000000;0.536063
9422.000000;0.535761
9421.000000;0.534599
9420.000000;0.532816
9419.000000;0.531314
9418.000000;0.530977
9417.000000;0.531864
9416.000000;0.533141
9415.000000;0.533782
9414.000000;0.533317
9413.000000;0.532053
9412.000000;0.530774
9411.000000;0.530242
9410.000000;0.530731
9409.000000;0.531812
9408.000000;0.532621
9407.000000;0.532493
9406.000000;0.531390
9405.000000;0.529790
9404.000000;0.528283
9403.000000;0.527262
9402.000000;0.526766
9401.000000;0.526451
9400.000000;0.525900
9399.000000;0.525159
9398.000000;0.524831
9397.000000;0.525375
9396.000000;0.526344
9395.000000;0.526651
9394.000000;0.525708
9393.000000;0.524088
9392.000000;0.522845
9391.000000;0.522382
9390.000000;0.522209
9389.000000;0.521713
9388.000000;0.520899
9387.000000;0.520299
9386.000000;0.520272
9385.000000;0.520542
9384.000000;0.520434
9383.000000;0.519497
9382.000000;0.517887
9381.000000;0.516195
9380.000000;0.514968
9379.000000;0.514408
9378.000000;0.514385
9377.000000;0.514566
9376.000000;0.514515
9375.000000;0.513895
9374.000000;0.512740
9373.000000;0.511514
9372.000000;0.510744
9371.000000;0.510538
9370.000000;0.510476
9369.000000;0.510007
9368.000000;0.508954
9367.000000;0.507668
9366.000000;0.506698
9365.000000;0.506298
9364.000000;0.506254
9363.000000;0.506189
9362.000000;0.505953
9361.000000;0.505622
9360.000000;0.505196
9359.000000;0.504492
9358.000000;0.503413
9357.000000;0.502157
9356.000000;0.501051
9355.000000;0.500269
9354.000000;0.499791
9353.000000;0.499470
9352.000000;0.499003
9351.000000;0.498040
9350.000000;0.496577
9349.000000;0.495159
9348.000000;0.494411
9347.000000;0.494354
9346.000000;0.494414
9345.000000;0.494119
9344.000000;0.493513
9343.000000;0.492864
9342.000000;0.492250
9341.000000;0.491622
9340.000000;0.491028
9339.000000;0.490564
9338.000000;0.490203
9337.000000;0.489831
9336.000000;0.489402
9335.000000;0.488921
9334.000000;0.488373
9333.000000;0.487757
9332.000000;0.487108
9331.000000;0.486362
9330.000000;0.485347
9329.000000;0.484059
9328.000000;0.482856
9327.000000;0.482182
9326.000000;0.482097
9325.000000;0.482212
9324.000000;0.482046
9323.000000;0.481392
9322.000000;0.480380
9321.000000;0.479304
9320.000000;0.478358
9319.000000;0.477476
9318.000000;0.476496
9317.000000;0.475513
9316.000000;0.474877
9315.000000;0.474690
9314.000000;0.474537
9313.000000;0.473963
9312.000000;0.473097
9311.000000;0.472441
9310.000000;0.472085
9309.000000;0.471526
9308.000000;0.470320
9307.000000;0.468597
9306.000000;0.466806
9305.000000;0.465276
9304.000000;0.464201
9303.000000;0.463790
9302.000000;0.464100
9301.000000;0.464796
9300.000000;0.465267
9299.000000;0.464993
9298.000000;0.463803
9297.000000;0.461928
9296.000000;0.459934
9295.000000;0.458409
9294.000000;0.457539
9293.000000;0.457039
9292.000000;0.456568
9291.000000;0.456069
9290.000000;0.455611
9289.000000;0.455134
9288.000000;0.454547
9287.000000;0.453889
9286.000000;0.453149
9285.000000;0.452143
9284.000000;0.450863
9283.000000;0.449802
9282.000000;0.449486
9281.000000;0.449721
9280.000000;0.449659
9279.000000;0.448727
9278.000000;0.447165
9277.000000;0.445584
9276.000000;0.444346
9275.000000;0.443537
9274.000000;0.443169
9273.000000;0.443100
9272.000000;0.442953
9271.000000;0.442464
9270.000000;0.441792
9269.000000;0.441251
9268.000000;0.440821
9267.000000;0.440200
9266.000000;0.439296
9265.000000;0.438352
9264.000000;0.437560
9263.000000;0.436812
9262.000000;0.435948
9261.000000;0.435049
9260.000000;0.434302
9259.000000;0.433694
9258.000000;0.433009
9257.000000;0.432099
9256.000000;0.431065
9255.000000;0.430122
9254.000000;0.429377
9253.000000;0.428767
9252.000000;0.428190
9251.000000;0.427621
9250.000000;0.427071
9249.000000;0.426486
9248.000000;0.425753
9247.000000;0.424840
9246.000000;0.423849
9245.000000;0.422900
9244.000000;0.422029
9243.000000;0.421259
9242.000000;0.420689
9241.000000;0.420377
9240.000000;0.420168
9239.000000;0.419755
9238.000000;0.418963
9237.000000;0.417921
9236.000000;0.416932
9235.000000;0.416222
9234.000000;0.415814
9233.000000;0.415524
9232.000000;0.415056
9231.000000;0.414206
9230.000000;0.413054
9229.000000;0.411901
9228.000000;0.410970
9227.000000;0.410244
9226.000000;0.409638
9225.000000;0.409197
9224.000000;0.408979
9223.000000;0.408805
9222.000000;0.408324
9221.000000;0.407402
9220.000000;0.406289
9219.000000;0.405328
9218.000000;0.404609
9217.000000;0.403997
9216.000000;0.403414
9215.000000;0.402928
9214.000000;0.402584
9213.000000;0.402268
9212.000000;0.401802
9211.000000;0.401127
9210.000000;0.400367
9209.000000;0.399728
9208.000000;0.399336
9207.000000;0.399133
9206.000000;0.398929
9205.000000;0.398565
9204.000000;0.397998
9203.000000;0.397224
9202.000000;0.396213
9201.000000;0.395013
9200.000000;0.393851
9199.000000;0.392971
9198.000000;0.392327
9197.000000;0.391577
9196.000000;0.390457
9195.000000;0.389098
9194.000000;0.387903
9193.000000;0.387173
9192.000000;0.386911
9191.000000;0.386889
9190.000000;0.386827
9189.000000;0.386533
9188.000000;0.385971
9187.000000;0.385215
9186.000000;0.384329
9185.000000;0.383339
9184.000000;0.382339
9183.000000;0.381513
9182.000000;0.380951
9181.000000;0.380486
9180.000000;0.379835
9179.000000;0.378917
9178.000000;0.377935
9177.000000;0.377152
9176.000000;0.376654
9175.000000;0.376370
9174.000000;0.376206
9173.000000;0.376101
9172.000000;0.375985
9171.000000;0.375744
9170.000000;0.375272
9169.000000;0.374539
9168.000000;0.373603
9167.000000;0.372550
9166.000000;0.371464
9165.000000;0.370458
9164.000000;0.369693
9163.000000;0.369254
9162.000000;0.369013
9161.000000;0.368677
9160.000000;0.368058
9159.000000;0.367207
9158.000000;0.366262
9157.000000;0.365240
9156.000000;0.364128
9155.000000;0.363095
9154.000000;0.362457
9153.000000;0.362372
9152.000000;0.362643
9151.000000;0.362834
9150.000000;0.362546
9149.000000;0.361625
9148.000000;0.360238
9147.000000;0.358792
9146.000000;0.357710
9145.000000;0.357179
9144.000000;0.357066
9143.000000;0.357058
9142.000000;0.356875
9141.000000;0.356414
9140.000000;0.355728
9139.000000;0.354914
9138.000000;0.354024
9137.000000;0.353113
9136.000000;0.352321
9135.000000;0.351783
9134.000000;0.351421
9133.000000;0.350957
9132.000000;0.350249
9131.000000;0.349474
9130.000000;0.348861
9129.000000;0.348332
9128.000000;0.347611
9127.000000;0.346658
9126.000000;0.345806
9125.000000;0.345406
9124.000000;0.345496
9123.000000;0.345800
9122.000000;0.345943
9121.000000;0.345642
9120.000000;0.344878
9119.000000;0.343919
9118.000000;0.343078
9117.000000;0.342388
9116.000000;0.341621
9115.000000;0.340666
9114.000000;0.339721
9113.000000;0.339049
9112.000000;0.338688
9111.000000;0.338482
9110.000000;0.338285
9109.000000;0.337989
9108.000000;0.337471
9107.000000;0.336676
9106.000000;0.335740
9105.000000;0.334936
9104.000000;0.334453
9103.000000;0.334260
9102.000000;0.334137
9101.000000;0.333823
9100.000000;0.333197
9099.000000;0.332345
9098.000000;0.331457
9097.000000;0.330644
9096.000000;0.329911
9095.000000;0.329268
9094.000000;0.328731
9093.000000;0.328223
9092.000000;0.327622
9091.000000;0.326941
9090.000000;0.326339
9089.000000;0.325888
9088.000000;0.325482
9087.000000;0.325049
9086.000000;0.324674
9085.000000;0.324404
9084.000000;0.324082
9083.000000;0.323559
9082.000000;0.322942
9081.000000;0.322439
9080.000000;0.322049
9079.000000;0.321616
9078.000000;0.321094
9077.000000;0.320539
9076.000000;0.319881
9075.000000;0.318967
9074.000000;0.317890
9073.000000;0.317012
9072.000000;0.316537
9071.000000;0.316228
9070.000000;0.315701
9069.000000;0.314894
9068.000000;0.314108
9067.000000;0.313644
9066.000000;0.313525
9065.000000;0.313552
9064.000000;0.313482
9063.000000;0.313170
9062.000000;0.312626
9061.000000;0.311995
9060.000000;0.311433
9059.000000;0.310959
9058.000000;0.310466
9057.000000;0.309874
9056.000000;0.309252
9055.000000;0.308735
9054.000000;0.308364
9053.000000;0.308038
