Criado como novo conjunto de dados;"e2410_daniel_v2.spp","43924.1 Secs"
cm-1;Abs
10000.000000;0.608541
9999.000000;0.607780
9998.000000;0.606938
9997.000000;0.606058
9996.000000;0.605291
9995.000000;0.604720
9994.000000;0.604253
9993.000000;0.603726
9992.000000;0.603128
9991.000000;0.602544
9990.000000;0.601964
9989.000000;0.601248
9988.000000;0.600344
9987.000000;0.599423
9986.000000;0.598753
9985.000000;0.598459
9984.000000;0.598422
9983.000000;0.598369
9982.000000;0.598086
9981.000000;0.597603
9980.000000;0.597134
9979.000000;0.596813
9978.000000;0.596509
9977.000000;0.595979
9976.000000;0.595164
9975.000000;0.594233
9974.000000;0.593371
9973.000000;0.592660
9972.000000;0.592146
9971.000000;0.591849
9970.000000;0.591634
9969.000000;0.591232
9968.000000;0.590529
9967.000000;0.589728
9966.000000;0.589116
9965.000000;0.588735
9964.000000;0.588403
9963.000000;0.588017
9962.000000;0.587663
9961.000000;0.587414
9960.000000;0.587149
9959.000000;0.586652
9958.000000;0.585829
9957.000000;0.584784
9956.000000;0.583750
9955.000000;0.582942
9954.000000;0.582426
9953.000000;0.582083
9952.000000;0.581740
9951.000000;0.581360
9950.000000;0.581034
9949.000000;0.580783
9948.000000;0.580460
9947.000000;0.579943
9946.000000;0.579322
9945.000000;0.578802
9944.000000;0.578435
9943.000000;0.578082
9942.000000;0.577637
9941.000000;0.577182
9940.000000;0.576864
9939.000000;0.576689
9938.000000;0.576490
9937.000000;0.576083
9936.000000;0.575409
9935.000000;0.574563
9934.000000;0.573730
9933.000000;0.573079
9932.000000;0.572644
9931.000000;0.572284
9930.000000;0.571785
9929.000000;0.571046
9928.000000;0.570176
9927.000000;0.569420
9926.000000;0.568942
9925.000000;0.568674
9924.000000;0.568372
9923.000000;0.567861
9922.000000;0.567197
9921.000000;0.566574
9920.000000;0.566106
9919.000000;0.565761
9918.000000;0.565487
9917.000000;0.565287
9916.000000;0.565145
9915.000000;0.564965
9914.000000;0.564656
9913.000000;0.564218
9912.000000;0.563697
9911.000000;0.563094
9910.000000;0.562403
9909.000000;0.561668
9908.000000;0.560932
9907.000000;0.560161
9906.000000;0.559331
9905.000000;0.558589
9904.000000;0.558195
9903.000000;0.558227
9902.000000;0.558422
9901.000000;0.558372
9900.000000;0.557909
9899.000000;0.557218
9898.000000;0.556592
9897.000000;0.556112
9896.000000;0.555598
9895.000000;0.554879
9894.000000;0.554050
9893.000000;0.553404
9892.000000;0.553106
9891.000000;0.553002
9890.000000;0.552780
9889.000000;0.552278
9888.000000;0.551570
9887.000000;0.550817
9886.000000;0.550131
9885.000000;0.549577
9884.000000;0.549175
9883.000000;0.548853
9882.000000;0.548460
9881.000000;0.547894
9880.000000;0.547185
9879.000000;0.546428
9878.000000;0.545684
9877.000000;0.545008
9876.000000;0.544504
9875.000000;0.544260
9874.000000;0.544210
9873.000000;0.544127
9872.000000;0.543820
9871.000000;0.543291
9870.000000;0.542681
9869.000000;0.542081
9868.000000;0.541474
9867.000000;0.540850
9866.000000;0.540283
9865.000000;0.539853
9864.000000;0.539528
9863.000000;0.539197
9862.000000;0.538790
9861.000000;0.538288
9860.000000;0.537660
9859.000000;0.536893
9858.000000;0.536114
9857.000000;0.535537
9856.000000;0.535229
9855.000000;0.534999
9854.000000;0.534616
9853.000000;0.534082
9852.000000;0.533573
9851.000000;0.533185
9850.000000;0.532841
9849.000000;0.532455
9848.000000;0.532032
9847.000000;0.531576
9846.000000;0.531035
9845.000000;0.530390
9844.000000;0.529734
9843.000000;0.529180
9842.000000;0.528744
9841.000000;0.528366
9840.000000;0.528013
9839.000000;0.527671
9838.000000;0.527274
9837.000000;0.526734
9836.000000;0.526053
9835.000000;0.525355
9834.000000;0.524751
9833.000000;0.524230
9832.000000;0.523722
9831.000000;0.523239
9830.000000;0.522874
9829.000000;0.522651
9828.000000;0.522420
9827.000000;0.521995
9826.000000;0.521337
9825.000000;0.520572
9824.000000;0.519830
9823.000000;0.519164
9822.000000;0.518603
9821.000000;0.518179
9820.000000;0.517858
9819.000000;0.517534
9818.000000;0.517163
9817.000000;0.516813
9816.000000;0.516505
9815.000000;0.516118
9814.000000;0.515568
9813.000000;0.514995
9812.000000;0.514611
9811.000000;0.514388
9810.000000;0.514086
9809.000000;0.513571
9808.000000;0.512949
9807.000000;0.512311
9806.000000;0.511550
9805.000000;0.510568
9804.000000;0.509540
9803.000000;0.508799
9802.000000;0.508491
9801.000000;0.508468
9800.000000;0.508498
9799.000000;0.508455
9798.000000;0.508282
9797.000000;0.507906
9796.000000;0.507310
9795.000000;0.506642
9794.000000;0.506148
9793.000000;0.505940
9792.000000;0.505875
9791.000000;0.505691
9790.000000;0.505253
9789.000000;0.504615
9788.000000;0.503868
9787.000000;0.503031
9786.000000;0.502125
9785.000000;0.501283
9784.000000;0.500645
9783.000000;0.500179
9782.000000;0.499706
9781.000000;0.499146
9780.000000;0.498639
9779.000000;0.498346
9778.000000;0.498203
9777.000000;0.497950
9776.000000;0.497405
9775.000000;0.496648
9774.000000;0.495924
9773.000000;0.495418
9772.000000;0.495115
9771.000000;0.494852
9770.000000;0.494502
9769.000000;0.494081
9768.000000;0.493690
9767.000000;0.493368
9766.000000;0.493029
9765.000000;0.492581
9764.000000;0.492051
9763.000000;0.491572
9762.000000;0.491239
9761.000000;0.491003
9760.000000;0.490703
9759.000000;0.490210
9758.000000;0.489540
9757.000000;0.488840
9756.000000;0.488248
9755.000000;0.487779
9754.000000;0.487357
9753.000000;0.486931
9752.000000;0.486523
9751.000000;0.486159
9750.000000;0.485800
9749.000000;0.485366
9748.000000;0.484821
9747.000000;0.484203
9746.000000;0.483597
9745.000000;0.483068
9744.000000;0.482638
9743.000000;0.482289
9742.000000;0.481975
9741.000000;0.481631
9740.000000;0.481190
9739.000000;0.480618
9738.000000;0.479966
9737.000000;0.479338
9736.000000;0.478786
9735.000000;0.478265
9734.000000;0.477708
9733.000000;0.477130
9732.000000;0.476590
9731.000000;0.476083
9730.000000;0.475539
9729.000000;0.474935
9728.000000;0.474360
9727.000000;0.473934
9726.000000;0.473697
9725.000000;0.473569
9724.000000;0.473409
9723.000000;0.473090
9722.000000;0.472585
9721.000000;0.471989
9720.000000;0.471458
9719.000000;0.471088
9718.000000;0.470869
9717.000000;0.470710
9716.000000;0.470498
9715.000000;0.470139
9714.000000;0.469609
9713.000000;0.468988
9712.000000;0.468416
9711.000000;0.467970
9710.000000;0.467592
9709.000000;0.467148
9708.000000;0.466562
9707.000000;0.465912
9706.000000;0.465392
9705.000000;0.465138
9704.000000;0.465069
9703.000000;0.464947
9702.000000;0.464617
9701.000000;0.464151
9700.000000;0.463690
9699.000000;0.463220
9698.000000;0.462605
9697.000000;0.461815
9696.000000;0.461001
9695.000000;0.460314
9694.000000;0.459769
9693.000000;0.459310
9692.000000;0.458921
9691.000000;0.458563
9690.000000;0.458113
9689.000000;0.457465
9688.000000;0.456692
9687.000000;0.455993
9686.000000;0.455510
9685.000000;0.455250
9684.000000;0.455164
9683.000000;0.455205
9682.000000;0.455276
9681.000000;0.455210
9680.000000;0.454887
9679.000000;0.454336
9678.000000;0.453686
9677.000000;0.453027
9676.000000;0.452374
9675.000000;0.451744
9674.000000;0.451202
9673.000000;0.450787
9672.000000;0.450427
9671.000000;0.449990
9670.000000;0.449424
9669.000000;0.448826
9668.000000;0.448330
9667.000000;0.447947
9666.000000;0.447532
9665.000000;0.446932
9664.000000;0.446141
9663.000000;0.445310
9662.000000;0.444638
9661.000000;0.444241
9660.000000;0.444097
9659.000000;0.444066
9658.000000;0.443971
9657.000000;0.443703
9656.000000;0.443279
9655.000000;0.442796
9654.000000;0.442322
9653.000000;0.441833
9652.000000;0.441282
9651.000000;0.440695
9650.000000;0.440186
9649.000000;0.439834
9648.000000;0.439590
9647.000000;0.439324
9646.000000;0.438938
9645.000000;0.438446
9644.000000;0.437949
9643.000000;0.437553
9642.000000;0.437276
9641.000000;0.437002
9640.000000;0.436565
9639.000000;0.435918
9638.000000;0.435203
9637.000000;0.434606
9636.000000;0.434182
9635.000000;0.433860
9634.000000;0.433574
9633.000000;0.433291
9632.000000;0.432944
9631.000000;0.432481
9630.000000;0.431989
9629.000000;0.431666
9628.000000;0.431604
9627.000000;0.431661
9626.000000;0.431616
9625.000000;0.431364
9624.000000;0.430926
9623.000000;0.430371
9622.000000;0.429791
9621.000000;0.429289
9620.000000;0.428874
9619.000000;0.428420
9618.000000;0.427796
9617.000000;0.427021
9616.000000;0.426226
9615.000000;0.425520
9614.000000;0.424935
9613.000000;0.424474
9612.000000;0.424117
9611.000000;0.423828
9610.000000;0.423591
9609.000000;0.423416
9608.000000;0.423255
9607.000000;0.422991
9606.000000;0.422584
9605.000000;0.422164
9604.000000;0.421869
9603.000000;0.421645
9602.000000;0.421322
9601.000000;0.420839
9600.000000;0.420277
9599.000000;0.419706
9598.000000;0.419139
9597.000000;0.418624
9596.000000;0.418223
9595.000000;0.417890
9594.000000;0.417478
9593.000000;0.416935
9592.000000;0.416390
9591.000000;0.415992
9590.000000;0.415758
9589.000000;0.415589
9588.000000;0.415381
9587.000000;0.415050
9586.000000;0.414559
9585.000000;0.413950
9584.000000;0.413317
9583.000000;0.412728
9582.000000;0.412203
9581.000000;0.411765
9580.000000;0.411422
9579.000000;0.411100
9578.000000;0.410689
9577.000000;0.410192
9576.000000;0.409719
9575.000000;0.409321
9574.000000;0.408929
9573.000000;0.408495
9572.000000;0.408082
9571.000000;0.407736
9570.000000;0.407389
9569.000000;0.406976
9568.000000;0.406559
9567.000000;0.406233
9566.000000;0.405970
9565.000000;0.405660
9564.000000;0.405274
9563.000000;0.404870
9562.000000;0.404457
9561.000000;0.403975
9560.000000;0.403420
9559.000000;0.402899
9558.000000;0.402512
9557.000000;0.402245
9556.000000;0.401979
9555.000000;0.401587
9554.000000;0.401013
9553.000000;0.400303
9552.000000;0.399608
9551.000000;0.399118
9550.000000;0.398920
9549.000000;0.398907
9548.000000;0.398840
9547.000000;0.398544
9546.000000;0.398068
9545.000000;0.397619
9544.000000;0.397302
9543.000000;0.396981
9542.000000;0.396446
9541.000000;0.395712
9540.000000;0.395051
9539.000000;0.394701
9538.000000;0.394608
9537.000000;0.394510
9536.000000;0.394232
9535.000000;0.393831
9534.000000;0.393479
9533.000000;0.393262
9532.000000;0.393100
9531.000000;0.392823
9530.000000;0.392322
9529.000000;0.391644
9528.000000;0.390957
9527.000000;0.390421
9526.000000;0.390091
9525.000000;0.389915
9524.000000;0.389770
9523.000000;0.389503
9522.000000;0.389013
9521.000000;0.388355
9520.000000;0.387716
9519.000000;0.387252
9518.000000;0.386951
9517.000000;0.386687
9516.000000;0.386378
9515.000000;0.386038
9514.000000;0.385704
9513.000000;0.385368
9512.000000;0.384996
9511.000000;0.384578
9510.000000;0.384137
9509.000000;0.383710
9508.000000;0.383343
9507.000000;0.383074
9506.000000;0.382906
9505.000000;0.382775
9504.000000;0.382553
9503.000000;0.382109
9502.000000;0.381424
9501.000000;0.380640
9500.000000;0.379969
9499.000000;0.379519
9498.000000;0.379214
9497.000000;0.378880
9496.000000;0.378413
9495.000000;0.377864
9494.000000;0.377387
9493.000000;0.377115
9492.000000;0.377053
9491.000000;0.377053
9490.000000;0.376926
9489.000000;0.376596
9488.000000;0.376129
9487.000000;0.375634
9486.000000;0.375158
9485.000000;0.374703
9484.000000;0.374278
9483.000000;0.373877
9482.000000;0.373429
9481.000000;0.372850
9480.000000;0.372183
9479.000000;0.371618
9478.000000;0.371328
9477.000000;0.371290
9476.000000;0.371304
9475.000000;0.371177
9474.000000;0.370851
9473.000000;0.370394
9472.000000;0.369909
9471.000000;0.369500
9470.000000;0.369239
9469.000000;0.369093
9468.000000;0.368898
9467.000000;0.368496
9466.000000;0.367917
9465.000000;0.367361
9464.000000;0.366961
9463.000000;0.366639
9462.000000;0.366238
9461.000000;0.365728
9460.000000;0.365216
9459.000000;0.364778
9458.000000;0.364402
9457.000000;0.364081
9456.000000;0.363847
9455.000000;0.363665
9454.000000;0.363400
9453.000000;0.362960
9452.000000;0.362439
9451.000000;0.362032
9450.000000;0.361807
9449.000000;0.361627
9448.000000;0.361303
9447.000000;0.360795
9446.000000;0.360231
9445.000000;0.359770
9444.000000;0.359460
9443.000000;0.359230
9442.000000;0.358964
9441.000000;0.358593
9440.000000;0.358123
9439.000000;0.357617
9438.000000;0.357154
9437.000000;0.356776
9436.000000;0.356475
9435.000000;0.356220
9434.000000;0.356009
9433.000000;0.355847
9432.000000;0.355688
9431.000000;0.355438
9430.000000;0.355045
9429.000000;0.354553
9428.000000;0.354047
9427.000000;0.353581
9426.000000;0.353195
9425.000000;0.352943
9424.000000;0.352837
9423.000000;0.352784
9422.000000;0.352652
9421.000000;0.352390
9420.000000;0.352037
9419.000000;0.351608
9418.000000;0.351062
9417.000000;0.350423
9416.000000;0.349838
9415.000000;0.349462
9414.000000;0.349287
9413.000000;0.349162
9412.000000;0.348955
9411.000000;0.348646
9410.000000;0.348247
9409.000000;0.347711
9408.000000;0.346990
9407.000000;0.346173
9406.000000;0.345494
9405.000000;0.345131
9404.000000;0.345022
9403.000000;0.344932
9402.000000;0.344714
9401.000000;0.344443
9400.000000;0.344274
9399.000000;0.344217
9398.000000;0.344122
9397.000000;0.343851
9396.000000;0.343406
9395.000000;0.342906
9394.000000;0.342491
9393.000000;0.342237
9392.000000;0.342114
9391.000000;0.341993
9390.000000;0.341728
9389.000000;0.341264
9388.000000;0.340673
9387.000000;0.340090
9386.000000;0.339619
9385.000000;0.339279
9384.000000;0.338995
9383.000000;0.338691
9382.000000;0.338388
9381.000000;0.338216
9380.000000;0.338244
9379.000000;0.338342
9378.000000;0.338258
9377.000000;0.337852
9376.000000;0.337211
9375.000000;0.336544
9374.000000;0.336006
9373.000000;0.335625
9372.000000;0.335347
9371.000000;0.335105
9370.000000;0.334874
9369.000000;0.334661
9368.000000;0.334451
9367.000000;0.334169
9366.000000;0.333732
9365.000000;0.333150
9364.000000;0.332548
9363.000000;0.332084
9362.000000;0.331835
9361.000000;0.331742
9360.000000;0.331641
9359.000000;0.331391
9358.000000;0.330992
9357.000000;0.330582
9356.000000;0.330279
9355.000000;0.330051
9354.000000;0.329773
9353.000000;0.329374
9352.000000;0.328901
9351.000000;0.328451
9350.000000;0.328104
9349.000000;0.327878
9348.000000;0.327697
9347.000000;0.327399
9346.000000;0.326876
9345.000000;0.326212
9344.000000;0.325627
9343.000000;0.325262
9342.000000;0.325076
9341.000000;0.324963
9340.000000;0.324877
9339.000000;0.324809
9338.000000;0.324681
9337.000000;0.324373
9336.000000;0.323863
9335.000000;0.323306
9334.000000;0.322938
9333.000000;0.322873
9332.000000;0.322982
9331.000000;0.322978
9330.000000;0.322668
9329.000000;0.322119
9328.000000;0.321552
9327.000000;0.321132
9326.000000;0.320882
9325.000000;0.320763
9324.000000;0.320704
9323.000000;0.320572
9322.000000;0.320220
9321.000000;0.319647
9320.000000;0.319036
9319.000000;0.318561
9318.000000;0.318194
9317.000000;0.317782
9316.000000;0.317288
9315.000000;0.316856
9314.000000;0.316651
9313.000000;0.316658
9312.000000;0.316681
9311.000000;0.316499
9310.000000;0.316047
9309.000000;0.315467
9308.000000;0.315001
9307.000000;0.314803
9306.000000;0.314825
9305.000000;0.314877
9304.000000;0.314778
9303.000000;0.314467
9302.000000;0.313989
9301.000000;0.313437
9300.000000;0.312911
9299.000000;0.312487
9298.000000;0.312180
9297.000000;0.311936
9296.000000;0.311681
9295.000000;0.311406
9294.000000;0.311168
9293.000000;0.311010
9292.000000;0.310880
9291.000000;0.310688
9290.000000;0.310414
9289.000000;0.310119
9288.000000;0.309841
9287.000000;0.309527
9286.000000;0.309114
9285.000000;0.308640
9284.000000;0.308219
9283.000000;0.307919
9282.000000;0.307696
9281.000000;0.307458
9280.000000;0.307166
9279.000000;0.306872
9278.000000;0.306646
9277.000000;0.306495
9276.000000;0.306347
9275.000000;0.306129
9274.000000;0.305838
9273.000000;0.305515
9272.000000;0.305157
9271.000000;0.304724
9270.000000;0.304240
9269.000000;0.303810
9268.000000;0.303529
9267.000000;0.303406
9266.000000;0.303376
9265.000000;0.303341
9264.000000;0.303189
9263.000000;0.302855
9262.000000;0.302410
9261.000000;0.302019
9260.000000;0.301746
9259.000000;0.301477
9258.000000;0.301095
9257.000000;0.300652
9256.000000;0.300287
9255.000000;0.300041
9254.000000;0.299855
9253.000000;0.299706
9252.000000;0.299609
9251.000000;0.299500
9250.000000;0.299256
9249.000000;0.298850
9248.000000;0.298388
9247.000000;0.297966
9246.000000;0.297600
9245.000000;0.297290
9244.000000;0.297060
9243.000000;0.296876
9242.000000;0.296636
9241.000000;0.296288
9240.000000;0.295919
9239.000000;0.295659
9238.000000;0.295534
9237.000000;0.295433
9236.000000;0.295205
9235.000000;0.294770
9234.000000;0.294193
9233.000000;0.293661
9232.000000;0.293342
9231.000000;0.293226
9230.000000;0.293157
9229.000000;0.293001
9228.000000;0.292759
9227.000000;0.292488
9226.000000;0.292208
9225.000000;0.291919
9224.000000;0.291647
9223.000000;0.291423
9222.000000;0.291234
9221.000000;0.291020
9220.000000;0.290721
9219.000000;0.290325
9218.000000;0.289913
9217.000000;0.289625
9216.000000;0.289535
9215.000000;0.289571
9214.000000;0.289606
9213.000000;0.289619
9212.000000;0.289658
9211.000000;0.289682
9210.000000;0.289550
9209.000000;0.289199
9208.000000;0.288726
9207.000000;0.288243
9206.000000;0.287753
9205.000000;0.287238
9204.000000;0.286746
9203.000000;0.286321
9202.000000;0.285931
9201.000000;0.285547
9200.000000;0.285240
9199.000000;0.285078
9198.000000;0.284979
9197.000000;0.284782
9196.000000;0.284440
9195.000000;0.284050
9194.000000;0.283711
9193.000000;0.283453
9192.000000;0.283302
9191.000000;0.283280
9190.000000;0.283320
9189.000000;0.283261
9188.000000;0.282992
9187.000000;0.282571
9186.000000;0.282145
9185.000000;0.281818
9184.000000;0.281597
9183.000000;0.281435
9182.000000;0.281264
9181.000000;0.281021
9180.000000;0.280691
9179.000000;0.280333
9178.000000;0.280036
9177.000000;0.279834
9176.000000;0.279676
9175.000000;0.279480
9174.000000;0.279227
9173.000000;0.278971
9172.000000;0.278788
9171.000000;0.278701
9170.000000;0.278668
9169.000000;0.278624
9168.000000;0.278514
9167.000000;0.278312
9166.000000;0.278019
9165.000000;0.277661
9164.000000;0.277285
9163.000000;0.276947
9162.000000;0.276694
9161.000000;0.276539
9160.000000;0.276436
9159.000000;0.276306
9158.000000;0.276090
9157.000000;0.275797
9156.000000;0.275478
9155.000000;0.275175
9154.000000;0.274898
9153.000000;0.274616
9152.000000;0.274270
9151.000000;0.273818
9150.000000;0.273336
9149.000000;0.273012
9148.000000;0.272979
9147.000000;0.273141
9146.000000;0.273227
9145.000000;0.273051
9144.000000;0.272684
9143.000000;0.272338
9142.000000;0.272128
9141.000000;0.271973
9140.000000;0.271711
9139.000000;0.271285
9138.000000;0.270811
9137.000000;0.270478
9136.000000;0.270361
9135.000000;0.270348
9134.000000;0.270268
9133.000000;0.270077
9132.000000;0.269860
9131.000000;0.269669
9130.000000;0.269437
9129.000000;0.269086
9128.000000;0.268673
9127.000000;0.268336
9126.000000;0.268128
9125.000000;0.267962
9124.000000;0.267736
9123.000000;0.267485
9122.000000;0.267352
9121.000000;0.267417
9120.000000;0.267564
9119.000000;0.267554
9118.000000;0.267235
9117.000000;0.266679
9116.000000;0.266109
9115.000000;0.265699
9114.000000;0.265481
9113.000000;0.265391
9112.000000;0.265361
9111.000000;0.265335
9110.000000;0.265237
9109.000000;0.265003
9108.000000;0.264648
9107.000000;0.264282
9106.000000;0.264016
9105.000000;0.263838
9104.000000;0.263618
9103.000000;0.263269
9102.000000;0.262876
9101.000000;0.262604
9100.000000;0.262484
9099.000000;0.262366
9098.000000;0.262131
9097.000000;0.261848
9096.000000;0.261665
9095.000000;0.261594
9094.000000;0.261512
9093.000000;0.261340
9092.000000;0.261126
9091.000000;0.260941
9090.000000;0.260782
9089.000000;0.260628
9088.000000;0.260480
9087.000000;0.260343
9086.000000;0.260188
9085.000000;0.260008
9084.000000;0.259838
9083.000000;0.259698
9082.000000;0.259545
9081.000000;0.259316
9080.000000;0.258985
9079.000000;0.258584
9078.000000;0.258177
9077.000000;0.257846
9076.000000;0.257648
9075.000000;0.257575
9074.000000;0.257553
9073.000000;0.257517
9072.000000;0.257437
9071.000000;0.257286
9070.000000;0.257023
9069.000000;0.256641
9068.000000;0.256210
9067.000000;0.255823
9066.000000;0.255510
9065.000000;0.255227
9064.000000;0.254919
9063.000000;0.254596
9062.000000;0.254348
9061.000000;0.254252
9060.000000;0.254267
9059.000000;0.254225
9058.000000;0.254000
9057.000000;0.253646
9056.000000;0.253334
9055.000000;0.253150
9054.000000;0.253020
9053.000000;0.252846
