Criado como novo conjunto de dados;"e2410_daniel_v2.spp","19982.8 Secs"
cm-1;Abs
10000.000000;0.459829
9999.000000;0.458967
9998.000000;0.458282
9997.000000;0.457967
9996.000000;0.457933
9995.000000;0.457879
9994.000000;0.457599
9993.000000;0.457112
9992.000000;0.456525
9991.000000;0.455903
9990.000000;0.455291
9989.000000;0.454723
9988.000000;0.454199
9987.000000;0.453671
9986.000000;0.453102
9985.000000;0.452500
9984.000000;0.451920
9983.000000;0.451429
9982.000000;0.451019
9981.000000;0.450534
9980.000000;0.449778
9979.000000;0.448756
9978.000000;0.447736
9977.000000;0.447012
9976.000000;0.446637
9975.000000;0.446443
9974.000000;0.446251
9973.000000;0.445992
9972.000000;0.445673
9971.000000;0.445331
9970.000000;0.444992
9969.000000;0.444653
9968.000000;0.444301
9967.000000;0.443967
9966.000000;0.443685
9965.000000;0.443369
9964.000000;0.442845
9963.000000;0.442077
9962.000000;0.441258
9961.000000;0.440584
9960.000000;0.440040
9959.000000;0.439500
9958.000000;0.438957
9957.000000;0.438512
9956.000000;0.438179
9955.000000;0.437830
9954.000000;0.437344
9953.000000;0.436718
9952.000000;0.436047
9951.000000;0.435465
9950.000000;0.435056
9949.000000;0.434764
9948.000000;0.434420
9947.000000;0.433937
9946.000000;0.433417
9945.000000;0.432978
9944.000000;0.432563
9943.000000;0.432048
9942.000000;0.431472
9941.000000;0.431000
9940.000000;0.430696
9939.000000;0.430477
9938.000000;0.430258
9937.000000;0.429979
9936.000000;0.429499
9935.000000;0.428660
9934.000000;0.427544
9933.000000;0.426511
9932.000000;0.425875
9931.000000;0.425621
9930.000000;0.425502
9929.000000;0.425320
9928.000000;0.425049
9927.000000;0.424731
9926.000000;0.424369
9925.000000;0.423894
9924.000000;0.423221
9923.000000;0.422357
9922.000000;0.421466
9921.000000;0.420752
9920.000000;0.420261
9919.000000;0.419846
9918.000000;0.419363
9917.000000;0.418837
9916.000000;0.418395
9915.000000;0.418079
9914.000000;0.417794
9913.000000;0.417409
9912.000000;0.416883
9911.000000;0.416313
9910.000000;0.415836
9909.000000;0.415467
9908.000000;0.415042
9907.000000;0.414378
9906.000000;0.413479
9905.000000;0.412535
9904.000000;0.411741
9903.000000;0.411163
9902.000000;0.410783
9901.000000;0.410542
9900.000000;0.410343
9899.000000;0.410085
9898.000000;0.409771
9897.000000;0.409489
9896.000000;0.409252
9895.000000;0.408957
9894.000000;0.408537
9893.000000;0.408051
9892.000000;0.407539
9891.000000;0.406897
9890.000000;0.406027
9889.000000;0.405078
9888.000000;0.404369
9887.000000;0.404050
9886.000000;0.403936
9885.000000;0.403711
9884.000000;0.403241
9883.000000;0.402657
9882.000000;0.402185
9881.000000;0.401945
9880.000000;0.401852
9879.000000;0.401696
9878.000000;0.401311
9877.000000;0.400716
9876.000000;0.400080
9875.000000;0.399535
9874.000000;0.399054
9873.000000;0.398509
9872.000000;0.397835
9871.000000;0.397122
9870.000000;0.396542
9869.000000;0.396205
9868.000000;0.396066
9867.000000;0.395944
9866.000000;0.395646
9865.000000;0.395091
9864.000000;0.394347
9863.000000;0.393544
9862.000000;0.392784
9861.000000;0.392111
9860.000000;0.391540
9859.000000;0.391065
9858.000000;0.390643
9857.000000;0.390204
9856.000000;0.389730
9855.000000;0.389295
9854.000000;0.388992
9853.000000;0.388798
9852.000000;0.388583
9851.000000;0.388246
9850.000000;0.387834
9849.000000;0.387458
9848.000000;0.387125
9847.000000;0.386711
9846.000000;0.386112
9845.000000;0.385375
9844.000000;0.384651
9843.000000;0.384060
9842.000000;0.383613
9841.000000;0.383238
9840.000000;0.382852
9839.000000;0.382417
9838.000000;0.381958
9837.000000;0.381520
9836.000000;0.381077
9835.000000;0.380522
9834.000000;0.379777
9833.000000;0.378912
9832.000000;0.378121
9831.000000;0.377562
9830.000000;0.377252
9829.000000;0.377079
9828.000000;0.376884
9827.000000;0.376518
9826.000000;0.375911
9825.000000;0.375153
9824.000000;0.374466
9823.000000;0.374017
9822.000000;0.373778
9821.000000;0.373592
9820.000000;0.373362
9819.000000;0.373110
9818.000000;0.372846
9817.000000;0.372470
9816.000000;0.371883
9815.000000;0.371136
9814.000000;0.370423
9813.000000;0.369896
9812.000000;0.369537
9811.000000;0.369190
9810.000000;0.368714
9809.000000;0.368118
9808.000000;0.367548
9807.000000;0.367148
9806.000000;0.366905
9805.000000;0.366641
9804.000000;0.366175
9803.000000;0.365483
9802.000000;0.364706
9801.000000;0.364029
9800.000000;0.363566
9799.000000;0.363308
9798.000000;0.363138
9797.000000;0.362906
9796.000000;0.362537
9795.000000;0.362068
9794.000000;0.361572
9793.000000;0.361082
9792.000000;0.360617
9791.000000;0.360218
9790.000000;0.359898
9789.000000;0.359569
9788.000000;0.359105
9787.000000;0.358481
9786.000000;0.357787
9785.000000;0.357108
9784.000000;0.356464
9783.000000;0.355883
9782.000000;0.355449
9781.000000;0.355207
9780.000000;0.355084
9779.000000;0.354935
9778.000000;0.354671
9777.000000;0.354276
9776.000000;0.353755
9775.000000;0.353121
9774.000000;0.352438
9773.000000;0.351804
9772.000000;0.351260
9771.000000;0.350761
9770.000000;0.350252
9769.000000;0.349751
9768.000000;0.349330
9767.000000;0.349022
9766.000000;0.348772
9765.000000;0.348478
9764.000000;0.348073
9763.000000;0.347559
9762.000000;0.346979
9761.000000;0.346385
9760.000000;0.345822
9759.000000;0.345332
9758.000000;0.344923
9757.000000;0.344555
9756.000000;0.344168
9755.000000;0.343733
9754.000000;0.343271
9753.000000;0.342817
9752.000000;0.342409
9751.000000;0.342073
9750.000000;0.341801
9749.000000;0.341531
9748.000000;0.341173
9747.000000;0.340672
9746.000000;0.340060
9745.000000;0.339409
9744.000000;0.338781
9743.000000;0.338218
9742.000000;0.337754
9741.000000;0.337398
9740.000000;0.337087
9739.000000;0.336728
9738.000000;0.336279
9737.000000;0.335786
9736.000000;0.335301
9735.000000;0.334812
9734.000000;0.334277
9733.000000;0.333720
9732.000000;0.333236
9731.000000;0.332884
9730.000000;0.332619
9729.000000;0.332346
9728.000000;0.331980
9727.000000;0.331460
9726.000000;0.330775
9725.000000;0.330049
9724.000000;0.329508
9723.000000;0.329274
9722.000000;0.329202
9721.000000;0.328995
9720.000000;0.328489
9719.000000;0.327749
9718.000000;0.326934
9717.000000;0.326172
9716.000000;0.325572
9715.000000;0.325199
9714.000000;0.324985
9713.000000;0.324751
9712.000000;0.324397
9711.000000;0.323994
9710.000000;0.323652
9709.000000;0.323357
9708.000000;0.323006
9707.000000;0.322532
9706.000000;0.321918
9705.000000;0.321189
9704.000000;0.320464
9703.000000;0.319967
9702.000000;0.319822
9701.000000;0.319869
9700.000000;0.319761
9699.000000;0.319282
9698.000000;0.318517
9697.000000;0.317733
9696.000000;0.317143
9695.000000;0.316756
9694.000000;0.316403
9693.000000;0.315906
9692.000000;0.315286
9691.000000;0.314764
9690.000000;0.314516
9689.000000;0.314446
9688.000000;0.314287
9687.000000;0.313896
9686.000000;0.313363
9685.000000;0.312869
9684.000000;0.312522
9683.000000;0.312300
9682.000000;0.312074
9681.000000;0.311666
9680.000000;0.311006
9679.000000;0.310223
9678.000000;0.309543
9677.000000;0.309076
9676.000000;0.308770
9675.000000;0.308519
9674.000000;0.308250
9673.000000;0.307906
9672.000000;0.307471
9671.000000;0.307014
9670.000000;0.306638
9669.000000;0.306343
9668.000000;0.306011
9667.000000;0.305552
9666.000000;0.304978
9665.000000;0.304354
9664.000000;0.303752
9663.000000;0.303277
9662.000000;0.303021
9661.000000;0.302928
9660.000000;0.302786
9659.000000;0.302406
9658.000000;0.301783
9657.000000;0.301057
9656.000000;0.300364
9655.000000;0.299752
9654.000000;0.299189
9653.000000;0.298628
9652.000000;0.298099
9651.000000;0.297721
9650.000000;0.297559
9649.000000;0.297474
9648.000000;0.297217
9647.000000;0.296697
9646.000000;0.296085
9645.000000;0.295600
9644.000000;0.295280
9643.000000;0.294994
9642.000000;0.294618
9641.000000;0.294134
9640.000000;0.293617
9639.000000;0.293165
9638.000000;0.292813
9637.000000;0.292506
9636.000000;0.292160
9635.000000;0.291768
9634.000000;0.291375
9633.000000;0.290980
9632.000000;0.290544
9631.000000;0.290101
9630.000000;0.289751
9629.000000;0.289498
9628.000000;0.289193
9627.000000;0.288728
9626.000000;0.288187
9625.000000;0.287742
9624.000000;0.287443
9623.000000;0.287196
9622.000000;0.286884
9621.000000;0.286444
9620.000000;0.285870
9619.000000;0.285210
9618.000000;0.284566
9617.000000;0.284023
9616.000000;0.283583
9615.000000;0.283199
9614.000000;0.282832
9613.000000;0.282454
9612.000000;0.282054
9611.000000;0.281662
9610.000000;0.281338
9609.000000;0.281083
9608.000000;0.280833
9607.000000;0.280559
9606.000000;0.280307
9605.000000;0.280083
9604.000000;0.279765
9603.000000;0.279243
9602.000000;0.278605
9601.000000;0.278068
9600.000000;0.277737
9599.000000;0.277494
9598.000000;0.277157
9597.000000;0.276672
9596.000000;0.276126
9595.000000;0.275621
9594.000000;0.275171
9593.000000;0.274727
9592.000000;0.274272
9591.000000;0.273872
9590.000000;0.273593
9589.000000;0.273384
9588.000000;0.273102
9587.000000;0.272670
9586.000000;0.272166
9585.000000;0.271694
9584.000000;0.271249
9583.000000;0.270758
9582.000000;0.270206
9581.000000;0.269662
9580.000000;0.269199
9579.000000;0.268840
9578.000000;0.268569
9577.000000;0.268322
9576.000000;0.268009
9575.000000;0.267592
9574.000000;0.267140
9573.000000;0.266736
9572.000000;0.266373
9571.000000;0.266002
9570.000000;0.265639
9569.000000;0.265340
9568.000000;0.265072
9567.000000;0.264722
9566.000000;0.264256
9565.000000;0.263774
9564.000000;0.263365
9563.000000;0.262976
9562.000000;0.262492
9561.000000;0.261889
9560.000000;0.261278
9559.000000;0.260809
9558.000000;0.260570
9557.000000;0.260527
9556.000000;0.260510
9555.000000;0.260301
9554.000000;0.259813
9553.000000;0.259193
9552.000000;0.258684
9551.000000;0.258385
9550.000000;0.258187
9549.000000;0.257944
9548.000000;0.257651
9547.000000;0.257380
9546.000000;0.257114
9545.000000;0.256730
9544.000000;0.256173
9543.000000;0.255562
9542.000000;0.255070
9541.000000;0.254741
9540.000000;0.254464
9539.000000;0.254117
9538.000000;0.253678
9537.000000;0.253200
9536.000000;0.252742
9535.000000;0.252337
9534.000000;0.252016
9533.000000;0.251801
9532.000000;0.251687
9531.000000;0.251607
9530.000000;0.251421
9529.000000;0.250976
9528.000000;0.250237
9527.000000;0.249361
9526.000000;0.248602
9525.000000;0.248113
9524.000000;0.247858
9523.000000;0.247692
9522.000000;0.247478
9521.000000;0.247127
9520.000000;0.246611
9519.000000;0.245990
9518.000000;0.245423
9517.000000;0.245056
9516.000000;0.244882
9515.000000;0.244726
9514.000000;0.244410
9513.000000;0.243912
9512.000000;0.243385
9511.000000;0.242998
9510.000000;0.242797
9509.000000;0.242700
9508.000000;0.242599
9507.000000;0.242416
9506.000000;0.242087
9505.000000;0.241563
9504.000000;0.240887
9503.000000;0.240227
9502.000000;0.239751
9501.000000;0.239476
9500.000000;0.239268
9499.000000;0.238990
9498.000000;0.238606
9497.000000;0.238144
9496.000000;0.237629
9495.000000;0.237085
9494.000000;0.236578
9493.000000;0.236200
9492.000000;0.236004
9491.000000;0.235946
9490.000000;0.235883
9489.000000;0.235674
9488.000000;0.235302
9487.000000;0.234889
9486.000000;0.234553
9485.000000;0.234279
9484.000000;0.233963
9483.000000;0.233559
9482.000000;0.233110
9481.000000;0.232643
9480.000000;0.232131
9479.000000;0.231572
9478.000000;0.231029
9477.000000;0.230573
9476.000000;0.230215
9475.000000;0.229922
9474.000000;0.229652
9473.000000;0.229350
9472.000000;0.228981
9471.000000;0.228588
9470.000000;0.228259
9469.000000;0.228013
9468.000000;0.227761
9467.000000;0.227422
9466.000000;0.227029
9465.000000;0.226669
9464.000000;0.226371
9463.000000;0.226093
9462.000000;0.225791
9461.000000;0.225449
9460.000000;0.225086
9459.000000;0.224746
9458.000000;0.224475
9457.000000;0.224253
9456.000000;0.223979
9455.000000;0.223561
9454.000000;0.223019
9453.000000;0.222469
9452.000000;0.222034
9451.000000;0.221759
9450.000000;0.221601
9449.000000;0.221454
9448.000000;0.221226
9447.000000;0.220915
9446.000000;0.220604
9445.000000;0.220351
9444.000000;0.220095
9443.000000;0.219716
9442.000000;0.219175
9441.000000;0.218559
9440.000000;0.217993
9439.000000;0.217537
9438.000000;0.217165
9437.000000;0.216839
9436.000000;0.216560
9435.000000;0.216353
9434.000000;0.216199
9433.000000;0.216013
9432.000000;0.215727
9431.000000;0.215369
9430.000000;0.215028
9429.000000;0.214731
9428.000000;0.214409
9427.000000;0.213996
9426.000000;0.213520
9425.000000;0.213067
9424.000000;0.212668
9423.000000;0.212271
9422.000000;0.211806
9421.000000;0.211268
9420.000000;0.210757
9419.000000;0.210424
9418.000000;0.210332
9417.000000;0.210364
9416.000000;0.210286
9415.000000;0.209942
9414.000000;0.209378
9413.000000;0.208781
9412.000000;0.208305
9411.000000;0.207974
9410.000000;0.207722
9409.000000;0.207500
9408.000000;0.207318
9407.000000;0.207186
9406.000000;0.207039
9405.000000;0.206758
9404.000000;0.206317
9403.000000;0.205858
9402.000000;0.205557
9401.000000;0.205435
9400.000000;0.205341
9399.000000;0.205136
9398.000000;0.204812
9397.000000;0.204441
9396.000000;0.204074
9395.000000;0.203724
9394.000000;0.203375
9393.000000;0.202991
9392.000000;0.202558
9391.000000;0.202122
9390.000000;0.201762
9389.000000;0.201483
9388.000000;0.201202
9387.000000;0.200858
9386.000000;0.200476
9385.000000;0.200091
9384.000000;0.199679
9383.000000;0.199207
9382.000000;0.198720
9381.000000;0.198325
9380.000000;0.198089
9379.000000;0.197983
9378.000000;0.197886
9377.000000;0.197641
9376.000000;0.197170
9375.000000;0.196565
9374.000000;0.196026
9373.000000;0.195676
9372.000000;0.195468
9371.000000;0.195297
9370.000000;0.195127
9369.000000;0.194972
9368.000000;0.194814
9367.000000;0.194617
9366.000000;0.194381
9365.000000;0.194132
9364.000000;0.193872
9363.000000;0.193607
9362.000000;0.193371
9361.000000;0.193155
9360.000000;0.192855
9359.000000;0.192388
9358.000000;0.191846
9357.000000;0.191435
9356.000000;0.191236
9355.000000;0.191108
9354.000000;0.190858
9353.000000;0.190448
9352.000000;0.189983
9351.000000;0.189569
9350.000000;0.189233
9349.000000;0.188951
9348.000000;0.188677
9347.000000;0.188354
9346.000000;0.187956
9345.000000;0.187547
9344.000000;0.187253
9343.000000;0.187129
9342.000000;0.187063
9341.000000;0.186860
9340.000000;0.186435
9339.000000;0.185906
9338.000000;0.185478
9337.000000;0.185244
9336.000000;0.185107
9335.000000;0.184905
9334.000000;0.184567
9333.000000;0.184178
9332.000000;0.183897
9331.000000;0.183802
9330.000000;0.183797
9329.000000;0.183652
9328.000000;0.183201
9327.000000;0.182494
9326.000000;0.181762
9325.000000;0.181213
9324.000000;0.180887
9323.000000;0.180688
9322.000000;0.180521
9321.000000;0.180360
9320.000000;0.180215
9319.000000;0.180057
9318.000000;0.179817
9317.000000;0.179439
9316.000000;0.178968
9315.000000;0.178540
9314.000000;0.178290
9313.000000;0.178240
9312.000000;0.178285
9311.000000;0.178260
9310.000000;0.178023
9309.000000;0.177529
9308.000000;0.176877
9307.000000;0.176266
9306.000000;0.175848
9305.000000;0.175604
9304.000000;0.175399
9303.000000;0.175137
9302.000000;0.174823
9301.000000;0.174491
9300.000000;0.174156
9299.000000;0.173832
9298.000000;0.173552
9297.000000;0.173319
9296.000000;0.173115
9295.000000;0.172969
9294.000000;0.172956
9293.000000;0.173066
9292.000000;0.173136
9291.000000;0.172962
9290.000000;0.172496
9289.000000;0.171880
9288.000000;0.171314
9287.000000;0.170935
9286.000000;0.170775
9285.000000;0.170778
9284.000000;0.170814
9283.000000;0.170728
9282.000000;0.170418
9281.000000;0.169906
9280.000000;0.169334
9279.000000;0.168865
9278.000000;0.168556
9277.000000;0.168314
9276.000000;0.168010
9275.000000;0.167610
9274.000000;0.167179
9273.000000;0.166770
9272.000000;0.166378
9271.000000;0.166007
9270.000000;0.165719
9269.000000;0.165566
9268.000000;0.165513
9267.000000;0.165475
9266.000000;0.165378
9265.000000;0.165177
9264.000000;0.164841
9263.000000;0.164398
9262.000000;0.163949
9261.000000;0.163601
9260.000000;0.163361
9259.000000;0.163148
9258.000000;0.162918
9257.000000;0.162723
9256.000000;0.162616
9255.000000;0.162538
9254.000000;0.162348
9253.000000;0.161970
9252.000000;0.161493
9251.000000;0.161090
9250.000000;0.160849
9249.000000;0.160709
9248.000000;0.160550
9247.000000;0.160311
9246.000000;0.160013
9245.000000;0.159704
9244.000000;0.159427
9243.000000;0.159219
9242.000000;0.159058
9241.000000;0.158850
9240.000000;0.158511
9239.000000;0.158080
9238.000000;0.157692
9237.000000;0.157416
9236.000000;0.157194
9235.000000;0.156952
9234.000000;0.156709
9233.000000;0.156517
9232.000000;0.156345
9231.000000;0.156105
9230.000000;0.155791
9229.000000;0.155512
9228.000000;0.155354
9227.000000;0.155255
9226.000000;0.155078
9225.000000;0.154790
9224.000000;0.154500
9223.000000;0.154297
9222.000000;0.154111
9221.000000;0.153786
9220.000000;0.153289
9219.000000;0.152768
9218.000000;0.152389
9217.000000;0.152175
9216.000000;0.152043
9215.000000;0.151938
9214.000000;0.151860
9213.000000;0.151793
9212.000000;0.151675
9211.000000;0.151448
9210.000000;0.151086
9209.000000;0.150619
9208.000000;0.150149
9207.000000;0.149813
9206.000000;0.149667
9205.000000;0.149619
9204.000000;0.149522
9203.000000;0.149324
9202.000000;0.149059
9201.000000;0.148743
9200.000000;0.148353
9199.000000;0.147933
9198.000000;0.147603
9197.000000;0.147438
9196.000000;0.147381
9195.000000;0.147318
9194.000000;0.147185
9193.000000;0.146986
9192.000000;0.146751
9191.000000;0.146501
9190.000000;0.146233
9189.000000;0.145920
9188.000000;0.145566
9187.000000;0.145241
9186.000000;0.145011
9185.000000;0.144846
9184.000000;0.144664
9183.000000;0.144438
9182.000000;0.144214
9181.000000;0.144012
9180.000000;0.143801
9179.000000;0.143571
9178.000000;0.143347
9177.000000;0.143112
9176.000000;0.142802
9175.000000;0.142402
9174.000000;0.141995
9173.000000;0.141674
9172.000000;0.141458
9171.000000;0.141320
9170.000000;0.141213
9169.000000;0.141069
9168.000000;0.140835
9167.000000;0.140558
9166.000000;0.140354
9165.000000;0.140269
9164.000000;0.140229
9163.000000;0.140159
9162.000000;0.140050
9161.000000;0.139888
9160.000000;0.139606
9159.000000;0.139206
9158.000000;0.138811
9157.000000;0.138543
9156.000000;0.138375
9155.000000;0.138190
9154.000000;0.137936
9153.000000;0.137647
9152.000000;0.137359
9151.000000;0.137101
9150.000000;0.136915
9149.000000;0.136812
9148.000000;0.136725
9147.000000;0.136570
9146.000000;0.136344
9145.000000;0.136107
9144.000000;0.135888
9143.000000;0.135662
9142.000000;0.135402
9141.000000;0.135103
9140.000000;0.134787
9139.000000;0.134502
9138.000000;0.134302
9137.000000;0.134166
9136.000000;0.134003
9135.000000;0.133760
9134.000000;0.133480
9133.000000;0.133220
9132.000000;0.132970
9131.000000;0.132712
9130.000000;0.132499
9129.000000;0.132386
9128.000000;0.132333
9127.000000;0.132245
9126.000000;0.132081
9125.000000;0.131861
9124.000000;0.131595
9123.000000;0.131312
9122.000000;0.131103
9121.000000;0.131038
9120.000000;0.131047
9119.000000;0.130982
9118.000000;0.130781
9117.000000;0.130493
9116.000000;0.130158
9115.000000;0.129762
9114.000000;0.129331
9113.000000;0.128964
9112.000000;0.128733
9111.000000;0.128614
9110.000000;0.128543
9109.000000;0.128474
9108.000000;0.128361
9107.000000;0.128155
9106.000000;0.127860
9105.000000;0.127535
9104.000000;0.127222
9103.000000;0.126919
9102.000000;0.126638
9101.000000;0.126425
9100.000000;0.126307
9099.000000;0.126245
9098.000000;0.126181
9097.000000;0.126071
9096.000000;0.125880
9095.000000;0.125607
9094.000000;0.125336
9093.000000;0.125190
9092.000000;0.125179
9091.000000;0.125160
9090.000000;0.125006
9089.000000;0.124747
9088.000000;0.124488
9087.000000;0.124233
9086.000000;0.123900
9085.000000;0.123493
9084.000000;0.123149
9083.000000;0.122978
9082.000000;0.122923
9081.000000;0.122839
9080.000000;0.122653
9079.000000;0.122413
9078.000000;0.122181
9077.000000;0.121955
9076.000000;0.121699
9075.000000;0.121420
9074.000000;0.121168
9073.000000;0.120986
9072.000000;0.120876
9071.000000;0.120803
9070.000000;0.120716
9069.000000;0.120569
9068.000000;0.120357
9067.000000;0.120133
9066.000000;0.119959
9065.000000;0.119835
9064.000000;0.119694
9063.000000;0.119483
9062.000000;0.119218
9061.000000;0.118954
9060.000000;0.118718
9059.000000;0.118507
9058.000000;0.118303
9057.000000;0.118084
9056.000000;0.117828
9055.000000;0.117549
9054.000000;0.117295
9053.000000;0.117099
