Criado como novo conjunto de dados;"e2410_daniel_v2.spp","60305.2 Secs"
cm-1;Abs
10000.000000;1.167099
9999.000000;1.167175
9998.000000;1.167249
9997.000000;1.167327
9996.000000;1.167398
9995.000000;1.167482
9994.000000;1.167532
9993.000000;1.167488
9992.000000;1.167477
9991.000000;1.167575
9990.000000;1.167778
9989.000000;1.167929
9988.000000;1.167825
9987.000000;1.167476
9986.000000;1.167103
9985.000000;1.166724
9984.000000;1.165967
9983.000000;1.164647
9982.000000;1.163330
9981.000000;1.162818
9980.000000;1.163123
9979.000000;1.163372
9978.000000;1.162863
9977.000000;1.161820
9976.000000;1.160916
9975.000000;1.160375
9974.000000;1.159870
9973.000000;1.159121
9972.000000;1.158289
9971.000000;1.157741
9970.000000;1.157579
9969.000000;1.157522
9968.000000;1.157247
9967.000000;1.156797
9966.000000;1.156528
9965.000000;1.156613
9964.000000;1.156725
9963.000000;1.156330
9962.000000;1.155224
9961.000000;1.153715
9960.000000;1.152367
9959.000000;1.151645
9958.000000;1.151645
9957.000000;1.152018
9956.000000;1.152229
9955.000000;1.152013
9954.000000;1.151517
9953.000000;1.150961
9952.000000;1.150389
9951.000000;1.149821
9950.000000;1.149375
9949.000000;1.149071
9948.000000;1.148739
9947.000000;1.148305
9946.000000;1.147922
9945.000000;1.147602
9944.000000;1.146953
9943.000000;1.145633
9942.000000;1.143901
9941.000000;1.142379
9940.000000;1.141377
9939.000000;1.140751
9938.000000;1.140306
9937.000000;1.140002
9936.000000;1.139782
9935.000000;1.139523
9934.000000;1.139233
9933.000000;1.139079
9932.000000;1.139150
9931.000000;1.139302
9930.000000;1.139210
9929.000000;1.138526
9928.000000;1.137122
9927.000000;1.135340
9926.000000;1.133836
9925.000000;1.132994
9924.000000;1.132574
9923.000000;1.132086
9922.000000;1.131378
9921.000000;1.130686
9920.000000;1.130270
9919.000000;1.130229
9918.000000;1.130553
9917.000000;1.131060
9916.000000;1.131350
9915.000000;1.131064
9914.000000;1.130188
9913.000000;1.128980
9912.000000;1.127737
9911.000000;1.126760
9910.000000;1.126334
9909.000000;1.126464
9908.000000;1.126720
9907.000000;1.126641
9906.000000;1.126220
9905.000000;1.125795
9904.000000;1.125540
9903.000000;1.125341
9902.000000;1.125094
9901.000000;1.124860
9900.000000;1.124698
9899.000000;1.124517
9898.000000;1.124098
9897.000000;1.123195
9896.000000;1.121733
9895.000000;1.120075
9894.000000;1.118917
9893.000000;1.118687
9892.000000;1.119099
9891.000000;1.119496
9890.000000;1.119537
9889.000000;1.119338
9888.000000;1.119039
9887.000000;1.118556
9886.000000;1.117791
9885.000000;1.116845
9884.000000;1.115940
9883.000000;1.115254
9882.000000;1.114870
9881.000000;1.114732
9880.000000;1.114611
9879.000000;1.114179
9878.000000;1.113169
9877.000000;1.111573
9876.000000;1.109802
9875.000000;1.108566
9874.000000;1.108318
9873.000000;1.108729
9872.000000;1.108932
9871.000000;1.108387
9870.000000;1.107310
9869.000000;1.106214
9868.000000;1.105384
9867.000000;1.104941
9866.000000;1.104999
9865.000000;1.105400
9864.000000;1.105590
9863.000000;1.105132
9862.000000;1.104206
9861.000000;1.103280
9860.000000;1.102496
9859.000000;1.101713
9858.000000;1.100935
9857.000000;1.100311
9856.000000;1.099804
9855.000000;1.099282
9854.000000;1.098863
9853.000000;1.098821
9852.000000;1.099097
9851.000000;1.099222
9850.000000;1.098789
9849.000000;1.097769
9848.000000;1.096377
9847.000000;1.094950
9846.000000;1.093952
9845.000000;1.093765
9844.000000;1.094326
9843.000000;1.095111
9842.000000;1.095566
9841.000000;1.095474
9840.000000;1.094903
9839.000000;1.093995
9838.000000;1.092913
9837.000000;1.091884
9836.000000;1.091161
9835.000000;1.090874
9834.000000;1.090856
9833.000000;1.090632
9832.000000;1.089755
9831.000000;1.088274
9830.000000;1.086801
9829.000000;1.086009
9828.000000;1.086069
9827.000000;1.086576
9826.000000;1.086904
9825.000000;1.086611
9824.000000;1.085694
9823.000000;1.084565
9822.000000;1.083702
9821.000000;1.083266
9820.000000;1.083089
9819.000000;1.082959
9818.000000;1.082725
9817.000000;1.082202
9816.000000;1.081291
9815.000000;1.080242
9814.000000;1.079486
9813.000000;1.079120
9812.000000;1.078839
9811.000000;1.078452
9810.000000;1.078090
9809.000000;1.077747
9808.000000;1.077048
9807.000000;1.075770
9806.000000;1.074328
9805.000000;1.073406
9804.000000;1.073276
9803.000000;1.073696
9802.000000;1.074247
9801.000000;1.074527
9800.000000;1.074243
9799.000000;1.073400
9798.000000;1.072369
9797.000000;1.071598
9796.000000;1.071343
9795.000000;1.071654
9794.000000;1.072318
9793.000000;1.072735
9792.000000;1.072295
9791.000000;1.071116
9790.000000;1.070053
9789.000000;1.069679
9788.000000;1.069632
9787.000000;1.069230
9786.000000;1.068376
9785.000000;1.067463
9784.000000;1.066721
9783.000000;1.066127
9782.000000;1.065699
9781.000000;1.065398
9780.000000;1.064913
9779.000000;1.064010
9778.000000;1.063012
9777.000000;1.062504
9776.000000;1.062641
9775.000000;1.063090
9774.000000;1.063525
9773.000000;1.063764
9772.000000;1.063525
9771.000000;1.062527
9770.000000;1.060933
9769.000000;1.059307
9768.000000;1.058087
9767.000000;1.057347
9766.000000;1.057018
9765.000000;1.056989
9764.000000;1.056988
9763.000000;1.056716
9762.000000;1.056182
9761.000000;1.055684
9760.000000;1.055391
9759.000000;1.055147
9758.000000;1.054725
9757.000000;1.054091
9756.000000;1.053367
9755.000000;1.052622
9754.000000;1.051770
9753.000000;1.050649
9752.000000;1.049317
9751.000000;1.048222
9750.000000;1.047852
9749.000000;1.048118
9748.000000;1.048369
9747.000000;1.048189
9746.000000;1.047844
9745.000000;1.047719
9744.000000;1.047682
9743.000000;1.047394
9742.000000;1.046966
9741.000000;1.046781
9740.000000;1.046793
9739.000000;1.046510
9738.000000;1.045680
9737.000000;1.044563
9736.000000;1.043499
9735.000000;1.042582
9734.000000;1.041829
9733.000000;1.041331
9732.000000;1.041075
9731.000000;1.040845
9730.000000;1.040414
9729.000000;1.039739
9728.000000;1.038977
9727.000000;1.038408
9726.000000;1.038273
9725.000000;1.038513
9724.000000;1.038739
9723.000000;1.038618
9722.000000;1.038222
9721.000000;1.037827
9720.000000;1.037469
9719.000000;1.036931
9718.000000;1.036109
9717.000000;1.035150
9716.000000;1.034282
9715.000000;1.033624
9714.000000;1.033108
9713.000000;1.032485
9712.000000;1.031554
9711.000000;1.030542
9710.000000;1.030038
9709.000000;1.030342
9708.000000;1.031064
9707.000000;1.031567
9706.000000;1.031596
9705.000000;1.031217
9704.000000;1.030404
9703.000000;1.029159
9702.000000;1.027869
9701.000000;1.027079
9700.000000;1.026889
9699.000000;1.026876
9698.000000;1.026599
9697.000000;1.025928
9696.000000;1.024973
9695.000000;1.024054
9694.000000;1.023697
9693.000000;1.024230
9692.000000;1.025292
9691.000000;1.026012
9690.000000;1.025774
9689.000000;1.024629
9688.000000;1.022988
9687.000000;1.021237
9686.000000;1.019694
9685.000000;1.018617
9684.000000;1.018075
9683.000000;1.017936
9682.000000;1.018035
9681.000000;1.018221
9680.000000;1.018272
9679.000000;1.017968
9678.000000;1.017282
9677.000000;1.016376
9676.000000;1.015434
9675.000000;1.014629
9674.000000;1.014143
9673.000000;1.014034
9672.000000;1.014127
9671.000000;1.014238
9670.000000;1.014381
9669.000000;1.014569
9668.000000;1.014550
9667.000000;1.014063
9666.000000;1.013279
9665.000000;1.012641
9664.000000;1.012273
9663.000000;1.011882
9662.000000;1.011257
9661.000000;1.010579
9660.000000;1.010118
9659.000000;1.009898
9658.000000;1.009754
9657.000000;1.009515
9656.000000;1.009029
9655.000000;1.008196
9654.000000;1.007115
9653.000000;1.006115
9652.000000;1.005538
9651.000000;1.005487
9650.000000;1.005722
9649.000000;1.005742
9648.000000;1.005130
9647.000000;1.004033
9646.000000;1.003168
9645.000000;1.003054
9644.000000;1.003297
9643.000000;1.002958
9642.000000;1.001692
9641.000000;1.000206
9640.000000;0.999447
9639.000000;0.999610
9638.000000;1.000111
9637.000000;1.000286
9636.000000;0.999879
9635.000000;0.998979
9634.000000;0.997863
9633.000000;0.996955
9632.000000;0.996680
9631.000000;0.997089
9630.000000;0.997632
9629.000000;0.997500
9628.000000;0.996346
9627.000000;0.994629
9626.000000;0.993177
9625.000000;0.992467
9624.000000;0.992387
9623.000000;0.992560
9622.000000;0.992687
9621.000000;0.992607
9620.000000;0.992313
9619.000000;0.992024
9618.000000;0.992031
9617.000000;0.992286
9616.000000;0.992285
9615.000000;0.991586
9614.000000;0.990361
9613.000000;0.989282
9612.000000;0.988848
9611.000000;0.988936
9610.000000;0.988979
9609.000000;0.988494
9608.000000;0.987495
9607.000000;0.986468
9606.000000;0.985950
9605.000000;0.986088
9604.000000;0.986561
9603.000000;0.986845
9602.000000;0.986504
9601.000000;0.985387
9600.000000;0.983788
9599.000000;0.982403
9598.000000;0.981856
9597.000000;0.982151
9596.000000;0.982714
9595.000000;0.982989
9594.000000;0.982842
9593.000000;0.982384
9592.000000;0.981725
9591.000000;0.981036
9590.000000;0.980572
9589.000000;0.980433
9588.000000;0.980433
9587.000000;0.980331
9586.000000;0.980048
9585.000000;0.979587
9584.000000;0.978932
9583.000000;0.978165
9582.000000;0.977465
9581.000000;0.976891
9580.000000;0.976341
9579.000000;0.975786
9578.000000;0.975311
9577.000000;0.974855
9576.000000;0.974191
9575.000000;0.973323
9574.000000;0.972605
9573.000000;0.972281
9572.000000;0.972178
9571.000000;0.972054
9570.000000;0.971969
9569.000000;0.972018
9568.000000;0.971983
9567.000000;0.971552
9566.000000;0.970751
9565.000000;0.969858
9564.000000;0.969030
9563.000000;0.968295
9562.000000;0.967758
9561.000000;0.967534
9560.000000;0.967512
9559.000000;0.967422
9558.000000;0.967126
9557.000000;0.966713
9556.000000;0.966391
9555.000000;0.966350
9554.000000;0.966551
9553.000000;0.966550
9552.000000;0.965782
9551.000000;0.964232
9550.000000;0.962605
9549.000000;0.961622
9548.000000;0.961372
9547.000000;0.961481
9546.000000;0.961638
9545.000000;0.961671
9544.000000;0.961387
9543.000000;0.960718
9542.000000;0.959891
9541.000000;0.959145
9540.000000;0.958400
9539.000000;0.957486
9538.000000;0.956560
9537.000000;0.955986
9536.000000;0.955935
9535.000000;0.956333
9534.000000;0.957045
9533.000000;0.957797
9532.000000;0.958089
9531.000000;0.957588
9530.000000;0.956548
9529.000000;0.955512
9528.000000;0.954674
9527.000000;0.953842
9526.000000;0.952958
9525.000000;0.952261
9524.000000;0.951901
9523.000000;0.951723
9522.000000;0.951510
9521.000000;0.951248
9520.000000;0.951052
9519.000000;0.950976
9518.000000;0.950943
9517.000000;0.950760
9516.000000;0.950265
9515.000000;0.949544
9514.000000;0.948910
9513.000000;0.948529
9512.000000;0.948223
9511.000000;0.947811
9510.000000;0.947460
9509.000000;0.947455
9508.000000;0.947734
9507.000000;0.947914
9506.000000;0.947716
9505.000000;0.947163
9504.000000;0.946453
9503.000000;0.945864
9502.000000;0.945665
9501.000000;0.945854
9500.000000;0.946036
9499.000000;0.945815
9498.000000;0.945224
9497.000000;0.944544
9496.000000;0.943824
9495.000000;0.942885
9494.000000;0.941729
9493.000000;0.940624
9492.000000;0.939786
9491.000000;0.939258
9490.000000;0.939089
9489.000000;0.939335
9488.000000;0.939838
9487.000000;0.940219
9486.000000;0.940184
9485.000000;0.939707
9484.000000;0.938946
9483.000000;0.938132
9482.000000;0.937507
9481.000000;0.937135
9480.000000;0.936749
9479.000000;0.935998
9478.000000;0.934882
9477.000000;0.933797
9476.000000;0.933124
9475.000000;0.932911
9474.000000;0.932935
9473.000000;0.932922
9472.000000;0.932674
9471.000000;0.932120
9470.000000;0.931336
9469.000000;0.930533
9468.000000;0.930032
9467.000000;0.930168
9466.000000;0.930971
9465.000000;0.931906
9464.000000;0.932170
9463.000000;0.931478
9462.000000;0.930361
9461.000000;0.929515
9460.000000;0.929063
9459.000000;0.928683
9458.000000;0.928197
9457.000000;0.927696
9456.000000;0.927226
9455.000000;0.926746
9454.000000;0.926388
9453.000000;0.926418
9452.000000;0.926843
9451.000000;0.927285
9450.000000;0.927313
9449.000000;0.926750
9448.000000;0.925694
9447.000000;0.924459
9446.000000;0.923468
9445.000000;0.922967
9444.000000;0.922770
9443.000000;0.922479
9442.000000;0.921980
9441.000000;0.921541
9440.000000;0.921392
9439.000000;0.921387
9438.000000;0.921197
9437.000000;0.920711
9436.000000;0.920145
9435.000000;0.919787
9434.000000;0.919685
9433.000000;0.919593
9432.000000;0.919235
9431.000000;0.918593
9430.000000;0.917851
9429.000000;0.917118
9428.000000;0.916375
9427.000000;0.915708
9426.000000;0.915341
9425.000000;0.915312
9424.000000;0.915338
9423.000000;0.915163
9422.000000;0.914872
9421.000000;0.914681
9420.000000;0.914589
9419.000000;0.914451
9418.000000;0.914238
9417.000000;0.913978
9416.000000;0.913594
9415.000000;0.913057
9414.000000;0.912576
9413.000000;0.912359
9412.000000;0.912264
9411.000000;0.911975
9410.000000;0.911471
9409.000000;0.911033
9408.000000;0.910782
9407.000000;0.910527
9406.000000;0.910130
9405.000000;0.909765
9404.000000;0.909646
9403.000000;0.909666
9402.000000;0.909492
9401.000000;0.908978
9400.000000;0.908376
9399.000000;0.908046
9398.000000;0.907986
9397.000000;0.907738
9396.000000;0.906883
9395.000000;0.905590
9394.000000;0.904489
9393.000000;0.904009
9392.000000;0.904024
9391.000000;0.904143
9390.000000;0.904102
9389.000000;0.903786
9388.000000;0.903186
9387.000000;0.902533
9386.000000;0.902218
9385.000000;0.902303
9384.000000;0.902333
9383.000000;0.901905
9382.000000;0.901240
9381.000000;0.900881
9380.000000;0.900954
9379.000000;0.901075
9378.000000;0.900896
9377.000000;0.900435
9376.000000;0.899848
9375.000000;0.899206
9374.000000;0.898571
9373.000000;0.898083
9372.000000;0.897851
9371.000000;0.897822
9370.000000;0.897780
9369.000000;0.897448
9368.000000;0.896713
9367.000000;0.895837
9366.000000;0.895297
9365.000000;0.895277
9364.000000;0.895434
9363.000000;0.895312
9362.000000;0.894866
9361.000000;0.894396
9360.000000;0.894144
9359.000000;0.894162
9358.000000;0.894417
9357.000000;0.894736
9356.000000;0.894767
9355.000000;0.894278
9354.000000;0.893486
9353.000000;0.892839
9352.000000;0.892493
9351.000000;0.892235
9350.000000;0.891861
9349.000000;0.891402
9348.000000;0.890972
9347.000000;0.890615
9346.000000;0.890308
9345.000000;0.889968
9344.000000;0.889496
9343.000000;0.888952
9342.000000;0.888606
9341.000000;0.888625
9340.000000;0.888760
9339.000000;0.888568
9338.000000;0.887955
9337.000000;0.887264
9336.000000;0.886849
9335.000000;0.886738
9334.000000;0.886732
9333.000000;0.886640
9332.000000;0.886369
9331.000000;0.885954
9330.000000;0.885538
9329.000000;0.885220
9328.000000;0.884913
9327.000000;0.884426
9326.000000;0.883706
9325.000000;0.882940
9324.000000;0.882434
9323.000000;0.882382
9322.000000;0.882652
9321.000000;0.882788
9320.000000;0.882387
9319.000000;0.881552
9318.000000;0.880782
9317.000000;0.880342
9316.000000;0.879985
9315.000000;0.879446
9314.000000;0.878907
9313.000000;0.878705
9312.000000;0.878813
9311.000000;0.878918
9310.000000;0.878881
9309.000000;0.878757
9308.000000;0.878486
9307.000000;0.877935
9306.000000;0.877234
9305.000000;0.876717
9304.000000;0.876501
9303.000000;0.876386
9302.000000;0.876187
9301.000000;0.875920
9300.000000;0.875641
9299.000000;0.875342
9298.000000;0.875050
9297.000000;0.874802
9296.000000;0.874490
9295.000000;0.873985
9294.000000;0.873450
9293.000000;0.873283
9292.000000;0.873646
9291.000000;0.874205
9290.000000;0.874441
9289.000000;0.874108
9288.000000;0.873326
9287.000000;0.872374
9286.000000;0.871497
9285.000000;0.870817
9284.000000;0.870349
9283.000000;0.870075
9282.000000;0.869961
9281.000000;0.869883
9280.000000;0.869635
9279.000000;0.869130
9278.000000;0.868532
9277.000000;0.868076
9276.000000;0.867789
9275.000000;0.867529
9274.000000;0.867224
9273.000000;0.866947
9272.000000;0.866777
9271.000000;0.866715
9270.000000;0.866681
9269.000000;0.866543
9268.000000;0.866196
9267.000000;0.865719
9266.000000;0.865336
9265.000000;0.865130
9264.000000;0.864916
9263.000000;0.864518
9262.000000;0.864035
9261.000000;0.863665
9260.000000;0.863436
9259.000000;0.863272
9258.000000;0.863187
9257.000000;0.863158
9256.000000;0.862958
9255.000000;0.862406
9254.000000;0.861689
9253.000000;0.861195
9252.000000;0.861045
9251.000000;0.861038
9250.000000;0.860977
9249.000000;0.860800
9248.000000;0.860453
9247.000000;0.859929
9246.000000;0.859425
9245.000000;0.859192
9244.000000;0.859173
9243.000000;0.859060
9242.000000;0.858710
9241.000000;0.858305
9240.000000;0.858058
9239.000000;0.858009
9238.000000;0.858135
9237.000000;0.858403
9236.000000;0.858628
9235.000000;0.858527
9234.000000;0.858043
9233.000000;0.857426
9232.000000;0.856889
9231.000000;0.856358
9230.000000;0.855710
9229.000000;0.855078
9228.000000;0.854722
9227.000000;0.854678
9226.000000;0.854682
9225.000000;0.854460
9224.000000;0.854003
9223.000000;0.853537
9222.000000;0.853246
9221.000000;0.853078
9220.000000;0.852842
9219.000000;0.852462
9218.000000;0.852021
9217.000000;0.851570
9216.000000;0.851047
9215.000000;0.850498
9214.000000;0.850176
9213.000000;0.850267
9212.000000;0.850601
9211.000000;0.850833
9210.000000;0.850822
9209.000000;0.850652
9208.000000;0.850356
9207.000000;0.849885
9206.000000;0.849297
9205.000000;0.848768
9204.000000;0.848362
9203.000000;0.848018
9202.000000;0.847743
9201.000000;0.847631
9200.000000;0.847636
9199.000000;0.847535
9198.000000;0.847175
9197.000000;0.846620
9196.000000;0.846027
9195.000000;0.845522
9194.000000;0.845224
9193.000000;0.845241
9192.000000;0.845547
9191.000000;0.845967
9190.000000;0.846307
9189.000000;0.846423
9188.000000;0.846199
9187.000000;0.845602
9186.000000;0.844802
9185.000000;0.844092
9184.000000;0.843641
9183.000000;0.843424
9182.000000;0.843366
9181.000000;0.843411
9180.000000;0.843433
9179.000000;0.843233
9178.000000;0.842706
9177.000000;0.841933
9176.000000;0.841090
9175.000000;0.840358
9174.000000;0.839923
9173.000000;0.839900
9172.000000;0.840183
9171.000000;0.840482
9170.000000;0.840564
9169.000000;0.840415
9168.000000;0.840142
9167.000000;0.839824
9166.000000;0.839518
9165.000000;0.839305
9164.000000;0.839236
9163.000000;0.839249
9162.000000;0.839176
9161.000000;0.838871
9160.000000;0.838330
9159.000000;0.837738
9158.000000;0.837320
9157.000000;0.837141
9156.000000;0.837075
9155.000000;0.837002
9154.000000;0.836947
9153.000000;0.836949
9152.000000;0.836914
9151.000000;0.836722
9150.000000;0.836403
9149.000000;0.836065
9148.000000;0.835697
9147.000000;0.835207
9146.000000;0.834627
9145.000000;0.834142
9144.000000;0.833892
9143.000000;0.833846
9142.000000;0.833855
9141.000000;0.833718
9140.000000;0.833238
9139.000000;0.832423
9138.000000;0.831603
9137.000000;0.831211
9136.000000;0.831375
9135.000000;0.831830
9134.000000;0.832217
9133.000000;0.832346
9132.000000;0.832197
9131.000000;0.831836
9130.000000;0.831393
9129.000000;0.831001
9128.000000;0.830693
9127.000000;0.830436
9126.000000;0.830253
9125.000000;0.830204
9124.000000;0.830208
9123.000000;0.830048
9122.000000;0.829611
9121.000000;0.829025
9120.000000;0.828492
9119.000000;0.828089
9118.000000;0.827777
9117.000000;0.827512
9116.000000;0.827268
9115.000000;0.827034
9114.000000;0.826842
9113.000000;0.826714
9112.000000;0.826544
9111.000000;0.826157
9110.000000;0.825594
9109.000000;0.825208
9108.000000;0.825312
9107.000000;0.825745
9106.000000;0.825988
9105.000000;0.825736
9104.000000;0.825239
9103.000000;0.824974
9102.000000;0.825078
9101.000000;0.825252
9100.000000;0.825166
9099.000000;0.824826
9098.000000;0.824457
9097.000000;0.824195
9096.000000;0.823993
9095.000000;0.823766
9094.000000;0.823482
9093.000000;0.823106
9092.000000;0.822595
9091.000000;0.822000
9090.000000;0.821498
9089.000000;0.821245
9088.000000;0.821245
9087.000000;0.821366
9086.000000;0.821434
9085.000000;0.821320
9084.000000;0.821021
9083.000000;0.820687
9082.000000;0.820488
9081.000000;0.820413
9080.000000;0.820279
9079.000000;0.819964
9078.000000;0.819559
9077.000000;0.819242
9076.000000;0.819110
9075.000000;0.819154
9074.000000;0.819311
9073.000000;0.819447
9072.000000;0.819368
9071.000000;0.818954
9070.000000;0.818278
9069.000000;0.817533
9068.000000;0.816902
9067.000000;0.816531
9066.000000;0.816496
9065.000000;0.816696
9064.000000;0.816826
9063.000000;0.816612
9062.000000;0.816091
9061.000000;0.815605
9060.000000;0.815484
9059.000000;0.815770
9058.000000;0.816186
9057.000000;0.816361
9056.000000;0.816118
9055.000000;0.815594
9054.000000;0.815077
9053.000000;0.814720
