Criado como novo conjunto de dados;"e2410_daniel_v2.spp","106387.6 Secs"
cm-1;Abs
10000.000000;0.147476
9999.000000;0.148258
9998.000000;0.148988
9997.000000;0.149623
9996.000000;0.150176
9995.000000;0.150700
9994.000000;0.151261
9993.000000;0.151900
9992.000000;0.152615
9991.000000;0.153357
9990.000000;0.154039
9989.000000;0.154590
9988.000000;0.155014
9987.000000;0.155378
9986.000000;0.155762
9985.000000;0.156235
9984.000000;0.156882
9983.000000;0.157750
9982.000000;0.158738
9981.000000;0.159637
9980.000000;0.160344
9979.000000;0.160968
9978.000000;0.161648
9977.000000;0.162337
9976.000000;0.162881
9975.000000;0.163285
9974.000000;0.163770
9973.000000;0.164522
9972.000000;0.165487
9971.000000;0.166425
9970.000000;0.167116
9969.000000;0.167515
9968.000000;0.167803
9967.000000;0.168283
9966.000000;0.169128
9965.000000;0.170186
9964.000000;0.171091
9963.000000;0.171626
9962.000000;0.171916
9961.000000;0.172255
9960.000000;0.172823
9959.000000;0.173591
9958.000000;0.174420
9957.000000;0.175167
9956.000000;0.175781
9955.000000;0.176363
9954.000000;0.177112
9953.000000;0.178132
9952.000000;0.179299
9951.000000;0.180363
9950.000000;0.181169
9949.000000;0.181759
9948.000000;0.182291
9947.000000;0.182895
9946.000000;0.183576
9945.000000;0.184242
9944.000000;0.184857
9943.000000;0.185554
9942.000000;0.186509
9941.000000;0.187657
9940.000000;0.188638
9939.000000;0.189138
9938.000000;0.189232
9937.000000;0.189290
9936.000000;0.189599
9935.000000;0.190179
9934.000000;0.190940
9933.000000;0.191836
9932.000000;0.192815
9931.000000;0.193756
9930.000000;0.194577
9929.000000;0.195380
9928.000000;0.196355
9927.000000;0.197517
9926.000000;0.198619
9925.000000;0.199372
9924.000000;0.199725
9923.000000;0.199912
9922.000000;0.200224
9921.000000;0.200802
9920.000000;0.201621
9919.000000;0.202600
9918.000000;0.203647
9917.000000;0.204623
9916.000000;0.205376
9915.000000;0.205894
9914.000000;0.206358
9913.000000;0.206971
9912.000000;0.207754
9911.000000;0.208561
9910.000000;0.209307
9909.000000;0.210085
9908.000000;0.211034
9907.000000;0.212133
9906.000000;0.213193
9905.000000;0.214043
9904.000000;0.214683
9903.000000;0.215257
9902.000000;0.215903
9901.000000;0.216632
9900.000000;0.217334
9899.000000;0.217897
9898.000000;0.218335
9897.000000;0.218829
9896.000000;0.219600
9895.000000;0.220707
9894.000000;0.221926
9893.000000;0.222878
9892.000000;0.223352
9891.000000;0.223541
9890.000000;0.223902
9889.000000;0.224745
9888.000000;0.225955
9887.000000;0.227149
9886.000000;0.228073
9885.000000;0.228778
9884.000000;0.229443
9883.000000;0.230161
9882.000000;0.230963
9881.000000;0.231944
9880.000000;0.233176
9879.000000;0.234495
9878.000000;0.235540
9877.000000;0.236127
9876.000000;0.236497
9875.000000;0.237075
9874.000000;0.237998
9873.000000;0.239006
9872.000000;0.239786
9871.000000;0.240340
9870.000000;0.240917
9869.000000;0.241673
9868.000000;0.242493
9867.000000;0.243155
9866.000000;0.243592
9865.000000;0.243961
9864.000000;0.244488
9863.000000;0.245286
9862.000000;0.246310
9861.000000;0.247432
9860.000000;0.248558
9859.000000;0.249656
9858.000000;0.250713
9857.000000;0.251682
9856.000000;0.252487
9855.000000;0.253074
9854.000000;0.253493
9853.000000;0.253905
9852.000000;0.254496
9851.000000;0.255337
9850.000000;0.256354
9849.000000;0.257433
9848.000000;0.258516
9847.000000;0.259551
9846.000000;0.260430
9845.000000;0.261087
9844.000000;0.261665
9843.000000;0.262447
9842.000000;0.263537
9841.000000;0.264693
9840.000000;0.265589
9839.000000;0.266185
9838.000000;0.266734
9837.000000;0.267462
9836.000000;0.268343
9835.000000;0.269221
9834.000000;0.270023
9833.000000;0.270805
9832.000000;0.271666
9831.000000;0.272670
9830.000000;0.273791
9829.000000;0.274908
9828.000000;0.275898
9827.000000;0.276767
9826.000000;0.277637
9825.000000;0.278543
9824.000000;0.279338
9823.000000;0.279901
9822.000000;0.280385
9821.000000;0.281129
9820.000000;0.282284
9819.000000;0.283628
9818.000000;0.284807
9817.000000;0.285700
9816.000000;0.286462
9815.000000;0.287275
9814.000000;0.288136
9813.000000;0.288932
9812.000000;0.289648
9811.000000;0.290438
9810.000000;0.291458
9809.000000;0.292654
9808.000000;0.293748
9807.000000;0.294477
9806.000000;0.294832
9805.000000;0.295046
9804.000000;0.295390
9803.000000;0.296018
9802.000000;0.296988
9801.000000;0.298286
9800.000000;0.299765
9799.000000;0.301159
9798.000000;0.302258
9797.000000;0.303057
9796.000000;0.303677
9795.000000;0.304198
9794.000000;0.304669
9793.000000;0.305234
9792.000000;0.306094
9791.000000;0.307287
9790.000000;0.308607
9789.000000;0.309809
9788.000000;0.310849
9787.000000;0.311896
9786.000000;0.313159
9785.000000;0.314689
9784.000000;0.316277
9783.000000;0.317535
9782.000000;0.318205
9781.000000;0.318456
9780.000000;0.318794
9779.000000;0.319606
9778.000000;0.320832
9777.000000;0.322122
9776.000000;0.323203
9775.000000;0.324040
9774.000000;0.324734
9773.000000;0.325405
9772.000000;0.326151
9771.000000;0.327001
9770.000000;0.327916
9769.000000;0.328900
9768.000000;0.330058
9767.000000;0.331454
9766.000000;0.332942
9765.000000;0.334262
9764.000000;0.335269
9763.000000;0.335968
9762.000000;0.336387
9761.000000;0.336547
9760.000000;0.336596
9759.000000;0.336784
9758.000000;0.337288
9757.000000;0.338130
9756.000000;0.339288
9755.000000;0.340742
9754.000000;0.342357
9753.000000;0.343833
9752.000000;0.344919
9751.000000;0.345650
9750.000000;0.346292
9749.000000;0.347082
9748.000000;0.348040
9747.000000;0.349019
9746.000000;0.349890
9745.000000;0.350692
9744.000000;0.351591
9743.000000;0.352670
9742.000000;0.353792
9741.000000;0.354730
9740.000000;0.355411
9739.000000;0.355965
9738.000000;0.356569
9737.000000;0.357328
9736.000000;0.358284
9735.000000;0.359439
9734.000000;0.360727
9733.000000;0.362074
9732.000000;0.363474
9731.000000;0.364910
9730.000000;0.366222
9729.000000;0.367210
9728.000000;0.367927
9727.000000;0.368685
9726.000000;0.369702
9725.000000;0.370853
9724.000000;0.371887
9723.000000;0.372756
9722.000000;0.373629
9721.000000;0.374618
9720.000000;0.375634
9719.000000;0.376472
9718.000000;0.376957
9717.000000;0.377088
9716.000000;0.377138
9715.000000;0.377537
9714.000000;0.378512
9713.000000;0.379853
9712.000000;0.381127
9711.000000;0.382097
9710.000000;0.382849
9709.000000;0.383559
9708.000000;0.384279
9707.000000;0.384994
9706.000000;0.385779
9705.000000;0.386813
9704.000000;0.388232
9703.000000;0.389968
9702.000000;0.391726
9701.000000;0.393152
9700.000000;0.394094
9699.000000;0.394740
9698.000000;0.395460
9697.000000;0.396536
9696.000000;0.398017
9695.000000;0.399744
9694.000000;0.401425
9693.000000;0.402752
9692.000000;0.403547
9691.000000;0.403875
9690.000000;0.404006
9689.000000;0.404254
9688.000000;0.404818
9687.000000;0.405709
9686.000000;0.406781
9685.000000;0.407860
9684.000000;0.408896
9683.000000;0.410004
9682.000000;0.411335
9681.000000;0.412909
9680.000000;0.414522
9679.000000;0.415809
9678.000000;0.416463
9677.000000;0.416515
9676.000000;0.416402
9675.000000;0.416636
9674.000000;0.417394
9673.000000;0.418499
9672.000000;0.419782
9671.000000;0.421285
9670.000000;0.423054
9669.000000;0.424929
9668.000000;0.426670
9667.000000;0.428173
9666.000000;0.429391
9665.000000;0.430198
9664.000000;0.430547
9663.000000;0.430705
9662.000000;0.431069
9661.000000;0.431712
9660.000000;0.432337
9659.000000;0.432752
9658.000000;0.433203
9657.000000;0.434088
9656.000000;0.435433
9655.000000;0.436801
9654.000000;0.437725
9653.000000;0.438172
9652.000000;0.438600
9651.000000;0.439572
9650.000000;0.441274
9649.000000;0.443319
9648.000000;0.445028
9647.000000;0.445999
9646.000000;0.446385
9645.000000;0.446628
9644.000000;0.447001
9643.000000;0.447503
9642.000000;0.448140
9641.000000;0.449099
9640.000000;0.450551
9639.000000;0.452354
9638.000000;0.454080
9637.000000;0.455327
9636.000000;0.455979
9635.000000;0.456227
9634.000000;0.456422
9633.000000;0.456873
9632.000000;0.457644
9631.000000;0.458513
9630.000000;0.459206
9629.000000;0.459692
9628.000000;0.460210
9627.000000;0.460989
9626.000000;0.462039
9625.000000;0.463210
9624.000000;0.464289
9623.000000;0.465041
9622.000000;0.465354
9621.000000;0.465495
9620.000000;0.466032
9619.000000;0.467328
9618.000000;0.469172
9617.000000;0.471005
9616.000000;0.472403
9615.000000;0.473221
9614.000000;0.473495
9613.000000;0.473485
9612.000000;0.473709
9611.000000;0.474572
9610.000000;0.475925
9609.000000;0.477236
9608.000000;0.478206
9607.000000;0.478954
9606.000000;0.479621
9605.000000;0.480117
9604.000000;0.480419
9603.000000;0.480782
9602.000000;0.481442
9601.000000;0.482291
9600.000000;0.483048
9599.000000;0.483649
9598.000000;0.484312
9597.000000;0.485286
9596.000000;0.486618
9595.000000;0.488088
9594.000000;0.489317
9593.000000;0.490087
9592.000000;0.490591
9591.000000;0.491209
9590.000000;0.492010
9589.000000;0.492725
9588.000000;0.493278
9587.000000;0.493994
9586.000000;0.495083
9585.000000;0.496213
9584.000000;0.496916
9583.000000;0.497223
9582.000000;0.497588
9581.000000;0.498288
9580.000000;0.499222
9579.000000;0.500191
9578.000000;0.501049
9577.000000;0.501614
9576.000000;0.501792
9575.000000;0.501852
9574.000000;0.502291
9573.000000;0.503311
9572.000000;0.504596
9571.000000;0.505683
9570.000000;0.506401
9569.000000;0.506924
9568.000000;0.507528
9567.000000;0.508361
9566.000000;0.509311
9565.000000;0.510093
9564.000000;0.510575
9563.000000;0.510988
9562.000000;0.511645
9561.000000;0.512481
9560.000000;0.513111
9559.000000;0.513395
9558.000000;0.513691
9557.000000;0.514389
9556.000000;0.515374
9555.000000;0.516186
9554.000000;0.516624
9553.000000;0.516958
9552.000000;0.517509
9551.000000;0.518180
9550.000000;0.518542
9549.000000;0.518384
9548.000000;0.518087
9547.000000;0.518320
9546.000000;0.519330
9545.000000;0.520621
9544.000000;0.521429
9543.000000;0.521487
9542.000000;0.521213
9541.000000;0.521192
9540.000000;0.521688
9539.000000;0.522674
9538.000000;0.524047
9537.000000;0.525569
9536.000000;0.526780
9535.000000;0.527276
9534.000000;0.527144
9533.000000;0.526879
9532.000000;0.526834
9531.000000;0.526937
9530.000000;0.527039
9529.000000;0.527306
9528.000000;0.528061
9527.000000;0.529303
9526.000000;0.530607
9525.000000;0.531499
9524.000000;0.531786
9523.000000;0.531553
9522.000000;0.531082
9521.000000;0.530789
9520.000000;0.530942
9519.000000;0.531285
9518.000000;0.531213
9517.000000;0.530573
9516.000000;0.530043
9515.000000;0.530412
9514.000000;0.531584
9513.000000;0.532646
9512.000000;0.532883
9511.000000;0.532450
9510.000000;0.532004
9509.000000;0.532027
9508.000000;0.532606
9507.000000;0.533515
9506.000000;0.534304
9505.000000;0.534568
9504.000000;0.534392
9503.000000;0.534356
9502.000000;0.534915
9501.000000;0.535866
9500.000000;0.536612
9499.000000;0.536818
9498.000000;0.536643
9497.000000;0.536442
9496.000000;0.536458
9495.000000;0.536763
9494.000000;0.537279
9493.000000;0.537818
9492.000000;0.538211
9491.000000;0.538404
9490.000000;0.538367
9489.000000;0.538025
9488.000000;0.537449
9487.000000;0.537051
9486.000000;0.537325
9485.000000;0.538300
9484.000000;0.539388
9483.000000;0.539867
9482.000000;0.539511
9481.000000;0.538652
9480.000000;0.537713
9479.000000;0.536824
9478.000000;0.535932
9477.000000;0.535162
9476.000000;0.534859
9475.000000;0.535192
9474.000000;0.535861
9473.000000;0.536314
9472.000000;0.536245
9471.000000;0.535803
9470.000000;0.535386
9469.000000;0.535325
9468.000000;0.535695
9467.000000;0.536235
9466.000000;0.536514
9465.000000;0.536361
9464.000000;0.536117
9463.000000;0.536276
9462.000000;0.536913
9461.000000;0.537667
9460.000000;0.538240
9459.000000;0.538609
9458.000000;0.538735
9457.000000;0.538421
9456.000000;0.537638
9455.000000;0.536751
9454.000000;0.536222
9453.000000;0.536198
9452.000000;0.536478
9451.000000;0.536676
9450.000000;0.536366
9449.000000;0.535350
9448.000000;0.533990
9447.000000;0.533022
9446.000000;0.532826
9445.000000;0.533038
9444.000000;0.533070
9443.000000;0.532809
9442.000000;0.532593
9441.000000;0.532679
9440.000000;0.533026
9439.000000;0.533455
9438.000000;0.533740
9437.000000;0.533611
9436.000000;0.532954
9435.000000;0.532008
9434.000000;0.531152
9433.000000;0.530520
9432.000000;0.529969
9431.000000;0.529388
9430.000000;0.528874
9429.000000;0.528641
9428.000000;0.528844
9427.000000;0.529421
9426.000000;0.529974
9425.000000;0.529966
9424.000000;0.529245
9423.000000;0.528318
9422.000000;0.527870
9421.000000;0.528049
9420.000000;0.528350
9419.000000;0.528122
9418.000000;0.527068
9417.000000;0.525367
9416.000000;0.523540
9415.000000;0.522175
9414.000000;0.521590
9413.000000;0.521714
9412.000000;0.522274
9411.000000;0.522935
9410.000000;0.523216
9409.000000;0.522635
9408.000000;0.521293
9407.000000;0.520069
9406.000000;0.519775
9405.000000;0.520191
9404.000000;0.520313
9403.000000;0.519574
9402.000000;0.518382
9401.000000;0.517381
9400.000000;0.516633
9399.000000;0.515789
9398.000000;0.514740
9397.000000;0.513798
9396.000000;0.513327
9395.000000;0.513399
9394.000000;0.513714
9393.000000;0.513770
9392.000000;0.513252
9391.000000;0.512381
9390.000000;0.511738
9389.000000;0.511643
9388.000000;0.511807
9387.000000;0.511681
9386.000000;0.511022
9385.000000;0.510033
9384.000000;0.509074
9383.000000;0.508411
9382.000000;0.508157
9381.000000;0.508246
9380.000000;0.508397
9379.000000;0.508217
9378.000000;0.507456
9377.000000;0.506213
9376.000000;0.504887
9375.000000;0.503860
9374.000000;0.503195
9373.000000;0.502646
9372.000000;0.502006
9371.000000;0.501372
9370.000000;0.501025
9369.000000;0.501108
9368.000000;0.501495
9367.000000;0.501895
9366.000000;0.501987
9365.000000;0.501562
9364.000000;0.500695
9363.000000;0.499715
9362.000000;0.498831
9361.000000;0.497809
9360.000000;0.496248
9359.000000;0.494215
9358.000000;0.492402
9357.000000;0.491566
9356.000000;0.491874
9355.000000;0.492817
9354.000000;0.493637
9353.000000;0.493798
9352.000000;0.493216
9351.000000;0.492169
9350.000000;0.491032
9349.000000;0.490029
9348.000000;0.489164
9347.000000;0.488300
9346.000000;0.487268
9345.000000;0.486066
9344.000000;0.485037
9343.000000;0.484696
9342.000000;0.485174
9341.000000;0.485891
9340.000000;0.485989
9339.000000;0.485091
9338.000000;0.483494
9337.000000;0.481699
9336.000000;0.480007
9335.000000;0.478577
9334.000000;0.477568
9333.000000;0.477052
9332.000000;0.476907
9331.000000;0.476890
9330.000000;0.476731
9329.000000;0.476162
9328.000000;0.475029
9327.000000;0.473490
9326.000000;0.471992
9325.000000;0.470946
9324.000000;0.470428
9323.000000;0.470196
9322.000000;0.469927
9321.000000;0.469427
9320.000000;0.468718
9319.000000;0.467954
9318.000000;0.467243
9317.000000;0.466586
9316.000000;0.466003
9315.000000;0.465577
9314.000000;0.465263
9313.000000;0.464832
9312.000000;0.464191
9311.000000;0.463609
9310.000000;0.463351
9309.000000;0.463180
9308.000000;0.462570
9307.000000;0.461385
9306.000000;0.460041
9305.000000;0.458942
9304.000000;0.458109
9303.000000;0.457451
9302.000000;0.457013
9301.000000;0.456754
9300.000000;0.456350
9299.000000;0.455524
9298.000000;0.454407
9297.000000;0.453339
9296.000000;0.452408
9295.000000;0.451405
9294.000000;0.450216
9293.000000;0.449068
9292.000000;0.448341
9291.000000;0.448172
9290.000000;0.448265
9289.000000;0.448108
9288.000000;0.447487
9287.000000;0.446701
9286.000000;0.446102
9285.000000;0.445532
9284.000000;0.444508
9283.000000;0.443010
9282.000000;0.441702
9281.000000;0.441193
9280.000000;0.441357
9279.000000;0.441579
9278.000000;0.441460
9277.000000;0.441020
9276.000000;0.440377
9275.000000;0.439532
9274.000000;0.438454
9273.000000;0.437154
9272.000000;0.435679
9271.000000;0.434173
9270.000000;0.432862
9269.000000;0.431862
9268.000000;0.431062
9267.000000;0.430340
9266.000000;0.429773
9265.000000;0.429491
9264.000000;0.429398
9263.000000;0.429209
9262.000000;0.428721
9261.000000;0.427915
9260.000000;0.426863
9259.000000;0.425710
9258.000000;0.424693
9257.000000;0.423981
9256.000000;0.423500
9255.000000;0.423028
9254.000000;0.422442
9253.000000;0.421781
9252.000000;0.421133
9251.000000;0.420610
9250.000000;0.420338
9249.000000;0.420321
9248.000000;0.420323
9247.000000;0.420040
9246.000000;0.419384
9245.000000;0.418518
9244.000000;0.417654
9243.000000;0.416897
9242.000000;0.416210
9241.000000;0.415411
9240.000000;0.414274
9239.000000;0.412797
9238.000000;0.411317
9237.000000;0.410218
9236.000000;0.409545
9235.000000;0.409017
9234.000000;0.408380
9233.000000;0.407632
9232.000000;0.406912
9231.000000;0.406308
9230.000000;0.405789
9229.000000;0.405213
9228.000000;0.404443
9227.000000;0.403534
9226.000000;0.402731
9225.000000;0.402175
9224.000000;0.401683
9223.000000;0.400945
9222.000000;0.399893
9221.000000;0.398722
9220.000000;0.397629
9219.000000;0.396685
9218.000000;0.395904
9217.000000;0.395239
9216.000000;0.394544
9215.000000;0.393782
9214.000000;0.393235
9213.000000;0.393263
9212.000000;0.393781
9211.000000;0.394169
9210.000000;0.393815
9209.000000;0.392630
9208.000000;0.391009
9207.000000;0.389452
9206.000000;0.388297
9205.000000;0.387634
9204.000000;0.387318
9203.000000;0.387114
9202.000000;0.386890
9201.000000;0.386624
9200.000000;0.386256
9199.000000;0.385704
9198.000000;0.385031
9197.000000;0.384444
9196.000000;0.384030
9195.000000;0.383656
9194.000000;0.383201
9193.000000;0.382735
9192.000000;0.382348
9191.000000;0.381946
9190.000000;0.381375
9189.000000;0.380668
9188.000000;0.379979
9187.000000;0.379293
9186.000000;0.378380
9185.000000;0.377083
9184.000000;0.375588
9183.000000;0.374346
9182.000000;0.373700
9181.000000;0.373595
9180.000000;0.373636
9179.000000;0.373433
9178.000000;0.372888
9177.000000;0.372103
9176.000000;0.371091
9175.000000;0.369766
9174.000000;0.368253
9173.000000;0.366998
9172.000000;0.366419
9171.000000;0.366496
9170.000000;0.366824
9169.000000;0.367026
9168.000000;0.366986
9167.000000;0.366696
9166.000000;0.366059
9165.000000;0.364979
9164.000000;0.363578
9163.000000;0.362193
9162.000000;0.361117
9161.000000;0.360393
9160.000000;0.359879
9159.000000;0.359447
9158.000000;0.359071
9157.000000;0.358748
9156.000000;0.358443
9155.000000;0.358112
9154.000000;0.357722
9153.000000;0.357193
9152.000000;0.356443
9151.000000;0.355530
9150.000000;0.354693
9149.000000;0.354110
9148.000000;0.353661
9147.000000;0.353042
9146.000000;0.352114
9145.000000;0.351031
9144.000000;0.350040
9143.000000;0.349273
9142.000000;0.348758
9141.000000;0.348486
9140.000000;0.348375
9139.000000;0.348232
9138.000000;0.347826
9137.000000;0.347045
9136.000000;0.345941
9135.000000;0.344686
9134.000000;0.343505
9133.000000;0.342600
9132.000000;0.342092
9131.000000;0.341972
9130.000000;0.342073
9129.000000;0.342093
9128.000000;0.341737
9127.000000;0.340957
9126.000000;0.340038
9125.000000;0.339348
9124.000000;0.338977
9123.000000;0.338685
9122.000000;0.338189
9121.000000;0.337389
9120.000000;0.336345
9119.000000;0.335196
9118.000000;0.334183
9117.000000;0.333604
9116.000000;0.333590
9115.000000;0.333937
9114.000000;0.334254
9113.000000;0.334257
9112.000000;0.333872
9111.000000;0.333148
9110.000000;0.332191
9109.000000;0.331157
9108.000000;0.330206
9107.000000;0.329410
9106.000000;0.328775
9105.000000;0.328342
9104.000000;0.328154
9103.000000;0.328135
9102.000000;0.328062
9101.000000;0.327753
9100.000000;0.327208
9099.000000;0.326535
9098.000000;0.325781
9097.000000;0.324908
9096.000000;0.323941
9095.000000;0.323043
9094.000000;0.322407
9093.000000;0.322087
9092.000000;0.321957
9091.000000;0.321811
9090.000000;0.321485
9089.000000;0.320937
9088.000000;0.320252
9087.000000;0.319593
9086.000000;0.319055
9085.000000;0.318577
9084.000000;0.317999
9083.000000;0.317218
9082.000000;0.316260
9081.000000;0.315238
9080.000000;0.314291
9079.000000;0.313561
9078.000000;0.313119
9077.000000;0.312868
9076.000000;0.312594
9075.000000;0.312158
9074.000000;0.311594
9073.000000;0.310981
9072.000000;0.310345
9071.000000;0.309750
9070.000000;0.309351
9069.000000;0.309173
9068.000000;0.308926
9067.000000;0.308247
9066.000000;0.307152
9065.000000;0.306061
9064.000000;0.305374
9063.000000;0.305148
9062.000000;0.305199
9061.000000;0.305329
9060.000000;0.305349
9059.000000;0.305094
9058.000000;0.304591
9057.000000;0.304101
9056.000000;0.303828
9055.000000;0.303636
9054.000000;0.303221
9053.000000;0.302524
