Criado como novo conjunto de dados;"e2410_daniel_v2.spp","81366.3 Secs"
cm-1;Abs
10000.000000;1.074523
9999.000000;1.073870
9998.000000;1.073232
9997.000000;1.072565
9996.000000;1.072048
9995.000000;1.071674
9994.000000;1.071122
9993.000000;1.070207
9992.000000;1.069213
9991.000000;1.068829
9990.000000;1.069332
9989.000000;1.070167
9988.000000;1.070575
9987.000000;1.070409
9986.000000;1.070005
9985.000000;1.069537
9984.000000;1.068934
9983.000000;1.068220
9982.000000;1.067491
9981.000000;1.066647
9980.000000;1.065555
9979.000000;1.064396
9978.000000;1.063537
9977.000000;1.063149
9976.000000;1.063171
9975.000000;1.063451
9974.000000;1.063658
9973.000000;1.063319
9972.000000;1.062298
9971.000000;1.061008
9970.000000;1.059867
9969.000000;1.058857
9968.000000;1.057914
9967.000000;1.057369
9966.000000;1.057465
9965.000000;1.057766
9964.000000;1.057597
9963.000000;1.056933
9962.000000;1.056294
9961.000000;1.055915
9960.000000;1.055526
9959.000000;1.054872
9958.000000;1.053957
9957.000000;1.052827
9956.000000;1.051564
9955.000000;1.050451
9954.000000;1.049711
9953.000000;1.049155
9952.000000;1.048436
9951.000000;1.047609
9950.000000;1.047058
9949.000000;1.046948
9948.000000;1.047096
9947.000000;1.047271
9946.000000;1.047262
9945.000000;1.046779
9944.000000;1.045683
9943.000000;1.044251
9942.000000;1.042890
9941.000000;1.041693
9940.000000;1.040584
9939.000000;1.039700
9938.000000;1.039278
9937.000000;1.039281
9936.000000;1.039460
9935.000000;1.039663
9934.000000;1.039786
9933.000000;1.039654
9932.000000;1.039245
9931.000000;1.038828
9930.000000;1.038533
9929.000000;1.038106
9928.000000;1.037444
9927.000000;1.037006
9926.000000;1.037151
9925.000000;1.037381
9924.000000;1.036865
9923.000000;1.035531
9922.000000;1.034014
9921.000000;1.032721
9920.000000;1.031612
9919.000000;1.030794
9918.000000;1.030606
9917.000000;1.031016
9916.000000;1.031500
9915.000000;1.031632
9914.000000;1.031383
9913.000000;1.030817
9912.000000;1.029960
9911.000000;1.029008
9910.000000;1.028221
9909.000000;1.027551
9908.000000;1.026756
9907.000000;1.025885
9906.000000;1.025254
9905.000000;1.024919
9904.000000;1.024603
9903.000000;1.024176
9902.000000;1.023806
9901.000000;1.023577
9900.000000;1.023316
9899.000000;1.022884
9898.000000;1.022307
9897.000000;1.021575
9896.000000;1.020628
9895.000000;1.019624
9894.000000;1.018918
9893.000000;1.018704
9892.000000;1.018822
9891.000000;1.018886
9890.000000;1.018474
9889.000000;1.017362
9888.000000;1.015850
9887.000000;1.014664
9886.000000;1.014256
9885.000000;1.014322
9884.000000;1.014272
9883.000000;1.013968
9882.000000;1.013630
9881.000000;1.013267
9880.000000;1.012664
9879.000000;1.011814
9878.000000;1.010889
9877.000000;1.009900
9876.000000;1.008835
9875.000000;1.008039
9874.000000;1.007920
9873.000000;1.008276
9872.000000;1.008374
9871.000000;1.007813
9870.000000;1.006928
9869.000000;1.006294
9868.000000;1.006159
9867.000000;1.006390
9866.000000;1.006611
9865.000000;1.006367
9864.000000;1.005499
9863.000000;1.004396
9862.000000;1.003579
9861.000000;1.003064
9860.000000;1.002459
9859.000000;1.001661
9858.000000;1.001051
9857.000000;1.000941
9856.000000;1.001139
9855.000000;1.001194
9854.000000;1.000814
9853.000000;0.999987
9852.000000;0.998925
9851.000000;0.997982
9850.000000;0.997451
9849.000000;0.997343
9848.000000;0.997421
9847.000000;0.997415
9846.000000;0.997097
9845.000000;0.996302
9844.000000;0.995075
9843.000000;0.993709
9842.000000;0.992487
9841.000000;0.991446
9840.000000;0.990507
9839.000000;0.989678
9838.000000;0.988986
9837.000000;0.988389
9836.000000;0.987911
9835.000000;0.987667
9834.000000;0.987620
9833.000000;0.987538
9832.000000;0.987369
9831.000000;0.987363
9830.000000;0.987560
9829.000000;0.987491
9828.000000;0.986715
9827.000000;0.985426
9826.000000;0.984234
9825.000000;0.983548
9824.000000;0.983459
9823.000000;0.983887
9822.000000;0.984477
9821.000000;0.984613
9820.000000;0.983964
9819.000000;0.982854
9818.000000;0.981817
9817.000000;0.981034
9816.000000;0.980495
9815.000000;0.980301
9814.000000;0.980374
9813.000000;0.980229
9812.000000;0.979574
9811.000000;0.978839
9810.000000;0.978548
9809.000000;0.978447
9808.000000;0.977885
9807.000000;0.976860
9806.000000;0.975986
9805.000000;0.975504
9804.000000;0.975008
9803.000000;0.974203
9802.000000;0.973312
9801.000000;0.972632
9800.000000;0.972186
9799.000000;0.971915
9798.000000;0.971749
9797.000000;0.971446
9796.000000;0.970785
9795.000000;0.969964
9794.000000;0.969387
9793.000000;0.969028
9792.000000;0.968458
9791.000000;0.967555
9790.000000;0.966699
9789.000000;0.966134
9788.000000;0.965613
9787.000000;0.964898
9786.000000;0.964238
9785.000000;0.964058
9784.000000;0.964392
9783.000000;0.964828
9782.000000;0.964880
9781.000000;0.964311
9780.000000;0.963249
9779.000000;0.962091
9778.000000;0.961227
9777.000000;0.960814
9776.000000;0.960800
9775.000000;0.961006
9774.000000;0.961094
9773.000000;0.960706
9772.000000;0.959829
9771.000000;0.958837
9770.000000;0.957976
9769.000000;0.957020
9768.000000;0.955740
9767.000000;0.954461
9766.000000;0.953772
9765.000000;0.953781
9764.000000;0.954015
9763.000000;0.953969
9762.000000;0.953472
9761.000000;0.952652
9760.000000;0.951864
9759.000000;0.951560
9758.000000;0.951833
9757.000000;0.952139
9756.000000;0.951783
9755.000000;0.950691
9754.000000;0.949427
9753.000000;0.948549
9752.000000;0.948231
9751.000000;0.948359
9750.000000;0.948602
9749.000000;0.948451
9748.000000;0.947589
9747.000000;0.946297
9746.000000;0.945229
9745.000000;0.944753
9744.000000;0.944701
9743.000000;0.944670
9742.000000;0.944385
9741.000000;0.943835
9740.000000;0.943247
9739.000000;0.942839
9738.000000;0.942483
9737.000000;0.941807
9736.000000;0.940812
9735.000000;0.940062
9734.000000;0.939951
9733.000000;0.940044
9732.000000;0.939551
9731.000000;0.938282
9730.000000;0.936782
9729.000000;0.935673
9728.000000;0.935227
9727.000000;0.935406
9726.000000;0.935886
9725.000000;0.936157
9724.000000;0.935979
9723.000000;0.935630
9722.000000;0.935409
9721.000000;0.935130
9720.000000;0.934485
9719.000000;0.933665
9718.000000;0.933112
9717.000000;0.932822
9716.000000;0.932417
9715.000000;0.931791
9714.000000;0.931187
9713.000000;0.930676
9712.000000;0.930085
9711.000000;0.929426
9710.000000;0.928922
9709.000000;0.928582
9708.000000;0.928175
9707.000000;0.927648
9706.000000;0.927159
9705.000000;0.926695
9704.000000;0.926115
9703.000000;0.925551
9702.000000;0.925320
9701.000000;0.925383
9700.000000;0.925340
9699.000000;0.925026
9698.000000;0.924661
9697.000000;0.924333
9696.000000;0.923797
9695.000000;0.922951
9694.000000;0.922109
9693.000000;0.921568
9692.000000;0.921228
9691.000000;0.920821
9690.000000;0.920284
9689.000000;0.919698
9688.000000;0.919079
9687.000000;0.918382
9686.000000;0.917621
9685.000000;0.916867
9684.000000;0.916238
9683.000000;0.915873
9682.000000;0.915779
9681.000000;0.915731
9680.000000;0.915485
9679.000000;0.915064
9678.000000;0.914661
9677.000000;0.914350
9676.000000;0.914086
9675.000000;0.913882
9674.000000;0.913744
9673.000000;0.913509
9672.000000;0.913000
9671.000000;0.912277
9670.000000;0.911493
9669.000000;0.910614
9668.000000;0.909581
9667.000000;0.908630
9666.000000;0.908113
9665.000000;0.907976
9664.000000;0.907758
9663.000000;0.907153
9662.000000;0.906322
9661.000000;0.905604
9660.000000;0.905133
9659.000000;0.904810
9658.000000;0.904454
9657.000000;0.903923
9656.000000;0.903214
9655.000000;0.902480
9654.000000;0.901887
9653.000000;0.901521
9652.000000;0.901435
9651.000000;0.901612
9650.000000;0.901782
9649.000000;0.901546
9648.000000;0.900851
9647.000000;0.900125
9646.000000;0.899694
9645.000000;0.899334
9644.000000;0.898644
9643.000000;0.897624
9642.000000;0.896601
9641.000000;0.895796
9640.000000;0.895279
9639.000000;0.895120
9638.000000;0.895191
9637.000000;0.895067
9636.000000;0.894533
9635.000000;0.894013
9634.000000;0.894060
9633.000000;0.894544
9632.000000;0.894812
9631.000000;0.894539
9630.000000;0.893933
9629.000000;0.893185
9628.000000;0.892259
9627.000000;0.891252
9626.000000;0.890472
9625.000000;0.890005
9624.000000;0.889606
9623.000000;0.889096
9622.000000;0.888575
9621.000000;0.888134
9620.000000;0.887702
9619.000000;0.887253
9618.000000;0.886883
9617.000000;0.886615
9616.000000;0.886347
9615.000000;0.886042
9614.000000;0.885737
9613.000000;0.885352
9612.000000;0.884754
9611.000000;0.883994
9610.000000;0.883279
9609.000000;0.882720
9608.000000;0.882342
9607.000000;0.882274
9606.000000;0.882562
9605.000000;0.882818
9604.000000;0.882434
9603.000000;0.881234
9602.000000;0.879689
9601.000000;0.878412
9600.000000;0.877662
9599.000000;0.877355
9598.000000;0.877286
9597.000000;0.877237
9596.000000;0.877045
9595.000000;0.876653
9594.000000;0.876044
9593.000000;0.875227
9592.000000;0.874384
9591.000000;0.873869
9590.000000;0.873819
9589.000000;0.873916
9588.000000;0.873755
9587.000000;0.873326
9586.000000;0.872893
9585.000000;0.872567
9584.000000;0.872305
9583.000000;0.872145
9582.000000;0.872054
9581.000000;0.871695
9580.000000;0.870774
9579.000000;0.869596
9578.000000;0.868811
9577.000000;0.868599
9576.000000;0.868500
9575.000000;0.868115
9574.000000;0.867579
9573.000000;0.867234
9572.000000;0.867171
9571.000000;0.867267
9570.000000;0.867368
9569.000000;0.867291
9568.000000;0.866852
9567.000000;0.866079
9566.000000;0.865239
9565.000000;0.864570
9564.000000;0.864113
9563.000000;0.863815
9562.000000;0.863608
9561.000000;0.863331
9560.000000;0.862776
9559.000000;0.861893
9558.000000;0.860844
9557.000000;0.859839
9556.000000;0.859025
9555.000000;0.858508
9554.000000;0.858333
9553.000000;0.858407
9552.000000;0.858565
9551.000000;0.858655
9550.000000;0.858515
9549.000000;0.857974
9548.000000;0.857063
9547.000000;0.856106
9546.000000;0.855407
9545.000000;0.854936
9544.000000;0.854525
9543.000000;0.854214
9542.000000;0.854139
9541.000000;0.854166
9540.000000;0.853954
9539.000000;0.853372
9538.000000;0.852593
9537.000000;0.851803
9536.000000;0.851062
9535.000000;0.850449
9534.000000;0.850055
9533.000000;0.849791
9532.000000;0.849400
9531.000000;0.848742
9530.000000;0.847924
9529.000000;0.847179
9528.000000;0.846733
9527.000000;0.846739
9526.000000;0.847116
9525.000000;0.847488
9524.000000;0.847472
9523.000000;0.847021
9522.000000;0.846355
9521.000000;0.845649
9520.000000;0.845001
9519.000000;0.844589
9518.000000;0.844551
9517.000000;0.844675
9516.000000;0.844483
9515.000000;0.843732
9514.000000;0.842682
9513.000000;0.841836
9512.000000;0.841530
9511.000000;0.841772
9510.000000;0.842279
9509.000000;0.842633
9508.000000;0.842516
9507.000000;0.841879
9506.000000;0.840917
9505.000000;0.839925
9504.000000;0.839184
9503.000000;0.838798
9502.000000;0.838532
9501.000000;0.837964
9500.000000;0.836949
9499.000000;0.835827
9498.000000;0.835027
9497.000000;0.834626
9496.000000;0.834413
9495.000000;0.834221
9494.000000;0.834019
9493.000000;0.833794
9492.000000;0.833579
9491.000000;0.833476
9490.000000;0.833468
9489.000000;0.833299
9488.000000;0.832725
9487.000000;0.831830
9486.000000;0.830949
9485.000000;0.830366
9484.000000;0.830202
9483.000000;0.830420
9482.000000;0.830758
9481.000000;0.830820
9480.000000;0.830433
9479.000000;0.829811
9478.000000;0.829227
9477.000000;0.828697
9476.000000;0.828156
9475.000000;0.827705
9474.000000;0.827424
9473.000000;0.827130
9472.000000;0.826630
9471.000000;0.826072
9470.000000;0.825741
9469.000000;0.825617
9468.000000;0.825418
9467.000000;0.825014
9466.000000;0.824526
9465.000000;0.824067
9464.000000;0.823637
9463.000000;0.823259
9462.000000;0.822971
9461.000000;0.822709
9460.000000;0.822372
9459.000000;0.821972
9458.000000;0.821565
9457.000000;0.821126
9456.000000;0.820645
9455.000000;0.820233
9454.000000;0.819935
9453.000000;0.819573
9452.000000;0.819008
9451.000000;0.818436
9450.000000;0.818172
9449.000000;0.818203
9448.000000;0.818176
9447.000000;0.817781
9446.000000;0.816974
9445.000000;0.815930
9444.000000;0.814965
9443.000000;0.814423
9442.000000;0.814398
9441.000000;0.814596
9440.000000;0.814625
9439.000000;0.814355
9438.000000;0.813865
9437.000000;0.813205
9436.000000;0.812403
9435.000000;0.811605
9434.000000;0.810977
9433.000000;0.810527
9432.000000;0.810196
9431.000000;0.809997
9430.000000;0.809899
9429.000000;0.809726
9428.000000;0.809369
9427.000000;0.808995
9426.000000;0.808812
9425.000000;0.808767
9424.000000;0.808659
9423.000000;0.808410
9422.000000;0.808024
9421.000000;0.807430
9420.000000;0.806631
9419.000000;0.805887
9418.000000;0.805500
9417.000000;0.805462
9416.000000;0.805511
9415.000000;0.805446
9414.000000;0.805213
9413.000000;0.804790
9412.000000;0.804187
9411.000000;0.803473
9410.000000;0.802667
9409.000000;0.801765
9408.000000;0.800986
9407.000000;0.800721
9406.000000;0.801026
9405.000000;0.801405
9404.000000;0.801399
9403.000000;0.801168
9402.000000;0.801154
9401.000000;0.801339
9400.000000;0.801241
9399.000000;0.800561
9398.000000;0.799473
9397.000000;0.798342
9396.000000;0.797465
9395.000000;0.797055
9394.000000;0.797128
9393.000000;0.797356
9392.000000;0.797285
9391.000000;0.796757
9390.000000;0.795990
9389.000000;0.795281
9388.000000;0.794794
9387.000000;0.794527
9386.000000;0.794294
9385.000000;0.793848
9384.000000;0.793222
9383.000000;0.792817
9382.000000;0.792909
9381.000000;0.793195
9380.000000;0.793082
9379.000000;0.792363
9378.000000;0.791376
9377.000000;0.790580
9376.000000;0.790200
9375.000000;0.790192
9374.000000;0.790306
9373.000000;0.790230
9372.000000;0.789867
9371.000000;0.789428
9370.000000;0.789097
9369.000000;0.788781
9368.000000;0.788351
9367.000000;0.787961
9366.000000;0.787843
9365.000000;0.787898
9364.000000;0.787772
9363.000000;0.787289
9362.000000;0.786576
9361.000000;0.785818
9360.000000;0.785113
9359.000000;0.784507
9358.000000;0.783978
9357.000000;0.783453
9356.000000;0.782982
9355.000000;0.782752
9354.000000;0.782761
9353.000000;0.782669
9352.000000;0.782230
9351.000000;0.781681
9350.000000;0.781427
9349.000000;0.781465
9348.000000;0.781422
9347.000000;0.781110
9346.000000;0.780721
9345.000000;0.780509
9344.000000;0.780491
9343.000000;0.780467
9342.000000;0.780165
9341.000000;0.779444
9340.000000;0.778496
9339.000000;0.777750
9338.000000;0.777410
9337.000000;0.777217
9336.000000;0.776826
9335.000000;0.776273
9334.000000;0.775867
9333.000000;0.775786
9332.000000;0.775975
9331.000000;0.776273
9330.000000;0.776414
9329.000000;0.776088
9328.000000;0.775244
9327.000000;0.774212
9326.000000;0.773316
9325.000000;0.772556
9324.000000;0.771897
9323.000000;0.771592
9322.000000;0.771862
9321.000000;0.772418
9320.000000;0.772694
9319.000000;0.772450
9318.000000;0.771880
9317.000000;0.771240
9316.000000;0.770707
9315.000000;0.770451
9314.000000;0.770481
9313.000000;0.770480
9312.000000;0.770134
9311.000000;0.769583
9310.000000;0.769219
9309.000000;0.769111
9308.000000;0.768946
9307.000000;0.768494
9306.000000;0.767809
9305.000000;0.767033
9304.000000;0.766315
9303.000000;0.765897
9302.000000;0.765939
9301.000000;0.766236
9300.000000;0.766394
9299.000000;0.766281
9298.000000;0.766055
9297.000000;0.765770
9296.000000;0.765303
9295.000000;0.764684
9294.000000;0.764159
9293.000000;0.763813
9292.000000;0.763426
9291.000000;0.762833
9290.000000;0.762225
9289.000000;0.761915
9288.000000;0.761929
9287.000000;0.761950
9286.000000;0.761646
9285.000000;0.760999
9284.000000;0.760309
9283.000000;0.759881
9282.000000;0.759707
9281.000000;0.759529
9280.000000;0.759153
9279.000000;0.758589
9278.000000;0.757903
9277.000000;0.757185
9276.000000;0.756687
9275.000000;0.756697
9274.000000;0.757107
9273.000000;0.757368
9272.000000;0.757072
9271.000000;0.756383
9270.000000;0.755712
9269.000000;0.755229
9268.000000;0.754916
9267.000000;0.754834
9266.000000;0.755011
9265.000000;0.755222
9264.000000;0.755176
9263.000000;0.754845
9262.000000;0.754379
9261.000000;0.753862
9260.000000;0.753334
9259.000000;0.752915
9258.000000;0.752652
9257.000000;0.752420
9256.000000;0.752148
9255.000000;0.751985
9254.000000;0.751990
9253.000000;0.751925
9252.000000;0.751581
9251.000000;0.751123
9250.000000;0.750794
9249.000000;0.750490
9248.000000;0.749974
9247.000000;0.749321
9246.000000;0.748825
9245.000000;0.748590
9244.000000;0.748521
9243.000000;0.748576
9242.000000;0.748692
9241.000000;0.748608
9240.000000;0.748104
9239.000000;0.747359
9238.000000;0.746768
9237.000000;0.746484
9236.000000;0.746361
9235.000000;0.746223
9234.000000;0.745926
9233.000000;0.745333
9232.000000;0.744535
9231.000000;0.743939
9230.000000;0.743832
9229.000000;0.744002
9228.000000;0.744088
9227.000000;0.744093
9226.000000;0.744185
9225.000000;0.744186
9224.000000;0.743713
9223.000000;0.742775
9222.000000;0.741835
9221.000000;0.741265
9220.000000;0.741064
9219.000000;0.741063
9218.000000;0.741067
9217.000000;0.740858
9216.000000;0.740390
9215.000000;0.739936
9214.000000;0.739775
9213.000000;0.739785
9212.000000;0.739640
9211.000000;0.739287
9210.000000;0.738918
9209.000000;0.738569
9208.000000;0.738153
9207.000000;0.737792
9206.000000;0.737714
9205.000000;0.737791
9204.000000;0.737575
9203.000000;0.736866
9202.000000;0.735949
9201.000000;0.735228
9200.000000;0.734879
9199.000000;0.734863
9198.000000;0.734998
9197.000000;0.735025
9196.000000;0.734834
9195.000000;0.734632
9194.000000;0.734669
9193.000000;0.734862
9192.000000;0.734909
9191.000000;0.734688
9190.000000;0.734293
9189.000000;0.733779
9188.000000;0.733167
9187.000000;0.732613
9186.000000;0.732258
9185.000000;0.731991
9184.000000;0.731663
9183.000000;0.731426
9182.000000;0.731527
9181.000000;0.731847
9180.000000;0.732013
9179.000000;0.731916
9178.000000;0.731757
9177.000000;0.731603
9176.000000;0.731268
9175.000000;0.730668
9174.000000;0.729933
9173.000000;0.729186
9172.000000;0.728506
9171.000000;0.728103
9170.000000;0.728147
9169.000000;0.728394
9168.000000;0.728356
9167.000000;0.727929
9166.000000;0.727548
9165.000000;0.727620
9164.000000;0.728072
9163.000000;0.728536
9162.000000;0.728690
9161.000000;0.728350
9160.000000;0.727505
9159.000000;0.726398
9158.000000;0.725418
9157.000000;0.724797
9156.000000;0.724507
9155.000000;0.724415
9154.000000;0.724362
9153.000000;0.724171
9152.000000;0.723790
9151.000000;0.723393
9150.000000;0.723140
9149.000000;0.722913
9148.000000;0.722527
9147.000000;0.722094
9146.000000;0.721882
9145.000000;0.721867
9144.000000;0.721756
9143.000000;0.721441
9142.000000;0.721122
9141.000000;0.720939
9140.000000;0.720815
9139.000000;0.720675
9138.000000;0.720562
9137.000000;0.720450
9136.000000;0.720222
9135.000000;0.719887
9134.000000;0.719590
9133.000000;0.719362
9132.000000;0.719089
9131.000000;0.718745
9130.000000;0.718450
9129.000000;0.718274
9128.000000;0.718184
9127.000000;0.718164
9126.000000;0.718168
9125.000000;0.717986
9124.000000;0.717437
9123.000000;0.716718
9122.000000;0.716279
9121.000000;0.716301
9120.000000;0.716517
9119.000000;0.716578
9118.000000;0.716375
9117.000000;0.715976
9116.000000;0.715479
9115.000000;0.715003
9114.000000;0.714626
9113.000000;0.714286
9112.000000;0.713885
9111.000000;0.713500
9110.000000;0.713292
9109.000000;0.713251
9108.000000;0.713243
9107.000000;0.713271
9106.000000;0.713432
9105.000000;0.713620
9104.000000;0.713539
9103.000000;0.713047
9102.000000;0.712284
9101.000000;0.711464
9100.000000;0.710741
9099.000000;0.710283
9098.000000;0.710168
9097.000000;0.710193
9096.000000;0.710026
9095.000000;0.709632
9094.000000;0.709309
9093.000000;0.709255
9092.000000;0.709303
9091.000000;0.709187
9090.000000;0.708870
9089.000000;0.708519
9088.000000;0.708307
9087.000000;0.708309
9086.000000;0.708454
9085.000000;0.708514
9084.000000;0.708259
9083.000000;0.707684
9082.000000;0.706998
9081.000000;0.706417
9080.000000;0.706073
9079.000000;0.706026
9078.000000;0.706158
9077.000000;0.706152
9076.000000;0.705790
9075.000000;0.705270
9074.000000;0.704994
9073.000000;0.705056
9072.000000;0.705160
9071.000000;0.705039
9070.000000;0.704717
9069.000000;0.704324
9068.000000;0.703913
9067.000000;0.703533
9066.000000;0.703296
9065.000000;0.703265
9064.000000;0.703384
9063.000000;0.703556
9062.000000;0.703660
9061.000000;0.703499
9060.000000;0.702923
9059.000000;0.702064
9058.000000;0.701298
9057.000000;0.700901
9056.000000;0.700832
9055.000000;0.700852
9054.000000;0.700768
9053.000000;0.700543
