Criado como novo conjunto de dados;"e2410_daniel_v2.spp","3241.9 Secs"
cm-1;Abs
10000.000000;0.358469
9999.000000;0.283378
9998.000000;0.223168
9997.000000;0.203947
9996.000000;0.226564
9995.000000;0.256838
9994.000000;0.251890
9993.000000;0.213070
9992.000000;0.181071
9991.000000;0.178288
9990.000000;0.201099
9989.000000;0.231061
9988.000000;0.240023
9987.000000;0.207151
9986.000000;0.155837
9985.000000;0.120776
9984.000000;0.109473
9983.000000;0.111035
9982.000000;0.110211
9981.000000;0.102731
9980.000000;0.101723
9979.000000;0.106823
9978.000000;0.100896
9977.000000;0.100070
9976.000000;0.126647
9975.000000;0.159433
9974.000000;0.170776
9973.000000;0.177752
9972.000000;0.208022
9971.000000;0.244270
9970.000000;0.234832
9969.000000;0.180286
9968.000000;0.134277
9967.000000;0.118338
9966.000000;0.110963
9965.000000;0.090642
9964.000000;0.066868
9963.000000;0.046612
9962.000000;0.016050
9961.000000;-0.018061
9960.000000;-0.025978
9959.000000;0.004615
9958.000000;0.057271
9957.000000;0.106323
9956.000000;0.139636
9955.000000;0.159263
9954.000000;0.172141
9953.000000;0.187755
9952.000000;0.213078
9951.000000;0.227919
9950.000000;0.190674
9949.000000;0.114061
9948.000000;0.051768
9947.000000;0.027555
9946.000000;0.038090
9945.000000;0.073558
9944.000000;0.122248
9943.000000;0.158607
9942.000000;0.153461
9941.000000;0.120578
9940.000000;0.092950
9939.000000;0.077378
9938.000000;0.056400
9937.000000;0.023356
9936.000000;0.006900
9935.000000;0.033133
9934.000000;0.087293
9933.000000;0.123868
9932.000000;0.122888
9931.000000;0.109980
9930.000000;0.107153
9929.000000;0.108113
9928.000000;0.105567
9927.000000;0.111020
9926.000000;0.131742
9925.000000;0.158108
9924.000000;0.181387
9923.000000;0.212064
9922.000000;0.269074
9921.000000;0.337468
9920.000000;0.349678
9919.000000;0.260113
9918.000000;0.121976
9917.000000;0.010420
9916.000000;-0.043007
9915.000000;-0.038428
9914.000000;0.005620
9913.000000;0.060581
9912.000000;0.108956
9911.000000;0.149708
9910.000000;0.181979
9909.000000;0.200929
9908.000000;0.206140
9907.000000;0.210476
9906.000000;0.213655
9905.000000;0.194752
9904.000000;0.160818
9903.000000;0.146679
9902.000000;0.168282
9901.000000;0.211935
9900.000000;0.244847
9899.000000;0.243356
9898.000000;0.196382
9897.000000;0.107376
9896.000000;0.027923
9895.000000;-0.005359
9894.000000;0.001599
9893.000000;0.025244
9892.000000;0.053358
9891.000000;0.101277
9890.000000;0.180233
9889.000000;0.250708
9888.000000;0.232518
9887.000000;0.145294
9886.000000;0.081177
9885.000000;0.063448
9884.000000;0.063107
9883.000000;0.057174
9882.000000;0.055758
9881.000000;0.078339
9880.000000;0.123805
9879.000000;0.164550
9878.000000;0.186472
9877.000000;0.206917
9876.000000;0.222105
9875.000000;0.205017
9874.000000;0.135375
9873.000000;0.047049
9872.000000;0.000888
9871.000000;0.017218
9870.000000;0.070474
9869.000000;0.105306
9868.000000;0.095473
9867.000000;0.069266
9866.000000;0.048107
9865.000000;0.033536
9864.000000;0.030286
9863.000000;0.047360
9862.000000;0.086128
9861.000000;0.133704
9860.000000;0.177140
9859.000000;0.215865
9858.000000;0.247551
9857.000000;0.268826
9856.000000;0.271003
9855.000000;0.247905
9854.000000;0.220296
9853.000000;0.184491
9852.000000;0.124372
9851.000000;0.080264
9850.000000;0.073486
9849.000000;0.073714
9848.000000;0.067428
9847.000000;0.077448
9846.000000;0.119463
9845.000000;0.173278
9844.000000;0.186669
9843.000000;0.148405
9842.000000;0.112753
9841.000000;0.120549
9840.000000;0.158883
9839.000000;0.173733
9838.000000;0.144375
9837.000000;0.103744
9836.000000;0.070782
9835.000000;0.046013
9834.000000;0.042964
9833.000000;0.086282
9832.000000;0.183333
9831.000000;0.298935
9830.000000;0.344390
9829.000000;0.283587
9828.000000;0.207405
9827.000000;0.181524
9826.000000;0.169278
9825.000000;0.118331
9824.000000;0.062080
9823.000000;0.032209
9822.000000;0.029569
9821.000000;0.043373
9820.000000;0.052730
9819.000000;0.048463
9818.000000;0.041076
9817.000000;0.043652
9816.000000;0.053899
9815.000000;0.056270
9814.000000;0.049403
9813.000000;0.050591
9812.000000;0.075408
9811.000000;0.123546
9810.000000;0.180189
9809.000000;0.235969
9808.000000;0.273824
9807.000000;0.252114
9806.000000;0.168645
9805.000000;0.060510
9804.000000;-0.026172
9803.000000;-0.061738
9802.000000;-0.048766
9801.000000;-0.009582
9800.000000;0.021947
9799.000000;0.025664
9798.000000;0.018631
9797.000000;0.026626
9796.000000;0.049310
9795.000000;0.060213
9794.000000;0.042359
9793.000000;0.007010
9792.000000;-0.029325
9791.000000;-0.053103
9790.000000;-0.051162
9789.000000;-0.016584
9788.000000;0.041116
9787.000000;0.090677
9786.000000;0.096982
9785.000000;0.053423
9784.000000;-0.012686
9783.000000;-0.062518
9782.000000;-0.073108
9781.000000;-0.052051
9780.000000;-0.026919
9779.000000;-0.015837
9778.000000;-0.010669
9777.000000;0.003395
9776.000000;0.015818
9775.000000;0.000202
9774.000000;-0.043052
9773.000000;-0.087826
9772.000000;-0.116723
9771.000000;-0.131015
9770.000000;-0.133591
9769.000000;-0.118703
9768.000000;-0.084200
9767.000000;-0.033783
9766.000000;0.028824
9765.000000;0.093445
9764.000000;0.135022
9763.000000;0.127398
9762.000000;0.079405
9761.000000;0.022241
9760.000000;-0.025255
9759.000000;-0.048823
9758.000000;-0.036328
9757.000000;0.005695
9756.000000;0.042152
9755.000000;0.033184
9754.000000;-0.009231
9753.000000;-0.042474
9752.000000;-0.051184
9751.000000;-0.045699
9750.000000;-0.034997
9749.000000;-0.016407
9748.000000;0.008511
9747.000000;0.030701
9746.000000;0.055484
9745.000000;0.101505
9744.000000;0.158436
9743.000000;0.183395
9742.000000;0.167526
9741.000000;0.132804
9740.000000;0.099652
9739.000000;0.073793
9738.000000;0.058256
9737.000000;0.067844
9736.000000;0.114704
9735.000000;0.186986
9734.000000;0.243130
9733.000000;0.257406
9732.000000;0.252344
9731.000000;0.237300
9730.000000;0.195452
9729.000000;0.137915
9728.000000;0.100896
9727.000000;0.100025
9726.000000;0.116255
9725.000000;0.113578
9724.000000;0.075810
9723.000000;0.033190
9722.000000;0.028032
9721.000000;0.076071
9720.000000;0.165208
9719.000000;0.256937
9718.000000;0.298829
9717.000000;0.286072
9716.000000;0.269334
9715.000000;0.274273
9714.000000;0.280595
9713.000000;0.267169
9712.000000;0.241564
9711.000000;0.207890
9710.000000;0.155147
9709.000000;0.098272
9708.000000;0.069271
9707.000000;0.070794
9706.000000;0.080963
9705.000000;0.084269
9704.000000;0.079273
9703.000000;0.064650
9702.000000;0.043896
9701.000000;0.035378
9700.000000;0.051992
9699.000000;0.079057
9698.000000;0.103958
9697.000000;0.128268
9696.000000;0.150496
9695.000000;0.171171
9694.000000;0.154413
9693.000000;0.081352
9692.000000;0.013912
9691.000000;-0.003496
9690.000000;0.016528
9689.000000;0.031683
9688.000000;0.023120
9687.000000;0.017367
9686.000000;0.030957
9685.000000;0.043168
9684.000000;0.035357
9683.000000;0.023064
9682.000000;0.018499
9681.000000;-0.000106
9680.000000;-0.052548
9679.000000;-0.113499
9678.000000;-0.146001
9677.000000;-0.135673
9676.000000;-0.088984
9675.000000;-0.031370
9674.000000;-0.002033
9673.000000;-0.018414
9672.000000;-0.051698
9671.000000;-0.066692
9670.000000;-0.056909
9669.000000;-0.039472
9668.000000;-0.025742
9667.000000;-0.008574
9666.000000;0.008354
9665.000000;0.009116
9664.000000;-0.004477
9663.000000;-0.018911
9662.000000;-0.031454
9661.000000;-0.056619
9660.000000;-0.102839
9659.000000;-0.153344
9658.000000;-0.186031
9657.000000;-0.191686
9656.000000;-0.168759
9655.000000;-0.123140
9654.000000;-0.070353
9653.000000;-0.022531
9652.000000;0.013726
9651.000000;0.037633
9650.000000;0.035760
9649.000000;-0.013191
9648.000000;-0.075651
9647.000000;-0.103265
9646.000000;-0.082119
9645.000000;-0.033972
9644.000000;0.001603
9643.000000;0.010031
9642.000000;0.010797
9641.000000;0.012306
9640.000000;0.000260
9639.000000;-0.023153
9638.000000;-0.037375
9637.000000;-0.036364
9636.000000;-0.036274
9635.000000;-0.050583
9634.000000;-0.061241
9633.000000;-0.042875
9632.000000;0.003559
9631.000000;0.046887
9630.000000;0.053961
9629.000000;0.019050
9628.000000;-0.037655
9627.000000;-0.076551
9626.000000;-0.073195
9625.000000;-0.035311
9624.000000;0.011906
9623.000000;0.061483
9622.000000;0.132685
9621.000000;0.217519
9620.000000;0.256878
9619.000000;0.219496
9618.000000;0.162387
9617.000000;0.128985
9616.000000;0.094239
9615.000000;0.036619
9614.000000;-0.016824
9613.000000;-0.035888
9612.000000;-0.022459
9611.000000;-0.007912
9610.000000;-0.014539
9609.000000;-0.012299
9608.000000;0.019641
9607.000000;0.053025
9606.000000;0.061381
9605.000000;0.045311
9604.000000;0.024455
9603.000000;0.027001
9602.000000;0.067072
9601.000000;0.130009
9600.000000;0.171298
9599.000000;0.162526
9598.000000;0.117868
9597.000000;0.064292
9596.000000;0.021799
9595.000000;-0.003749
9594.000000;-0.015442
9593.000000;-0.020270
9592.000000;-0.023045
9591.000000;-0.027097
9590.000000;-0.033271
9589.000000;-0.030494
9588.000000;-0.008870
9587.000000;0.021441
9586.000000;0.036232
9585.000000;0.021902
9584.000000;-0.019553
9583.000000;-0.063413
9582.000000;-0.078838
9581.000000;-0.064631
9580.000000;-0.048028
9579.000000;-0.048471
9578.000000;-0.050260
9577.000000;-0.032389
9576.000000;-0.005350
9575.000000;0.004015
9574.000000;-0.001724
9573.000000;0.002169
9572.000000;0.021974
9571.000000;0.034749
9570.000000;0.022011
9569.000000;-0.006395
9568.000000;-0.033011
9567.000000;-0.062373
9566.000000;-0.103187
9565.000000;-0.134444
9564.000000;-0.131810
9563.000000;-0.103222
9562.000000;-0.079456
9561.000000;-0.080233
9560.000000;-0.095409
9559.000000;-0.098903
9558.000000;-0.079077
9557.000000;-0.046303
9556.000000;-0.014568
9555.000000;0.010162
9554.000000;0.022788
9553.000000;0.021887
9552.000000;0.018433
9551.000000;0.027826
9550.000000;0.051065
9549.000000;0.060987
9548.000000;0.028987
9547.000000;-0.032401
9546.000000;-0.086322
9545.000000;-0.109961
9544.000000;-0.102177
9543.000000;-0.071003
9542.000000;-0.024943
9541.000000;0.024650
9540.000000;0.057712
9539.000000;0.056039
9538.000000;0.027718
9537.000000;-0.012279
9536.000000;-0.059423
9535.000000;-0.098442
9534.000000;-0.114833
9533.000000;-0.102434
9532.000000;-0.059678
9531.000000;-0.000665
9530.000000;0.045008
9529.000000;0.064351
9528.000000;0.076151
9527.000000;0.096887
9526.000000;0.110949
9525.000000;0.095366
9524.000000;0.056290
9523.000000;0.013860
9522.000000;-0.015478
9521.000000;-0.021099
9520.000000;0.001089
9519.000000;0.039377
9518.000000;0.057976
9517.000000;0.024478
9516.000000;-0.045335
9515.000000;-0.109535
9514.000000;-0.142845
9513.000000;-0.140913
9512.000000;-0.109166
9511.000000;-0.057233
9510.000000;-0.000779
9509.000000;0.041621
9508.000000;0.065525
9507.000000;0.082549
9506.000000;0.094108
9505.000000;0.080114
9504.000000;0.034110
9503.000000;-0.023655
9502.000000;-0.076901
9501.000000;-0.105290
9500.000000;-0.101901
9499.000000;-0.085074
9498.000000;-0.069544
9497.000000;-0.054883
9496.000000;-0.042773
9495.000000;-0.048270
9494.000000;-0.080557
9493.000000;-0.120023
9492.000000;-0.143584
9491.000000;-0.148767
9490.000000;-0.140845
9489.000000;-0.122593
9488.000000;-0.097541
9487.000000;-0.075355
9486.000000;-0.071151
9485.000000;-0.090909
9484.000000;-0.121695
9483.000000;-0.143151
9482.000000;-0.146751
9481.000000;-0.139845
9480.000000;-0.132762
9479.000000;-0.133056
9478.000000;-0.138884
9477.000000;-0.130873
9476.000000;-0.095901
9475.000000;-0.054048
9474.000000;-0.048566
9473.000000;-0.089586
9472.000000;-0.146340
9471.000000;-0.194375
9470.000000;-0.226491
9469.000000;-0.239527
9468.000000;-0.228984
9467.000000;-0.198548
9466.000000;-0.167769
9465.000000;-0.156037
9464.000000;-0.157130
9463.000000;-0.149599
9462.000000;-0.125587
9461.000000;-0.094364
9460.000000;-0.071416
9459.000000;-0.066570
9458.000000;-0.075096
9457.000000;-0.081578
9456.000000;-0.073140
9455.000000;-0.068494
9454.000000;-0.086909
9453.000000;-0.108875
9452.000000;-0.119033
9451.000000;-0.120909
9450.000000;-0.128241
9449.000000;-0.147663
9448.000000;-0.161986
9447.000000;-0.152025
9446.000000;-0.120589
9445.000000;-0.084634
9444.000000;-0.054688
9443.000000;-0.033581
9442.000000;-0.025786
9441.000000;-0.032869
9440.000000;-0.044625
9439.000000;-0.045050
9438.000000;-0.023600
9437.000000;0.016460
9436.000000;0.053046
9435.000000;0.050696
9434.000000;0.004400
9433.000000;-0.036361
9432.000000;-0.025734
9431.000000;0.041273
9430.000000;0.119242
9429.000000;0.144397
9428.000000;0.121419
9427.000000;0.103272
9426.000000;0.102774
9425.000000;0.075884
9424.000000;0.014772
9423.000000;-0.029652
9422.000000;-0.044039
9421.000000;-0.054490
9420.000000;-0.071450
9419.000000;-0.069471
9418.000000;-0.023969
9417.000000;0.051115
9416.000000;0.106571
9415.000000;0.122179
9414.000000;0.132802
9413.000000;0.150343
9412.000000;0.144409
9411.000000;0.097907
9410.000000;0.041510
9409.000000;0.021299
9408.000000;0.050332
9407.000000;0.105120
9406.000000;0.143318
9405.000000;0.124268
9404.000000;0.048897
9403.000000;-0.034488
9402.000000;-0.088487
9401.000000;-0.108421
9400.000000;-0.104952
9399.000000;-0.087210
9398.000000;-0.060966
9397.000000;-0.034931
9396.000000;-0.019511
9395.000000;-0.013112
9394.000000;-0.004443
9393.000000;0.003151
9392.000000;-0.011786
9391.000000;-0.058003
9390.000000;-0.115739
9389.000000;-0.159187
9388.000000;-0.170111
9387.000000;-0.140061
9386.000000;-0.081645
9385.000000;-0.032431
9384.000000;-0.024628
9383.000000;-0.047665
9382.000000;-0.070885
9381.000000;-0.095366
9380.000000;-0.136520
9379.000000;-0.178183
9378.000000;-0.194398
9377.000000;-0.187711
9376.000000;-0.182759
9375.000000;-0.189604
9374.000000;-0.192545
9373.000000;-0.185611
9372.000000;-0.187525
9371.000000;-0.207247
9370.000000;-0.225911
9369.000000;-0.226374
9368.000000;-0.214064
9367.000000;-0.204214
9366.000000;-0.196836
9365.000000;-0.177296
9364.000000;-0.138727
9363.000000;-0.092909
9362.000000;-0.063299
9361.000000;-0.070893
9360.000000;-0.119840
9359.000000;-0.188829
9358.000000;-0.245307
9357.000000;-0.269972
9356.000000;-0.264770
9355.000000;-0.245623
9354.000000;-0.227130
9353.000000;-0.213750
9352.000000;-0.205626
9351.000000;-0.201707
9350.000000;-0.195067
9349.000000;-0.178687
9348.000000;-0.159986
9347.000000;-0.156061
9346.000000;-0.168320
9345.000000;-0.178393
9344.000000;-0.172287
9343.000000;-0.152456
9342.000000;-0.131502
9341.000000;-0.115326
9340.000000;-0.102571
9339.000000;-0.106232
9338.000000;-0.128944
9337.000000;-0.147269
9336.000000;-0.150532
9335.000000;-0.145243
9334.000000;-0.133372
9333.000000;-0.109190
9332.000000;-0.075538
9331.000000;-0.052665
9330.000000;-0.058188
9329.000000;-0.084942
9328.000000;-0.113445
9327.000000;-0.131457
9326.000000;-0.136369
9325.000000;-0.127315
9324.000000;-0.107102
9323.000000;-0.090422
9322.000000;-0.088557
9321.000000;-0.088166
9320.000000;-0.067305
9319.000000;-0.019708
9318.000000;0.044545
9317.000000;0.101586
9316.000000;0.118294
9315.000000;0.086492
9314.000000;0.035610
9313.000000;0.002637
9312.000000;0.002636
9311.000000;0.012343
9310.000000;-0.007957
9309.000000;-0.053224
9308.000000;-0.092209
9307.000000;-0.113916
9306.000000;-0.115926
9305.000000;-0.095415
9304.000000;-0.057622
9303.000000;-0.022826
9302.000000;-0.011054
9301.000000;-0.016404
9300.000000;-0.019894
9299.000000;-0.021085
9298.000000;-0.035522
9297.000000;-0.054729
9296.000000;-0.046787
9295.000000;-0.008628
9294.000000;0.014486
9293.000000;-0.002842
9292.000000;-0.028653
9291.000000;-0.043732
9290.000000;-0.061193
9289.000000;-0.089670
9288.000000;-0.110189
9287.000000;-0.105588
9286.000000;-0.087154
9285.000000;-0.081320
9284.000000;-0.095824
9283.000000;-0.106643
9282.000000;-0.094636
9281.000000;-0.073391
9280.000000;-0.077233
9279.000000;-0.119789
9278.000000;-0.175671
9277.000000;-0.216675
9276.000000;-0.231101
9275.000000;-0.217366
9274.000000;-0.178019
9273.000000;-0.120649
9272.000000;-0.065235
9271.000000;-0.041080
9270.000000;-0.057044
9269.000000;-0.088277
9268.000000;-0.107344
9267.000000;-0.112104
9266.000000;-0.123083
9265.000000;-0.151454
9264.000000;-0.180446
9263.000000;-0.192666
9262.000000;-0.188486
9261.000000;-0.178294
9260.000000;-0.175034
9259.000000;-0.182988
9258.000000;-0.199127
9257.000000;-0.219379
9256.000000;-0.233235
9255.000000;-0.233274
9254.000000;-0.221938
9253.000000;-0.201995
9252.000000;-0.168384
9251.000000;-0.116446
9250.000000;-0.062292
9249.000000;-0.044071
9248.000000;-0.074605
9247.000000;-0.122388
9246.000000;-0.162550
9245.000000;-0.192709
9244.000000;-0.209566
9243.000000;-0.201709
9242.000000;-0.166530
9241.000000;-0.125542
9240.000000;-0.113046
9239.000000;-0.126454
9238.000000;-0.127519
9237.000000;-0.103081
9236.000000;-0.086340
9235.000000;-0.113732
9234.000000;-0.165642
9233.000000;-0.201293
9232.000000;-0.206430
9231.000000;-0.191684
9230.000000;-0.170166
9229.000000;-0.142113
9228.000000;-0.108584
9227.000000;-0.084286
9226.000000;-0.087339
9225.000000;-0.112043
9224.000000;-0.125890
9223.000000;-0.107924
9222.000000;-0.069241
9221.000000;-0.038260
9220.000000;-0.027626
9219.000000;-0.023142
9218.000000;-0.015138
9217.000000;-0.019346
9216.000000;-0.054952
9215.000000;-0.107494
9214.000000;-0.146485
9213.000000;-0.167368
9212.000000;-0.178672
9211.000000;-0.181482
9210.000000;-0.179989
9209.000000;-0.174731
9208.000000;-0.155483
9207.000000;-0.117993
9206.000000;-0.073320
9205.000000;-0.041027
9204.000000;-0.037292
9203.000000;-0.058659
9202.000000;-0.084879
9201.000000;-0.103814
9200.000000;-0.111508
9199.000000;-0.104757
9198.000000;-0.088766
9197.000000;-0.084244
9196.000000;-0.110121
9195.000000;-0.152938
9194.000000;-0.182018
9193.000000;-0.182163
9192.000000;-0.160902
9191.000000;-0.145179
9190.000000;-0.156956
9189.000000;-0.182799
9188.000000;-0.194166
9187.000000;-0.187364
9186.000000;-0.184012
9185.000000;-0.191879
9184.000000;-0.198088
9183.000000;-0.197419
9182.000000;-0.197059
9181.000000;-0.206010
9180.000000;-0.218197
9179.000000;-0.215888
9178.000000;-0.196766
9177.000000;-0.177783
9176.000000;-0.172004
9175.000000;-0.174133
9174.000000;-0.171864
9173.000000;-0.164519
9172.000000;-0.162231
9171.000000;-0.170123
9170.000000;-0.182178
9169.000000;-0.191143
9168.000000;-0.198701
9167.000000;-0.211385
9166.000000;-0.237776
9165.000000;-0.276002
9164.000000;-0.303373
9163.000000;-0.302031
9162.000000;-0.274782
9161.000000;-0.238088
9160.000000;-0.208519
9159.000000;-0.189879
9158.000000;-0.176265
9157.000000;-0.166830
9156.000000;-0.163504
9155.000000;-0.158205
9154.000000;-0.147219
9153.000000;-0.146001
9152.000000;-0.166474
9151.000000;-0.192887
9150.000000;-0.200990
9149.000000;-0.185004
9148.000000;-0.158949
9147.000000;-0.142438
9146.000000;-0.146780
9145.000000;-0.170466
9144.000000;-0.200828
9143.000000;-0.219140
9142.000000;-0.214345
9141.000000;-0.191090
9140.000000;-0.161302
9139.000000;-0.132192
9138.000000;-0.103503
9137.000000;-0.078268
9136.000000;-0.071855
9135.000000;-0.093897
9134.000000;-0.130227
9133.000000;-0.156767
9132.000000;-0.160230
9131.000000;-0.144743
9130.000000;-0.117814
9129.000000;-0.079102
9128.000000;-0.032620
9127.000000;0.009274
9126.000000;0.039284
9125.000000;0.057756
9124.000000;0.060402
9123.000000;0.034917
9122.000000;-0.021947
9121.000000;-0.093659
9120.000000;-0.151179
9119.000000;-0.170167
9118.000000;-0.145123
9117.000000;-0.094205
9116.000000;-0.053155
9115.000000;-0.045212
9114.000000;-0.060987
9113.000000;-0.081765
9112.000000;-0.096851
9111.000000;-0.097201
9110.000000;-0.074397
9109.000000;-0.036203
9108.000000;-0.008127
9107.000000;-0.001593
9106.000000;0.004055
9105.000000;0.022638
9104.000000;0.029409
9103.000000;-0.000075
9102.000000;-0.049515
9101.000000;-0.094440
9100.000000;-0.132768
9099.000000;-0.169592
9098.000000;-0.191807
9097.000000;-0.181293
9096.000000;-0.144501
9095.000000;-0.111696
9094.000000;-0.099975
9093.000000;-0.097418
9092.000000;-0.097257
9091.000000;-0.117404
9090.000000;-0.165103
9089.000000;-0.210845
9088.000000;-0.225410
9087.000000;-0.208513
9086.000000;-0.182949
9085.000000;-0.170817
9084.000000;-0.174084
9083.000000;-0.181615
9082.000000;-0.184611
9081.000000;-0.180737
9080.000000;-0.173332
9079.000000;-0.171228
9078.000000;-0.181678
