Criado como novo conjunto de dados;"e2410_daniel_v2.spp","35643.9 Secs"
cm-1;Abs
10000.000000;0.478358
9999.000000;0.477883
9998.000000;0.477366
9997.000000;0.476739
9996.000000;0.476007
9995.000000;0.475307
9994.000000;0.474726
9993.000000;0.474177
9992.000000;0.473548
9991.000000;0.472881
9990.000000;0.472322
9989.000000;0.471928
9988.000000;0.471617
9987.000000;0.471286
9986.000000;0.470915
9985.000000;0.470520
9984.000000;0.470089
9983.000000;0.469605
9982.000000;0.469101
9981.000000;0.468637
9980.000000;0.468207
9979.000000;0.467728
9978.000000;0.467155
9977.000000;0.466564
9976.000000;0.466083
9975.000000;0.465748
9974.000000;0.465465
9973.000000;0.465109
9972.000000;0.464615
9971.000000;0.463990
9970.000000;0.463305
9969.000000;0.462688
9968.000000;0.462255
9967.000000;0.461984
9966.000000;0.461705
9965.000000;0.461258
9964.000000;0.460648
9963.000000;0.460010
9962.000000;0.459433
9961.000000;0.458881
9960.000000;0.458263
9959.000000;0.457563
9958.000000;0.456858
9957.000000;0.456232
9956.000000;0.455675
9955.000000;0.455087
9954.000000;0.454399
9953.000000;0.453697
9952.000000;0.453166
9951.000000;0.452916
9950.000000;0.452864
9949.000000;0.452809
9948.000000;0.452592
9947.000000;0.452178
9946.000000;0.451608
9945.000000;0.450923
9944.000000;0.450150
9943.000000;0.449351
9942.000000;0.448654
9941.000000;0.448175
9940.000000;0.447873
9939.000000;0.447562
9938.000000;0.447109
9937.000000;0.446582
9936.000000;0.446127
9935.000000;0.445749
9934.000000;0.445328
9933.000000;0.444827
9932.000000;0.444344
9931.000000;0.443938
9930.000000;0.443537
9929.000000;0.443058
9928.000000;0.442511
9927.000000;0.441916
9926.000000;0.441255
9925.000000;0.440593
9924.000000;0.440121
9923.000000;0.439938
9922.000000;0.439852
9921.000000;0.439550
9920.000000;0.438951
9919.000000;0.438267
9918.000000;0.437715
9917.000000;0.437282
9916.000000;0.436796
9915.000000;0.436156
9914.000000;0.435404
9913.000000;0.434649
9912.000000;0.433965
9911.000000;0.433374
9910.000000;0.432889
9909.000000;0.432514
9908.000000;0.432198
9907.000000;0.431819
9906.000000;0.431296
9905.000000;0.430705
9904.000000;0.430207
9903.000000;0.429842
9902.000000;0.429491
9901.000000;0.429063
9900.000000;0.428625
9899.000000;0.428274
9898.000000;0.427969
9897.000000;0.427580
9896.000000;0.427039
9895.000000;0.426382
9894.000000;0.425675
9893.000000;0.425003
9892.000000;0.424464
9891.000000;0.424078
9890.000000;0.423730
9889.000000;0.423297
9888.000000;0.422791
9887.000000;0.422300
9886.000000;0.421818
9885.000000;0.421281
9884.000000;0.420734
9883.000000;0.420341
9882.000000;0.420153
9881.000000;0.419991
9880.000000;0.419623
9879.000000;0.418987
9878.000000;0.418200
9877.000000;0.417384
9876.000000;0.416590
9875.000000;0.415859
9874.000000;0.415278
9873.000000;0.414918
9872.000000;0.414711
9871.000000;0.414450
9870.000000;0.413949
9869.000000;0.413234
9868.000000;0.412531
9867.000000;0.412056
9866.000000;0.411839
9865.000000;0.411740
9864.000000;0.411581
9863.000000;0.411256
9862.000000;0.410760
9861.000000;0.410174
9860.000000;0.409592
9859.000000;0.409042
9858.000000;0.408510
9857.000000;0.408026
9856.000000;0.407663
9855.000000;0.407403
9854.000000;0.407078
9853.000000;0.406524
9852.000000;0.405744
9851.000000;0.404894
9850.000000;0.404155
9849.000000;0.403656
9848.000000;0.403424
9847.000000;0.403324
9846.000000;0.403103
9845.000000;0.402608
9844.000000;0.401930
9843.000000;0.401266
9842.000000;0.400690
9841.000000;0.400143
9840.000000;0.399581
9839.000000;0.399020
9838.000000;0.398468
9837.000000;0.397931
9836.000000;0.397465
9835.000000;0.397107
9834.000000;0.396763
9833.000000;0.396292
9832.000000;0.395710
9831.000000;0.395189
9830.000000;0.394800
9829.000000;0.394403
9828.000000;0.393840
9827.000000;0.393159
9826.000000;0.392570
9825.000000;0.392197
9824.000000;0.391954
9823.000000;0.391621
9822.000000;0.391027
9821.000000;0.390187
9820.000000;0.389321
9819.000000;0.388692
9818.000000;0.388378
9817.000000;0.388209
9816.000000;0.387945
9815.000000;0.387508
9814.000000;0.387024
9813.000000;0.386647
9812.000000;0.386373
9811.000000;0.386038
9810.000000;0.385514
9809.000000;0.384873
9808.000000;0.384336
9807.000000;0.384027
9806.000000;0.383823
9805.000000;0.383479
9804.000000;0.382887
9803.000000;0.382172
9802.000000;0.381533
9801.000000;0.381049
9800.000000;0.380638
9799.000000;0.380180
9798.000000;0.379647
9797.000000;0.379126
9796.000000;0.378723
9795.000000;0.378475
9794.000000;0.378344
9793.000000;0.378253
9792.000000;0.378080
9791.000000;0.377675
9790.000000;0.376993
9789.000000;0.376199
9788.000000;0.375531
9787.000000;0.375035
9786.000000;0.374531
9785.000000;0.373880
9784.000000;0.373176
9783.000000;0.372602
9782.000000;0.372179
9781.000000;0.371789
9780.000000;0.371371
9779.000000;0.370984
9778.000000;0.370684
9777.000000;0.370430
9776.000000;0.370109
9775.000000;0.369602
9774.000000;0.368872
9773.000000;0.368046
9772.000000;0.367390
9771.000000;0.367091
9770.000000;0.367065
9769.000000;0.367041
9768.000000;0.366811
9767.000000;0.366348
9766.000000;0.365753
9765.000000;0.365163
9764.000000;0.364684
9763.000000;0.364286
9762.000000;0.363815
9761.000000;0.363174
9760.000000;0.362477
9759.000000;0.361906
9758.000000;0.361474
9757.000000;0.361059
9756.000000;0.360617
9755.000000;0.360202
9754.000000;0.359772
9753.000000;0.359186
9752.000000;0.358462
9751.000000;0.357867
9750.000000;0.357629
9749.000000;0.357631
9748.000000;0.357517
9747.000000;0.357038
9746.000000;0.356233
9745.000000;0.355340
9744.000000;0.354610
9743.000000;0.354168
9742.000000;0.353947
9741.000000;0.353763
9740.000000;0.353488
9739.000000;0.353124
9738.000000;0.352703
9737.000000;0.352182
9736.000000;0.351530
9735.000000;0.350829
9734.000000;0.350221
9733.000000;0.349753
9732.000000;0.349370
9731.000000;0.349035
9730.000000;0.348755
9729.000000;0.348499
9728.000000;0.348167
9727.000000;0.347697
9726.000000;0.347143
9725.000000;0.346611
9724.000000;0.346147
9723.000000;0.345737
9722.000000;0.345372
9721.000000;0.345046
9720.000000;0.344717
9719.000000;0.344328
9718.000000;0.343888
9717.000000;0.343463
9716.000000;0.343066
9715.000000;0.342597
9714.000000;0.341970
9713.000000;0.341267
9712.000000;0.340678
9711.000000;0.340269
9710.000000;0.339904
9709.000000;0.339425
9708.000000;0.338853
9707.000000;0.338344
9706.000000;0.337985
9705.000000;0.337694
9704.000000;0.337339
9703.000000;0.336877
9702.000000;0.336374
9701.000000;0.335900
9700.000000;0.335455
9699.000000;0.334981
9698.000000;0.334469
9697.000000;0.334008
9696.000000;0.333687
9695.000000;0.333464
9694.000000;0.333184
9693.000000;0.332758
9692.000000;0.332260
9691.000000;0.331817
9690.000000;0.331465
9689.000000;0.331174
9688.000000;0.330913
9687.000000;0.330616
9686.000000;0.330151
9685.000000;0.329454
9684.000000;0.328693
9683.000000;0.328145
9682.000000;0.327887
9681.000000;0.327709
9680.000000;0.327375
9679.000000;0.326876
9678.000000;0.326354
9677.000000;0.325862
9676.000000;0.325310
9675.000000;0.324629
9674.000000;0.323905
9673.000000;0.323308
9672.000000;0.322944
9671.000000;0.322785
9670.000000;0.322712
9669.000000;0.322581
9668.000000;0.322286
9667.000000;0.321814
9666.000000;0.321235
9665.000000;0.320639
9664.000000;0.320046
9663.000000;0.319419
9662.000000;0.318760
9661.000000;0.318165
9660.000000;0.317714
9659.000000;0.317342
9658.000000;0.316899
9657.000000;0.316349
9656.000000;0.315840
9655.000000;0.315530
9654.000000;0.315398
9653.000000;0.315262
9652.000000;0.314954
9651.000000;0.314438
9650.000000;0.313803
9649.000000;0.313184
9648.000000;0.312676
9647.000000;0.312266
9646.000000;0.311878
9645.000000;0.311489
9644.000000;0.311151
9643.000000;0.310872
9642.000000;0.310541
9641.000000;0.310050
9640.000000;0.309450
9639.000000;0.308915
9638.000000;0.308534
9637.000000;0.308241
9636.000000;0.307915
9635.000000;0.307514
9634.000000;0.307082
9633.000000;0.306681
9632.000000;0.306337
9631.000000;0.306006
9630.000000;0.305599
9629.000000;0.305072
9628.000000;0.304499
9627.000000;0.304010
9626.000000;0.303667
9625.000000;0.303428
9624.000000;0.303217
9623.000000;0.302965
9622.000000;0.302608
9621.000000;0.302117
9620.000000;0.301567
9619.000000;0.301102
9618.000000;0.300795
9617.000000;0.300571
9616.000000;0.300305
9615.000000;0.299948
9614.000000;0.299537
9613.000000;0.299103
9612.000000;0.298623
9611.000000;0.298061
9610.000000;0.297429
9609.000000;0.296783
9608.000000;0.296186
9607.000000;0.295675
9606.000000;0.295259
9605.000000;0.294911
9604.000000;0.294571
9603.000000;0.294186
9602.000000;0.293775
9601.000000;0.293423
9600.000000;0.293170
9599.000000;0.292930
9598.000000;0.292564
9597.000000;0.292042
9596.000000;0.291472
9595.000000;0.290959
9594.000000;0.290504
9593.000000;0.290060
9592.000000;0.289632
9591.000000;0.289267
9590.000000;0.288990
9589.000000;0.288794
9588.000000;0.288667
9587.000000;0.288558
9586.000000;0.288354
9585.000000;0.287962
9584.000000;0.287412
9583.000000;0.286843
9582.000000;0.286366
9581.000000;0.285970
9580.000000;0.285575
9579.000000;0.285132
9578.000000;0.284678
9577.000000;0.284280
9576.000000;0.283947
9575.000000;0.283604
9574.000000;0.283174
9573.000000;0.282685
9572.000000;0.282248
9571.000000;0.281917
9570.000000;0.281619
9569.000000;0.281243
9568.000000;0.280765
9567.000000;0.280247
9566.000000;0.279739
9565.000000;0.279239
9564.000000;0.278743
9563.000000;0.278281
9562.000000;0.277908
9561.000000;0.277649
9560.000000;0.277448
9559.000000;0.277170
9558.000000;0.276710
9557.000000;0.276105
9556.000000;0.275500
9555.000000;0.275002
9554.000000;0.274607
9553.000000;0.274268
9552.000000;0.273975
9551.000000;0.273718
9550.000000;0.273443
9549.000000;0.273105
9548.000000;0.272721
9547.000000;0.272316
9546.000000;0.271867
9545.000000;0.271351
9544.000000;0.270812
9543.000000;0.270327
9542.000000;0.269930
9541.000000;0.269630
9540.000000;0.269447
9539.000000;0.269370
9538.000000;0.269282
9537.000000;0.269021
9536.000000;0.268529
9535.000000;0.267893
9534.000000;0.267242
9533.000000;0.266659
9532.000000;0.266170
9531.000000;0.265759
9530.000000;0.265390
9529.000000;0.265050
9528.000000;0.264785
9527.000000;0.264650
9526.000000;0.264594
9525.000000;0.264440
9524.000000;0.264003
9523.000000;0.263246
9522.000000;0.262335
9521.000000;0.261528
9520.000000;0.260996
9519.000000;0.260710
9518.000000;0.260513
9517.000000;0.260290
9516.000000;0.260032
9515.000000;0.259770
9514.000000;0.259500
9513.000000;0.259206
9512.000000;0.258893
9511.000000;0.258560
9510.000000;0.258206
9509.000000;0.257864
9508.000000;0.257591
9507.000000;0.257369
9506.000000;0.257081
9505.000000;0.256639
9504.000000;0.256080
9503.000000;0.255497
9502.000000;0.254934
9501.000000;0.254432
9500.000000;0.254097
9499.000000;0.253991
9498.000000;0.253976
9497.000000;0.253783
9496.000000;0.253270
9495.000000;0.252561
9494.000000;0.251910
9493.000000;0.251479
9492.000000;0.251240
9491.000000;0.251033
9490.000000;0.250719
9489.000000;0.250312
9488.000000;0.249972
9487.000000;0.249824
9486.000000;0.249787
9485.000000;0.249618
9484.000000;0.249150
9483.000000;0.248429
9482.000000;0.247647
9481.000000;0.246982
9480.000000;0.246507
9479.000000;0.246201
9478.000000;0.245987
9477.000000;0.245782
9476.000000;0.245521
9475.000000;0.245177
9474.000000;0.244776
9473.000000;0.244404
9472.000000;0.244137
9471.000000;0.243956
9470.000000;0.243739
9469.000000;0.243383
9468.000000;0.242889
9467.000000;0.242327
9466.000000;0.241740
9465.000000;0.241142
9464.000000;0.240566
9463.000000;0.240065
9462.000000;0.239667
9461.000000;0.239367
9460.000000;0.239135
9459.000000;0.238923
9458.000000;0.238704
9457.000000;0.238511
9456.000000;0.238390
9455.000000;0.238308
9454.000000;0.238142
9453.000000;0.237819
9452.000000;0.237388
9451.000000;0.236923
9450.000000;0.236435
9449.000000;0.235935
9448.000000;0.235512
9447.000000;0.235239
9446.000000;0.235042
9445.000000;0.234762
9444.000000;0.234337
9443.000000;0.233834
9442.000000;0.233343
9441.000000;0.232908
9440.000000;0.232571
9439.000000;0.232345
9438.000000;0.232157
9437.000000;0.231899
9436.000000;0.231561
9435.000000;0.231238
9434.000000;0.230984
9433.000000;0.230708
9432.000000;0.230273
9431.000000;0.229643
9430.000000;0.228928
9429.000000;0.228300
9428.000000;0.227878
9427.000000;0.227655
9426.000000;0.227523
9425.000000;0.227401
9424.000000;0.227295
9423.000000;0.227228
9422.000000;0.227136
9421.000000;0.226912
9420.000000;0.226536
9419.000000;0.226099
9418.000000;0.225671
9417.000000;0.225233
9416.000000;0.224737
9415.000000;0.224199
9414.000000;0.223676
9413.000000;0.223204
9412.000000;0.222788
9411.000000;0.222431
9410.000000;0.222141
9409.000000;0.221919
9408.000000;0.221743
9407.000000;0.221582
9406.000000;0.221402
9405.000000;0.221167
9404.000000;0.220818
9403.000000;0.220299
9402.000000;0.219652
9401.000000;0.219056
9400.000000;0.218694
9399.000000;0.218553
9398.000000;0.218445
9397.000000;0.218221
9396.000000;0.217907
9395.000000;0.217579
9394.000000;0.217227
9393.000000;0.216830
9392.000000;0.216471
9391.000000;0.216251
9390.000000;0.216133
9389.000000;0.215978
9388.000000;0.215713
9387.000000;0.215373
9386.000000;0.214994
9385.000000;0.214572
9384.000000;0.214132
9383.000000;0.213732
9382.000000;0.213398
9381.000000;0.213134
9380.000000;0.212971
9379.000000;0.212905
9378.000000;0.212796
9377.000000;0.212459
9376.000000;0.211878
9375.000000;0.211243
9374.000000;0.210731
9373.000000;0.210354
9372.000000;0.210031
9371.000000;0.209716
9370.000000;0.209385
9369.000000;0.208992
9368.000000;0.208532
9367.000000;0.208092
9366.000000;0.207778
9365.000000;0.207591
9364.000000;0.207442
9363.000000;0.207242
9362.000000;0.206956
9361.000000;0.206580
9360.000000;0.206123
9359.000000;0.205605
9358.000000;0.205067
9357.000000;0.204579
9356.000000;0.204229
9355.000000;0.204053
9354.000000;0.203963
9353.000000;0.203802
9352.000000;0.203499
9351.000000;0.203145
9350.000000;0.202872
9349.000000;0.202714
9348.000000;0.202589
9347.000000;0.202402
9346.000000;0.202114
9345.000000;0.201732
9344.000000;0.201287
9343.000000;0.200833
9342.000000;0.200450
9341.000000;0.200192
9340.000000;0.200028
9339.000000;0.199831
9338.000000;0.199487
9337.000000;0.199013
9336.000000;0.198558
9335.000000;0.198249
9334.000000;0.198068
9333.000000;0.197913
9332.000000;0.197727
9331.000000;0.197531
9330.000000;0.197334
9329.000000;0.197110
9328.000000;0.196842
9327.000000;0.196542
9326.000000;0.196210
9325.000000;0.195839
9324.000000;0.195476
9323.000000;0.195222
9322.000000;0.195116
9321.000000;0.195044
9320.000000;0.194825
9319.000000;0.194364
9318.000000;0.193738
9317.000000;0.193127
9316.000000;0.192686
9315.000000;0.192452
9314.000000;0.192352
9313.000000;0.192273
9312.000000;0.192127
9311.000000;0.191865
9310.000000;0.191475
9309.000000;0.190994
9308.000000;0.190518
9307.000000;0.190138
9306.000000;0.189857
9305.000000;0.189586
9304.000000;0.189238
9303.000000;0.188817
9302.000000;0.188417
9301.000000;0.188153
9300.000000;0.188068
9299.000000;0.188096
9298.000000;0.188096
9297.000000;0.187958
9296.000000;0.187666
9295.000000;0.187273
9294.000000;0.186837
9293.000000;0.186388
9292.000000;0.185938
9291.000000;0.185499
9290.000000;0.185101
9289.000000;0.184788
9288.000000;0.184566
9287.000000;0.184355
9286.000000;0.184052
9285.000000;0.183645
9284.000000;0.183235
9283.000000;0.182912
9282.000000;0.182673
9281.000000;0.182490
9280.000000;0.182384
9279.000000;0.182346
9278.000000;0.182254
9277.000000;0.181968
9276.000000;0.181510
9275.000000;0.181065
9274.000000;0.180780
9273.000000;0.180631
9272.000000;0.180498
9271.000000;0.180295
9270.000000;0.180015
9269.000000;0.179694
9268.000000;0.179381
9267.000000;0.179122
9266.000000;0.178944
9265.000000;0.178827
9264.000000;0.178692
9263.000000;0.178432
9262.000000;0.178005
9261.000000;0.177504
9260.000000;0.177091
9259.000000;0.176814
9258.000000;0.176569
9257.000000;0.176255
9256.000000;0.175929
9255.000000;0.175700
9254.000000;0.175550
9253.000000;0.175346
9252.000000;0.175019
9251.000000;0.174640
9250.000000;0.174299
9249.000000;0.174023
9248.000000;0.173799
9247.000000;0.173621
9246.000000;0.173458
9245.000000;0.173260
9244.000000;0.172997
9243.000000;0.172664
9242.000000;0.172245
9241.000000;0.171736
9240.000000;0.171220
9239.000000;0.170846
9238.000000;0.170672
9237.000000;0.170598
9236.000000;0.170464
9235.000000;0.170208
9234.000000;0.169889
9233.000000;0.169605
9232.000000;0.169416
9231.000000;0.169323
9230.000000;0.169268
9229.000000;0.169185
9228.000000;0.169038
9227.000000;0.168815
9226.000000;0.168491
9225.000000;0.168047
9224.000000;0.167539
9223.000000;0.167081
9222.000000;0.166763
9221.000000;0.166578
9220.000000;0.166461
9219.000000;0.166340
9218.000000;0.166167
9217.000000;0.165919
9216.000000;0.165613
9215.000000;0.165284
9214.000000;0.164948
9213.000000;0.164602
9212.000000;0.164277
9211.000000;0.164034
9210.000000;0.163899
9209.000000;0.163823
9208.000000;0.163724
9207.000000;0.163551
9206.000000;0.163296
9205.000000;0.162986
9204.000000;0.162666
9203.000000;0.162369
9202.000000;0.162100
9201.000000;0.161844
9200.000000;0.161587
9199.000000;0.161324
9198.000000;0.161033
9197.000000;0.160695
9196.000000;0.160336
9195.000000;0.160027
9194.000000;0.159820
9193.000000;0.159708
9192.000000;0.159633
9191.000000;0.159528
9190.000000;0.159357
9189.000000;0.159126
9188.000000;0.158861
9187.000000;0.158565
9186.000000;0.158225
9185.000000;0.157860
9184.000000;0.157526
9183.000000;0.157248
9182.000000;0.157001
9181.000000;0.156781
9180.000000;0.156651
9179.000000;0.156653
9178.000000;0.156707
9177.000000;0.156669
9176.000000;0.156482
9175.000000;0.156189
9174.000000;0.155841
9173.000000;0.155450
9172.000000;0.155051
9171.000000;0.154706
9170.000000;0.154430
9169.000000;0.154180
9168.000000;0.153943
9167.000000;0.153769
9166.000000;0.153682
9165.000000;0.153606
9164.000000;0.153434
9163.000000;0.153143
9162.000000;0.152812
9161.000000;0.152530
9160.000000;0.152320
9159.000000;0.152129
9158.000000;0.151897
9157.000000;0.151641
9156.000000;0.151444
9155.000000;0.151335
9154.000000;0.151201
9153.000000;0.150899
9152.000000;0.150446
9151.000000;0.150018
9150.000000;0.149739
9149.000000;0.149543
9148.000000;0.149279
9147.000000;0.148899
9146.000000;0.148484
9145.000000;0.148137
9144.000000;0.147907
9143.000000;0.147808
9142.000000;0.147826
9141.000000;0.147916
9140.000000;0.147991
9139.000000;0.147947
9138.000000;0.147719
9137.000000;0.147342
9136.000000;0.146958
9135.000000;0.146700
9134.000000;0.146554
9133.000000;0.146387
9132.000000;0.146120
9131.000000;0.145824
9130.000000;0.145592
9129.000000;0.145393
9128.000000;0.145114
9127.000000;0.144736
9126.000000;0.144362
9125.000000;0.144096
9124.000000;0.143949
9123.000000;0.143892
9122.000000;0.143912
9121.000000;0.143953
9120.000000;0.143856
9119.000000;0.143469
9118.000000;0.142842
9117.000000;0.142249
9116.000000;0.141951
9115.000000;0.141955
9114.000000;0.142039
9113.000000;0.141993
9112.000000;0.141783
9111.000000;0.141507
9110.000000;0.141243
9109.000000;0.141009
9108.000000;0.140785
9107.000000;0.140538
9106.000000;0.140250
9105.000000;0.139955
9104.000000;0.139737
9103.000000;0.139642
9102.000000;0.139616
9101.000000;0.139560
9100.000000;0.139426
9099.000000;0.139214
9098.000000;0.138926
9097.000000;0.138601
9096.000000;0.138342
9095.000000;0.138220
9094.000000;0.138166
9093.000000;0.138033
9092.000000;0.137789
9091.000000;0.137538
9090.000000;0.137339
9089.000000;0.137100
9088.000000;0.136740
9087.000000;0.136340
9086.000000;0.136060
9085.000000;0.135931
9084.000000;0.135831
9083.000000;0.135664
9082.000000;0.135452
9081.000000;0.135265
9080.000000;0.135109
9079.000000;0.134939
9078.000000;0.134725
9077.000000;0.134481
9076.000000;0.134241
9075.000000;0.134038
9074.000000;0.133900
9073.000000;0.133831
9072.000000;0.133794
9071.000000;0.133730
9070.000000;0.133604
9069.000000;0.133427
9068.000000;0.133230
9067.000000;0.133017
9066.000000;0.132770
9065.000000;0.132487
9064.000000;0.132212
9063.000000;0.132003
9062.000000;0.131872
9061.000000;0.131757
9060.000000;0.131563
9059.000000;0.131240
9058.000000;0.130841
9057.000000;0.130506
9056.000000;0.130340
9055.000000;0.130306
9054.000000;0.130247
9053.000000;0.130053
