Criado como novo conjunto de dados;"e2410_daniel_v2.spp","107287.4 Secs"
cm-1;Abs
10000.000000;0.154473
9999.000000;0.154924
9998.000000;0.155376
9997.000000;0.155829
9996.000000;0.156282
9995.000000;0.156736
9994.000000;0.157189
9993.000000;0.157646
9992.000000;0.158096
9991.000000;0.158560
9990.000000;0.158998
9989.000000;0.159551
9988.000000;0.160261
9987.000000;0.161001
9986.000000;0.161785
9985.000000;0.162628
9984.000000;0.163489
9983.000000;0.164291
9982.000000;0.165030
9981.000000;0.165735
9980.000000;0.166359
9979.000000;0.166839
9978.000000;0.167241
9977.000000;0.167754
9976.000000;0.168500
9975.000000;0.169404
9974.000000;0.170283
9973.000000;0.170991
9972.000000;0.171499
9971.000000;0.171910
9970.000000;0.172413
9969.000000;0.173153
9968.000000;0.174102
9967.000000;0.175086
9966.000000;0.175978
9965.000000;0.176796
9964.000000;0.177575
9963.000000;0.178221
9962.000000;0.178603
9961.000000;0.178778
9960.000000;0.179036
9959.000000;0.179658
9958.000000;0.180654
9957.000000;0.181776
9956.000000;0.182777
9955.000000;0.183629
9954.000000;0.184459
9953.000000;0.185324
9952.000000;0.186099
9951.000000;0.186629
9950.000000;0.186955
9949.000000;0.187309
9948.000000;0.187886
9947.000000;0.188636
9946.000000;0.189326
9945.000000;0.189803
9944.000000;0.190194
9943.000000;0.190807
9942.000000;0.191807
9941.000000;0.193004
9940.000000;0.194030
9939.000000;0.194733
9938.000000;0.195322
9937.000000;0.196076
9936.000000;0.197013
9935.000000;0.197936
9934.000000;0.198739
9933.000000;0.199501
9932.000000;0.200281
9931.000000;0.201011
9930.000000;0.201663
9929.000000;0.202366
9928.000000;0.203228
9927.000000;0.204133
9926.000000;0.204836
9925.000000;0.205265
9924.000000;0.205621
9923.000000;0.206186
9922.000000;0.207093
9921.000000;0.208213
9920.000000;0.209232
9919.000000;0.209892
9918.000000;0.210237
9917.000000;0.210592
9916.000000;0.211234
9915.000000;0.212147
9914.000000;0.213150
9913.000000;0.214149
9912.000000;0.215124
9911.000000;0.215975
9910.000000;0.216580
9909.000000;0.217014
9908.000000;0.217513
9907.000000;0.218199
9906.000000;0.218984
9905.000000;0.219789
9904.000000;0.220651
9903.000000;0.221534
9902.000000;0.222231
9901.000000;0.222605
9900.000000;0.222851
9899.000000;0.223319
9898.000000;0.224118
9897.000000;0.225039
9896.000000;0.225839
9895.000000;0.226473
9894.000000;0.227049
9893.000000;0.227687
9892.000000;0.228468
9891.000000;0.229420
9890.000000;0.230487
9889.000000;0.231554
9888.000000;0.232550
9887.000000;0.233520
9886.000000;0.234529
9885.000000;0.235520
9884.000000;0.236340
9883.000000;0.236929
9882.000000;0.237452
9881.000000;0.238151
9880.000000;0.239082
9879.000000;0.240076
9878.000000;0.240962
9877.000000;0.241745
9876.000000;0.242516
9875.000000;0.243290
9874.000000;0.244037
9873.000000;0.244776
9872.000000;0.245505
9871.000000;0.246125
9870.000000;0.246593
9869.000000;0.247103
9868.000000;0.247916
9867.000000;0.248985
9866.000000;0.249970
9865.000000;0.250685
9864.000000;0.251317
9863.000000;0.252123
9862.000000;0.253096
9861.000000;0.254088
9860.000000;0.255047
9859.000000;0.255967
9858.000000;0.256753
9857.000000;0.257367
9856.000000;0.258010
9855.000000;0.258909
9854.000000;0.259969
9853.000000;0.260892
9852.000000;0.261606
9851.000000;0.262360
9850.000000;0.263345
9849.000000;0.264474
9848.000000;0.265581
9847.000000;0.266612
9846.000000;0.267502
9845.000000;0.268099
9844.000000;0.268403
9843.000000;0.268762
9842.000000;0.269575
9841.000000;0.270829
9840.000000;0.272108
9839.000000;0.273068
9838.000000;0.273755
9837.000000;0.274418
9836.000000;0.275135
9835.000000;0.275771
9834.000000;0.276254
9833.000000;0.276787
9832.000000;0.277693
9831.000000;0.279073
9830.000000;0.280651
9829.000000;0.281956
9828.000000;0.282690
9827.000000;0.282948
9826.000000;0.283145
9825.000000;0.283714
9824.000000;0.284786
9823.000000;0.286077
9822.000000;0.287134
9821.000000;0.287745
9820.000000;0.288131
9819.000000;0.288702
9818.000000;0.289667
9817.000000;0.290915
9816.000000;0.292226
9815.000000;0.293462
9814.000000;0.294563
9813.000000;0.295459
9812.000000;0.296111
9811.000000;0.296629
9810.000000;0.297264
9809.000000;0.298214
9808.000000;0.299429
9807.000000;0.300642
9806.000000;0.301612
9805.000000;0.302326
9804.000000;0.302949
9803.000000;0.303615
9802.000000;0.304344
9801.000000;0.305135
9800.000000;0.306030
9799.000000;0.307028
9798.000000;0.308017
9797.000000;0.308895
9796.000000;0.309694
9795.000000;0.310519
9794.000000;0.311402
9793.000000;0.312277
9792.000000;0.313096
9791.000000;0.313889
9790.000000;0.314723
9789.000000;0.315684
9788.000000;0.316829
9787.000000;0.318101
9786.000000;0.319290
9785.000000;0.320191
9784.000000;0.320804
9783.000000;0.321301
9782.000000;0.321824
9781.000000;0.322389
9780.000000;0.323001
9779.000000;0.323753
9778.000000;0.324761
9777.000000;0.326024
9776.000000;0.327371
9775.000000;0.328554
9774.000000;0.329408
9773.000000;0.330006
9772.000000;0.330621
9771.000000;0.331498
9770.000000;0.332625
9769.000000;0.333785
9768.000000;0.334797
9767.000000;0.335656
9766.000000;0.336463
9765.000000;0.337285
9764.000000;0.338119
9763.000000;0.338935
9762.000000;0.339734
9761.000000;0.340551
9760.000000;0.341442
9759.000000;0.342423
9758.000000;0.343454
9757.000000;0.344458
9756.000000;0.345360
9755.000000;0.346121
9754.000000;0.346785
9753.000000;0.347513
9752.000000;0.348465
9751.000000;0.349619
9750.000000;0.350787
9749.000000;0.351849
9748.000000;0.352858
9747.000000;0.353846
9746.000000;0.354674
9745.000000;0.355238
9744.000000;0.355733
9743.000000;0.356527
9742.000000;0.357758
9741.000000;0.359217
9740.000000;0.360598
9739.000000;0.361722
9738.000000;0.362528
9737.000000;0.363071
9736.000000;0.363572
9735.000000;0.364322
9734.000000;0.365422
9733.000000;0.366701
9732.000000;0.367916
9731.000000;0.368944
9730.000000;0.369780
9729.000000;0.370501
9728.000000;0.371281
9727.000000;0.372292
9726.000000;0.373486
9725.000000;0.374609
9724.000000;0.375511
9723.000000;0.376336
9722.000000;0.377281
9721.000000;0.378297
9720.000000;0.379185
9719.000000;0.379916
9718.000000;0.380639
9717.000000;0.381412
9716.000000;0.382097
9715.000000;0.382579
9714.000000;0.382943
9713.000000;0.383385
9712.000000;0.384071
9711.000000;0.385132
9710.000000;0.386631
9709.000000;0.388394
9708.000000;0.389940
9707.000000;0.390791
9706.000000;0.390920
9705.000000;0.390826
9704.000000;0.391090
9703.000000;0.391911
9702.000000;0.393052
9701.000000;0.394188
9700.000000;0.395226
9699.000000;0.396336
9698.000000;0.397741
9697.000000;0.399458
9696.000000;0.401205
9695.000000;0.402597
9694.000000;0.403522
9693.000000;0.404269
9692.000000;0.405172
9691.000000;0.406172
9690.000000;0.406899
9689.000000;0.407205
9688.000000;0.407384
9687.000000;0.407813
9686.000000;0.408570
9685.000000;0.409563
9684.000000;0.410769
9683.000000;0.412109
9682.000000;0.413242
9681.000000;0.413866
9680.000000;0.414218
9679.000000;0.414962
9678.000000;0.416481
9677.000000;0.418488
9676.000000;0.420398
9675.000000;0.421865
9674.000000;0.422864
9673.000000;0.423458
9672.000000;0.423726
9671.000000;0.423838
9670.000000;0.424023
9669.000000;0.424460
9668.000000;0.425190
9667.000000;0.426051
9666.000000;0.426698
9665.000000;0.426888
9664.000000;0.426869
9663.000000;0.427295
9662.000000;0.428601
9661.000000;0.430557
9660.000000;0.432572
9659.000000;0.434293
9658.000000;0.435729
9657.000000;0.436919
9656.000000;0.437772
9655.000000;0.438237
9654.000000;0.438410
9653.000000;0.438450
9652.000000;0.438575
9651.000000;0.439101
9650.000000;0.440216
9649.000000;0.441641
9648.000000;0.442794
9647.000000;0.443418
9646.000000;0.443850
9645.000000;0.444528
9644.000000;0.445470
9643.000000;0.446462
9642.000000;0.447542
9641.000000;0.448929
9640.000000;0.450494
9639.000000;0.451662
9638.000000;0.452046
9637.000000;0.451940
9636.000000;0.452006
9635.000000;0.452565
9634.000000;0.453417
9633.000000;0.454266
9632.000000;0.455114
9631.000000;0.456157
9630.000000;0.457431
9629.000000;0.458718
9628.000000;0.459774
9627.000000;0.460579
9626.000000;0.461316
9625.000000;0.462126
9624.000000;0.462954
9623.000000;0.463634
9622.000000;0.464078
9621.000000;0.464330
9620.000000;0.464492
9619.000000;0.464707
9618.000000;0.465192
9617.000000;0.466117
9616.000000;0.467387
9615.000000;0.468673
9614.000000;0.469776
9613.000000;0.470840
9612.000000;0.472069
9611.000000;0.473329
9610.000000;0.474256
9609.000000;0.474757
9608.000000;0.475169
9607.000000;0.475864
9606.000000;0.476864
9605.000000;0.477910
9604.000000;0.478745
9603.000000;0.479232
9602.000000;0.479370
9601.000000;0.479366
9600.000000;0.479566
9599.000000;0.480148
9598.000000;0.480898
9597.000000;0.481448
9596.000000;0.481704
9595.000000;0.481940
9594.000000;0.482505
9593.000000;0.483548
9592.000000;0.484920
9591.000000;0.486193
9590.000000;0.486861
9589.000000;0.486796
9588.000000;0.486514
9587.000000;0.486783
9586.000000;0.487846
9585.000000;0.489171
9584.000000;0.490012
9583.000000;0.490134
9582.000000;0.489909
9581.000000;0.489878
9580.000000;0.490360
9579.000000;0.491336
9578.000000;0.492524
9577.000000;0.493562
9576.000000;0.494284
9575.000000;0.494872
9574.000000;0.495671
9573.000000;0.496828
9572.000000;0.498147
9571.000000;0.499275
9570.000000;0.499997
9569.000000;0.500409
9568.000000;0.500824
9567.000000;0.501474
9566.000000;0.502259
9565.000000;0.502847
9564.000000;0.503056
9563.000000;0.503013
9562.000000;0.502877
9561.000000;0.502533
9560.000000;0.501810
9559.000000;0.500956
9558.000000;0.500654
9557.000000;0.501436
9556.000000;0.503158
9555.000000;0.505147
9554.000000;0.506806
9553.000000;0.508003
9552.000000;0.508910
9551.000000;0.509634
9550.000000;0.510054
9549.000000;0.510000
9548.000000;0.509552
9547.000000;0.509097
9546.000000;0.509025
9545.000000;0.509372
9544.000000;0.509829
9543.000000;0.510123
9542.000000;0.510246
9541.000000;0.510288
9540.000000;0.510238
9539.000000;0.510136
9538.000000;0.510272
9537.000000;0.510963
9536.000000;0.512117
9535.000000;0.513243
9534.000000;0.513955
9533.000000;0.514291
9532.000000;0.514486
9531.000000;0.514642
9530.000000;0.514763
9529.000000;0.514935
9528.000000;0.515267
9527.000000;0.515719
9526.000000;0.516117
9525.000000;0.516304
9524.000000;0.516211
9523.000000;0.515890
9522.000000;0.515571
9521.000000;0.515572
9520.000000;0.515978
9519.000000;0.516481
9518.000000;0.516723
9517.000000;0.516714
9516.000000;0.516757
9515.000000;0.517033
9514.000000;0.517456
9513.000000;0.517873
9512.000000;0.518164
9511.000000;0.518189
9510.000000;0.517947
9509.000000;0.517801
9508.000000;0.518199
9507.000000;0.519030
9506.000000;0.519563
9505.000000;0.519286
9504.000000;0.518555
9503.000000;0.518102
9502.000000;0.518140
9501.000000;0.518321
9500.000000;0.518476
9499.000000;0.518886
9498.000000;0.519708
9497.000000;0.520522
9496.000000;0.520768
9495.000000;0.520424
9494.000000;0.519975
9493.000000;0.519793
9492.000000;0.519779
9491.000000;0.519580
9490.000000;0.518952
9489.000000;0.517922
9488.000000;0.516823
9487.000000;0.516182
9486.000000;0.516349
9485.000000;0.517105
9484.000000;0.517817
9483.000000;0.518138
9482.000000;0.518376
9481.000000;0.518957
9480.000000;0.519660
9479.000000;0.519734
9478.000000;0.518840
9477.000000;0.517563
9476.000000;0.516830
9475.000000;0.517014
9474.000000;0.517773
9473.000000;0.518549
9472.000000;0.518980
9471.000000;0.518924
9470.000000;0.518413
9469.000000;0.517658
9468.000000;0.516925
9467.000000;0.516324
9466.000000;0.515787
9465.000000;0.515274
9464.000000;0.514865
9463.000000;0.514638
9462.000000;0.514599
9461.000000;0.514762
9460.000000;0.515131
9459.000000;0.515536
9458.000000;0.515645
9457.000000;0.515289
9456.000000;0.514649
9455.000000;0.514010
9454.000000;0.513428
9453.000000;0.512811
9452.000000;0.512251
9451.000000;0.512075
9450.000000;0.512491
9449.000000;0.513290
9448.000000;0.513986
9447.000000;0.514169
9446.000000;0.513723
9445.000000;0.512762
9444.000000;0.511507
9443.000000;0.510269
9442.000000;0.509433
9441.000000;0.509291
9440.000000;0.509777
9439.000000;0.510382
9438.000000;0.510471
9437.000000;0.509793
9436.000000;0.508705
9435.000000;0.507839
9434.000000;0.507539
9433.000000;0.507605
9432.000000;0.507571
9431.000000;0.507180
9430.000000;0.506566
9429.000000;0.505969
9428.000000;0.505408
9427.000000;0.504713
9426.000000;0.503822
9425.000000;0.502929
9424.000000;0.502271
9423.000000;0.501902
9422.000000;0.501734
9421.000000;0.501673
9420.000000;0.501634
9419.000000;0.501509
9418.000000;0.501255
9417.000000;0.500994
9416.000000;0.500897
9415.000000;0.500931
9414.000000;0.500797
9413.000000;0.500132
9412.000000;0.498790
9411.000000;0.497044
9410.000000;0.495556
9409.000000;0.494971
9408.000000;0.495309
9407.000000;0.495838
9406.000000;0.495748
9405.000000;0.494993
9404.000000;0.494233
9403.000000;0.493942
9402.000000;0.493875
9401.000000;0.493524
9400.000000;0.492793
9399.000000;0.491963
9398.000000;0.491186
9397.000000;0.490380
9396.000000;0.489562
9395.000000;0.488957
9394.000000;0.488701
9393.000000;0.488653
9392.000000;0.488614
9391.000000;0.488585
9390.000000;0.488641
9389.000000;0.488690
9388.000000;0.488518
9387.000000;0.488065
9386.000000;0.487496
9385.000000;0.486941
9384.000000;0.486290
9383.000000;0.485324
9382.000000;0.484027
9381.000000;0.482661
9380.000000;0.481539
9379.000000;0.480810
9378.000000;0.480459
9377.000000;0.480420
9376.000000;0.480546
9375.000000;0.480549
9374.000000;0.480118
9373.000000;0.479189
9372.000000;0.478045
9371.000000;0.477104
9370.000000;0.476633
9369.000000;0.476612
9368.000000;0.476771
9367.000000;0.476706
9366.000000;0.476090
9365.000000;0.474885
9364.000000;0.473363
9363.000000;0.471886
9362.000000;0.470720
9361.000000;0.469995
9360.000000;0.469685
9359.000000;0.469575
9358.000000;0.469366
9357.000000;0.468916
9356.000000;0.468312
9355.000000;0.467635
9354.000000;0.466818
9353.000000;0.465883
9352.000000;0.465130
9351.000000;0.464831
9350.000000;0.464756
9349.000000;0.464274
9348.000000;0.463016
9347.000000;0.461301
9346.000000;0.459826
9345.000000;0.459082
9344.000000;0.459085
9343.000000;0.459475
9342.000000;0.459729
9341.000000;0.459427
9340.000000;0.458501
9339.000000;0.457251
9338.000000;0.456050
9337.000000;0.455080
9336.000000;0.454356
9335.000000;0.453842
9334.000000;0.453439
9333.000000;0.452964
9332.000000;0.452311
9331.000000;0.451610
9330.000000;0.451047
9329.000000;0.450547
9328.000000;0.449812
9327.000000;0.448729
9326.000000;0.447600
9325.000000;0.446856
9324.000000;0.446628
9323.000000;0.446680
9322.000000;0.446709
9321.000000;0.446582
9320.000000;0.446314
9319.000000;0.445918
9318.000000;0.445380
9317.000000;0.444699
9316.000000;0.443888
9315.000000;0.442924
9314.000000;0.441803
9313.000000;0.440684
9312.000000;0.439869
9311.000000;0.439501
9310.000000;0.439268
9309.000000;0.438563
9308.000000;0.437087
9307.000000;0.435250
9306.000000;0.433829
9305.000000;0.433210
9304.000000;0.433054
9303.000000;0.432723
9302.000000;0.431942
9301.000000;0.430955
9300.000000;0.430088
9299.000000;0.429334
9298.000000;0.428427
9297.000000;0.427271
9296.000000;0.426160
9295.000000;0.425516
9294.000000;0.425454
9293.000000;0.425685
9292.000000;0.425797
9291.000000;0.425550
9290.000000;0.424899
9289.000000;0.423918
9288.000000;0.422809
9287.000000;0.421869
9286.000000;0.421260
9285.000000;0.420819
9284.000000;0.420236
9283.000000;0.419444
9282.000000;0.418694
9281.000000;0.418200
9280.000000;0.417854
9279.000000;0.417386
9278.000000;0.416687
9277.000000;0.415880
9276.000000;0.415129
9275.000000;0.414483
9274.000000;0.413882
9273.000000;0.413186
9272.000000;0.412239
9271.000000;0.411008
9270.000000;0.409725
9269.000000;0.408749
9268.000000;0.408216
9267.000000;0.407829
9266.000000;0.407097
9265.000000;0.405826
9264.000000;0.404365
9263.000000;0.403312
9262.000000;0.402937
9261.000000;0.402899
9260.000000;0.402599
9259.000000;0.401827
9258.000000;0.400969
9257.000000;0.400524
9256.000000;0.400480
9255.000000;0.400288
9254.000000;0.399461
9253.000000;0.398120
9252.000000;0.396858
9251.000000;0.396137
9250.000000;0.395906
9249.000000;0.395801
9248.000000;0.395558
9247.000000;0.395129
9246.000000;0.394482
9245.000000;0.393543
9244.000000;0.392400
9243.000000;0.391376
9242.000000;0.390693
9241.000000;0.390170
9240.000000;0.389478
9239.000000;0.388645
9238.000000;0.388045
9237.000000;0.387829
9236.000000;0.387640
9235.000000;0.387064
9234.000000;0.386132
9233.000000;0.385142
9232.000000;0.384176
9231.000000;0.383107
9230.000000;0.382014
9229.000000;0.381223
9228.000000;0.380848
9227.000000;0.380580
9226.000000;0.380071
9225.000000;0.379349
9224.000000;0.378693
9223.000000;0.378232
9222.000000;0.377859
9221.000000;0.377448
9220.000000;0.376965
9219.000000;0.376387
9218.000000;0.375680
9217.000000;0.374908
9216.000000;0.374197
9215.000000;0.373551
9214.000000;0.372790
9213.000000;0.371786
9212.000000;0.370664
9211.000000;0.369694
9210.000000;0.369011
9209.000000;0.368534
9208.000000;0.368136
9207.000000;0.367780
9206.000000;0.367466
9205.000000;0.367145
9204.000000;0.366765
9203.000000;0.366330
9202.000000;0.365833
9201.000000;0.365183
9200.000000;0.364312
9199.000000;0.363332
9198.000000;0.362452
9197.000000;0.361716
9196.000000;0.360941
9195.000000;0.359969
9194.000000;0.358885
9193.000000;0.357914
9192.000000;0.357229
9191.000000;0.356934
9190.000000;0.357120
9189.000000;0.357717
9188.000000;0.358319
9187.000000;0.358355
9186.000000;0.357545
9185.000000;0.356125
9184.000000;0.354582
9183.000000;0.353260
9182.000000;0.352236
9181.000000;0.351454
9180.000000;0.350849
9179.000000;0.350379
9178.000000;0.350021
9177.000000;0.349744
9176.000000;0.349457
9175.000000;0.349031
9174.000000;0.348414
9173.000000;0.347704
9172.000000;0.347011
9171.000000;0.346264
9170.000000;0.345247
9169.000000;0.343901
9168.000000;0.342529
9167.000000;0.341585
9166.000000;0.341254
9165.000000;0.341282
9164.000000;0.341228
9163.000000;0.340810
9162.000000;0.340014
9161.000000;0.338997
9160.000000;0.338016
9159.000000;0.337350
9158.000000;0.337081
9157.000000;0.336913
9156.000000;0.336363
9155.000000;0.335241
9154.000000;0.333877
9153.000000;0.332791
9152.000000;0.332245
9151.000000;0.332159
9150.000000;0.332335
9149.000000;0.332593
9148.000000;0.332735
9147.000000;0.332536
9146.000000;0.331894
9145.000000;0.330935
9144.000000;0.329972
9143.000000;0.329286
9142.000000;0.328909
9141.000000;0.328559
9140.000000;0.327893
9139.000000;0.326885
9138.000000;0.325881
9137.000000;0.325197
9136.000000;0.324745
9135.000000;0.324211
9134.000000;0.323520
9133.000000;0.322952
9132.000000;0.322759
9131.000000;0.322846
9130.000000;0.322916
9129.000000;0.322784
9128.000000;0.322454
9127.000000;0.321985
9126.000000;0.321422
9125.000000;0.320815
9124.000000;0.320190
9123.000000;0.319494
9122.000000;0.318666
9121.000000;0.317774
9120.000000;0.316995
9119.000000;0.316419
9118.000000;0.315931
9117.000000;0.315355
9116.000000;0.314680
9115.000000;0.314069
9114.000000;0.313598
9113.000000;0.313108
9112.000000;0.312402
9111.000000;0.311537
9110.000000;0.310767
9109.000000;0.310218
9108.000000;0.309769
9107.000000;0.309323
9106.000000;0.309009
9105.000000;0.308935
9104.000000;0.308888
9103.000000;0.308492
9102.000000;0.307691
9101.000000;0.306869
9100.000000;0.306428
9099.000000;0.306351
9098.000000;0.306267
9097.000000;0.305859
9096.000000;0.305133
9095.000000;0.304321
9094.000000;0.303594
9093.000000;0.302919
9092.000000;0.302191
9091.000000;0.301451
9090.000000;0.300890
9089.000000;0.300600
9088.000000;0.300439
9087.000000;0.300207
9086.000000;0.299870
9085.000000;0.299504
9084.000000;0.299092
9083.000000;0.298539
9082.000000;0.297858
9081.000000;0.297200
9080.000000;0.296651
9079.000000;0.296155
9078.000000;0.295615
9077.000000;0.294978
9076.000000;0.294202
9075.000000;0.293277
9074.000000;0.292327
9073.000000;0.291573
9072.000000;0.291124
9071.000000;0.290907
9070.000000;0.290805
9069.000000;0.290763
9068.000000;0.290741
9067.000000;0.290672
9066.000000;0.290529
9065.000000;0.290294
9064.000000;0.289847
9063.000000;0.289031
9062.000000;0.287933
9061.000000;0.286923
9060.000000;0.286299
9059.000000;0.285974
9058.000000;0.285629
9057.000000;0.285077
9056.000000;0.284380
9055.000000;0.283688
9054.000000;0.283130
9053.000000;0.282785
