Criado como novo conjunto de dados;"e2410_daniel_v2.spp","106927.6 Secs"
cm-1;Abs
10000.000000;0.146906
9999.000000;0.147200
9998.000000;0.147484
9997.000000;0.147789
9996.000000;0.148022
9995.000000;0.148382
9994.000000;0.149109
9993.000000;0.150034
9992.000000;0.150865
9991.000000;0.151484
9990.000000;0.152019
9989.000000;0.152581
9988.000000;0.153165
9987.000000;0.153773
9986.000000;0.154474
9985.000000;0.155291
9984.000000;0.156149
9983.000000;0.156959
9982.000000;0.157683
9981.000000;0.158304
9980.000000;0.158827
9979.000000;0.159362
9978.000000;0.160080
9977.000000;0.161042
9976.000000;0.162103
9975.000000;0.163054
9974.000000;0.163799
9973.000000;0.164380
9972.000000;0.164892
9971.000000;0.165427
9970.000000;0.166043
9969.000000;0.166733
9968.000000;0.167436
9967.000000;0.168125
9966.000000;0.168845
9965.000000;0.169648
9964.000000;0.170510
9963.000000;0.171337
9962.000000;0.172023
9961.000000;0.172530
9960.000000;0.172949
9959.000000;0.173490
9958.000000;0.174312
9957.000000;0.175315
9956.000000;0.176168
9955.000000;0.176632
9954.000000;0.176837
9953.000000;0.177178
9952.000000;0.177942
9951.000000;0.179073
9950.000000;0.180280
9949.000000;0.181309
9948.000000;0.182082
9947.000000;0.182659
9946.000000;0.183135
9945.000000;0.183595
9944.000000;0.184098
9943.000000;0.184673
9942.000000;0.185315
9941.000000;0.186019
9940.000000;0.186777
9939.000000;0.187531
9938.000000;0.188161
9937.000000;0.188610
9936.000000;0.189024
9935.000000;0.189671
9934.000000;0.190668
9933.000000;0.191817
9932.000000;0.192775
9931.000000;0.193371
9930.000000;0.193742
9929.000000;0.194199
9928.000000;0.194998
9927.000000;0.196163
9926.000000;0.197438
9925.000000;0.198447
9924.000000;0.198996
9923.000000;0.199249
9922.000000;0.199552
9921.000000;0.200113
9920.000000;0.200905
9919.000000;0.201830
9918.000000;0.202829
9917.000000;0.203825
9916.000000;0.204702
9915.000000;0.205438
9914.000000;0.206203
9913.000000;0.207190
9912.000000;0.208354
9911.000000;0.209399
9910.000000;0.210066
9909.000000;0.210395
9908.000000;0.210679
9907.000000;0.211159
9906.000000;0.211834
9905.000000;0.212574
9904.000000;0.213355
9903.000000;0.214287
9902.000000;0.215418
9901.000000;0.216604
9900.000000;0.217639
9899.000000;0.218448
9898.000000;0.219087
9897.000000;0.219610
9896.000000;0.220051
9895.000000;0.220519
9894.000000;0.221171
9893.000000;0.222054
9892.000000;0.223032
9891.000000;0.223914
9890.000000;0.224626
9889.000000;0.225256
9888.000000;0.225979
9887.000000;0.226934
9886.000000;0.228099
9885.000000;0.229257
9884.000000;0.230139
9883.000000;0.230657
9882.000000;0.230980
9881.000000;0.231385
9880.000000;0.232046
9879.000000;0.232922
9878.000000;0.233813
9877.000000;0.234537
9876.000000;0.235142
9875.000000;0.235906
9874.000000;0.237041
9873.000000;0.238425
9872.000000;0.239712
9871.000000;0.240679
9870.000000;0.241369
9869.000000;0.241901
9868.000000;0.242333
9867.000000;0.242753
9866.000000;0.243327
9865.000000;0.244147
9864.000000;0.245134
9863.000000;0.246184
9862.000000;0.247324
9861.000000;0.248586
9860.000000;0.249822
9859.000000;0.250790
9858.000000;0.251410
9857.000000;0.251827
9856.000000;0.252244
9855.000000;0.252801
9854.000000;0.253588
9853.000000;0.254640
9852.000000;0.255867
9851.000000;0.257073
9850.000000;0.258103
9849.000000;0.258948
9848.000000;0.259719
9847.000000;0.260549
9846.000000;0.261502
9845.000000;0.262523
9844.000000;0.263471
9843.000000;0.264257
9842.000000;0.264932
9841.000000;0.265615
9840.000000;0.266368
9839.000000;0.267192
9838.000000;0.268100
9837.000000;0.269067
9836.000000;0.269952
9835.000000;0.270603
9834.000000;0.271079
9833.000000;0.271651
9832.000000;0.272500
9831.000000;0.273531
9830.000000;0.274546
9829.000000;0.275518
9828.000000;0.276573
9827.000000;0.277744
9826.000000;0.278897
9825.000000;0.279890
9824.000000;0.280710
9823.000000;0.281408
9822.000000;0.282008
9821.000000;0.282548
9820.000000;0.283159
9819.000000;0.284010
9818.000000;0.285143
9817.000000;0.286412
9816.000000;0.287613
9815.000000;0.288641
9814.000000;0.289524
9813.000000;0.290325
9812.000000;0.291080
9811.000000;0.291826
9810.000000;0.292646
9809.000000;0.293617
9808.000000;0.294713
9807.000000;0.295840
9806.000000;0.296953
9805.000000;0.298086
9804.000000;0.299224
9803.000000;0.300213
9802.000000;0.300877
9801.000000;0.301257
9800.000000;0.301625
9799.000000;0.302242
9798.000000;0.303139
9797.000000;0.304158
9796.000000;0.305165
9795.000000;0.306157
9794.000000;0.307205
9793.000000;0.308361
9792.000000;0.309616
9791.000000;0.310917
9790.000000;0.312184
9789.000000;0.313332
9788.000000;0.314307
9787.000000;0.315086
9786.000000;0.315692
9785.000000;0.316220
9784.000000;0.316826
9783.000000;0.317618
9782.000000;0.318520
9781.000000;0.319346
9780.000000;0.320048
9779.000000;0.320865
9778.000000;0.322110
9777.000000;0.323775
9776.000000;0.325408
9775.000000;0.326476
9774.000000;0.326879
9773.000000;0.327059
9772.000000;0.327608
9771.000000;0.328792
9770.000000;0.330424
9769.000000;0.332084
9768.000000;0.333395
9767.000000;0.334190
9766.000000;0.334594
9765.000000;0.334961
9764.000000;0.335611
9763.000000;0.336556
9762.000000;0.337536
9761.000000;0.338371
9760.000000;0.339169
9759.000000;0.340131
9758.000000;0.341259
9757.000000;0.342376
9756.000000;0.343351
9755.000000;0.344172
9754.000000;0.344862
9753.000000;0.345482
9752.000000;0.346210
9751.000000;0.347245
9750.000000;0.348594
9749.000000;0.350072
9748.000000;0.351498
9747.000000;0.352773
9746.000000;0.353781
9745.000000;0.354449
9744.000000;0.354976
9743.000000;0.355784
9742.000000;0.357058
9741.000000;0.358494
9740.000000;0.359671
9739.000000;0.360570
9738.000000;0.361542
9737.000000;0.362843
9736.000000;0.364393
9735.000000;0.365939
9734.000000;0.367244
9733.000000;0.368137
9732.000000;0.368601
9731.000000;0.368881
9730.000000;0.369355
9729.000000;0.370198
9728.000000;0.371269
9727.000000;0.372343
9726.000000;0.373347
9725.000000;0.374319
9724.000000;0.375263
9723.000000;0.376134
9722.000000;0.376880
9721.000000;0.377467
9720.000000;0.377948
9719.000000;0.378525
9718.000000;0.379458
9717.000000;0.380834
9716.000000;0.382484
9715.000000;0.384152
9714.000000;0.385631
9713.000000;0.386723
9712.000000;0.387277
9711.000000;0.387436
9710.000000;0.387713
9709.000000;0.388598
9708.000000;0.390083
9707.000000;0.391692
9706.000000;0.393011
9705.000000;0.394036
9704.000000;0.395004
9703.000000;0.396052
9702.000000;0.397152
9701.000000;0.398283
9700.000000;0.399499
9699.000000;0.400841
9698.000000;0.402235
9697.000000;0.403523
9696.000000;0.404543
9695.000000;0.405201
9694.000000;0.405536
9693.000000;0.405756
9692.000000;0.406194
9691.000000;0.407102
9690.000000;0.408434
9689.000000;0.409869
9688.000000;0.411126
9687.000000;0.412243
9686.000000;0.413441
9685.000000;0.414751
9684.000000;0.415912
9683.000000;0.416705
9682.000000;0.417226
9681.000000;0.417727
9680.000000;0.418292
9679.000000;0.418895
9678.000000;0.419687
9677.000000;0.420998
9676.000000;0.422944
9675.000000;0.425159
9674.000000;0.427052
9673.000000;0.428293
9672.000000;0.429021
9671.000000;0.429616
9670.000000;0.430342
9669.000000;0.431156
9668.000000;0.431794
9667.000000;0.432101
9666.000000;0.432268
9665.000000;0.432672
9664.000000;0.433470
9663.000000;0.434453
9662.000000;0.435369
9661.000000;0.436228
9660.000000;0.437196
9659.000000;0.438298
9658.000000;0.439441
9657.000000;0.440635
9656.000000;0.441979
9655.000000;0.443398
9654.000000;0.444601
9653.000000;0.445394
9652.000000;0.445911
9651.000000;0.446446
9650.000000;0.447170
9649.000000;0.448070
9648.000000;0.449073
9647.000000;0.450096
9646.000000;0.451071
9645.000000;0.452034
9644.000000;0.453161
9643.000000;0.454577
9642.000000;0.456132
9641.000000;0.457456
9640.000000;0.458295
9639.000000;0.458768
9638.000000;0.459250
9637.000000;0.460026
9636.000000;0.461056
9635.000000;0.462088
9634.000000;0.463003
9633.000000;0.464001
9632.000000;0.465344
9631.000000;0.466975
9630.000000;0.468530
9629.000000;0.469766
9628.000000;0.470799
9627.000000;0.471800
9626.000000;0.472651
9625.000000;0.473156
9624.000000;0.473466
9623.000000;0.474005
9622.000000;0.474930
9621.000000;0.475944
9620.000000;0.476737
9619.000000;0.477390
9618.000000;0.478143
9617.000000;0.478930
9616.000000;0.479468
9615.000000;0.479791
9614.000000;0.480438
9613.000000;0.481914
9612.000000;0.484050
9611.000000;0.486037
9610.000000;0.487127
9609.000000;0.487284
9608.000000;0.487104
9607.000000;0.487180
9606.000000;0.487625
9605.000000;0.488165
9604.000000;0.488570
9603.000000;0.488895
9602.000000;0.489369
9601.000000;0.490172
9600.000000;0.491357
9599.000000;0.492890
9598.000000;0.494656
9597.000000;0.496434
9596.000000;0.497898
9595.000000;0.498727
9594.000000;0.498847
9593.000000;0.498605
9592.000000;0.498622
9591.000000;0.499299
9590.000000;0.500449
9589.000000;0.501533
9588.000000;0.502287
9587.000000;0.502952
9586.000000;0.503818
9585.000000;0.504758
9584.000000;0.505436
9583.000000;0.505887
9582.000000;0.506561
9581.000000;0.507731
9580.000000;0.509107
9579.000000;0.510191
9578.000000;0.510824
9577.000000;0.511187
9576.000000;0.511441
9575.000000;0.511672
9574.000000;0.512143
9573.000000;0.513200
9572.000000;0.514779
9571.000000;0.516301
9570.000000;0.517259
9569.000000;0.517743
9568.000000;0.518152
9567.000000;0.518580
9566.000000;0.518800
9565.000000;0.518756
9564.000000;0.518702
9563.000000;0.518819
9562.000000;0.519037
9561.000000;0.519344
9560.000000;0.519970
9559.000000;0.521061
9558.000000;0.522403
9557.000000;0.523705
9556.000000;0.524992
9555.000000;0.526397
9554.000000;0.527654
9553.000000;0.528206
9552.000000;0.527919
9551.000000;0.527447
9550.000000;0.527655
9549.000000;0.528767
9548.000000;0.530211
9547.000000;0.531246
9546.000000;0.531668
9545.000000;0.531868
9544.000000;0.532268
9543.000000;0.532836
9542.000000;0.533206
9541.000000;0.533226
9540.000000;0.533215
9539.000000;0.533669
9538.000000;0.534803
9537.000000;0.536437
9536.000000;0.538108
9535.000000;0.539220
9534.000000;0.539320
9533.000000;0.538540
9532.000000;0.537668
9531.000000;0.537501
9530.000000;0.538078
9529.000000;0.538758
9528.000000;0.539041
9527.000000;0.539028
9526.000000;0.538999
9525.000000;0.538879
9524.000000;0.538440
9523.000000;0.537840
9522.000000;0.537590
9521.000000;0.537984
9520.000000;0.538854
9519.000000;0.539919
9518.000000;0.541109
9517.000000;0.542418
9516.000000;0.543679
9515.000000;0.544715
9514.000000;0.545599
9513.000000;0.546473
9512.000000;0.547146
9511.000000;0.547179
9510.000000;0.546507
9509.000000;0.545677
9508.000000;0.545254
9507.000000;0.545168
9506.000000;0.544966
9505.000000;0.544593
9504.000000;0.544530
9503.000000;0.545072
9502.000000;0.545815
9501.000000;0.546136
9500.000000;0.545968
9499.000000;0.545823
9498.000000;0.546116
9497.000000;0.546767
9496.000000;0.547431
9495.000000;0.547877
9494.000000;0.548050
9493.000000;0.547963
9492.000000;0.547699
9491.000000;0.547421
9490.000000;0.547240
9489.000000;0.547095
9488.000000;0.546833
9487.000000;0.546411
9486.000000;0.545992
9485.000000;0.545829
9484.000000;0.546085
9483.000000;0.546735
9482.000000;0.547589
9481.000000;0.548363
9480.000000;0.548769
9479.000000;0.548656
9478.000000;0.548175
9477.000000;0.547721
9476.000000;0.547590
9475.000000;0.547655
9474.000000;0.547532
9473.000000;0.547089
9472.000000;0.546654
9471.000000;0.546617
9470.000000;0.546963
9469.000000;0.547334
9468.000000;0.547458
9467.000000;0.547347
9466.000000;0.547113
9465.000000;0.546755
9464.000000;0.546199
9463.000000;0.545474
9462.000000;0.544756
9461.000000;0.544240
9460.000000;0.543990
9459.000000;0.543935
9458.000000;0.544059
9457.000000;0.544518
9456.000000;0.545382
9455.000000;0.546238
9454.000000;0.546323
9453.000000;0.545344
9452.000000;0.544002
9451.000000;0.543376
9450.000000;0.543782
9449.000000;0.544504
9448.000000;0.544704
9447.000000;0.544331
9446.000000;0.543932
9445.000000;0.543799
9444.000000;0.543646
9443.000000;0.543143
9442.000000;0.542466
9441.000000;0.542120
9440.000000;0.542306
9439.000000;0.542660
9438.000000;0.542621
9437.000000;0.541935
9436.000000;0.540758
9435.000000;0.539419
9434.000000;0.538245
9433.000000;0.537489
9432.000000;0.537204
9431.000000;0.537106
9430.000000;0.536784
9429.000000;0.536165
9428.000000;0.535654
9427.000000;0.535697
9426.000000;0.536250
9425.000000;0.536787
9424.000000;0.536768
9423.000000;0.536048
9422.000000;0.534921
9421.000000;0.533895
9420.000000;0.533385
9419.000000;0.533465
9418.000000;0.533869
9417.000000;0.534247
9416.000000;0.534425
9415.000000;0.534452
9414.000000;0.534458
9413.000000;0.534511
9412.000000;0.534496
9411.000000;0.534101
9410.000000;0.533108
9409.000000;0.531770
9408.000000;0.530693
9407.000000;0.530180
9406.000000;0.529868
9405.000000;0.529217
9404.000000;0.528204
9403.000000;0.527223
9402.000000;0.526394
9401.000000;0.525379
9400.000000;0.524012
9399.000000;0.522756
9398.000000;0.522282
9397.000000;0.522657
9396.000000;0.523166
9395.000000;0.522964
9394.000000;0.521870
9393.000000;0.520523
9392.000000;0.519763
9391.000000;0.519873
9390.000000;0.520442
9389.000000;0.520924
9388.000000;0.521110
9387.000000;0.520962
9386.000000;0.520252
9385.000000;0.518770
9384.000000;0.516848
9383.000000;0.515263
9382.000000;0.514490
9381.000000;0.514315
9380.000000;0.514300
9379.000000;0.514276
9378.000000;0.514173
9377.000000;0.513675
9376.000000;0.512510
9375.000000;0.510991
9374.000000;0.509880
9373.000000;0.509592
9372.000000;0.509772
9371.000000;0.509706
9370.000000;0.508981
9369.000000;0.507696
9368.000000;0.506244
9367.000000;0.505033
9366.000000;0.504325
9365.000000;0.504146
9364.000000;0.504291
9363.000000;0.504417
9362.000000;0.504177
9361.000000;0.503359
9360.000000;0.502051
9359.000000;0.500679
9358.000000;0.499719
9357.000000;0.499257
9356.000000;0.498885
9355.000000;0.498129
9354.000000;0.496928
9353.000000;0.495640
9352.000000;0.494632
9351.000000;0.494006
9350.000000;0.493665
9349.000000;0.493451
9348.000000;0.493176
9347.000000;0.492680
9346.000000;0.492005
9345.000000;0.491465
9344.000000;0.491350
9343.000000;0.491537
9342.000000;0.491499
9341.000000;0.490796
9340.000000;0.489506
9339.000000;0.488107
9338.000000;0.486982
9337.000000;0.486132
9336.000000;0.485351
9335.000000;0.484533
9334.000000;0.483723
9333.000000;0.482951
9332.000000;0.482168
9331.000000;0.481359
9330.000000;0.480592
9329.000000;0.479914
9328.000000;0.479294
9327.000000;0.478709
9326.000000;0.478223
9325.000000;0.477869
9324.000000;0.477525
9323.000000;0.477020
9322.000000;0.476334
9321.000000;0.475552
9320.000000;0.474617
9319.000000;0.473316
9318.000000;0.471633
9317.000000;0.469986
9316.000000;0.468946
9315.000000;0.468737
9314.000000;0.469073
9313.000000;0.469435
9312.000000;0.469423
9311.000000;0.468918
9310.000000;0.468038
9309.000000;0.466990
9308.000000;0.465878
9307.000000;0.464651
9306.000000;0.463276
9305.000000;0.461913
9304.000000;0.460838
9303.000000;0.460196
9302.000000;0.459905
9301.000000;0.459753
9300.000000;0.459503
9299.000000;0.458949
9298.000000;0.458046
9297.000000;0.457007
9296.000000;0.456136
9295.000000;0.455515
9294.000000;0.454940
9293.000000;0.454164
9292.000000;0.453125
9291.000000;0.451911
9290.000000;0.450666
9289.000000;0.449562
9288.000000;0.448730
9287.000000;0.448160
9286.000000;0.447743
9285.000000;0.447417
9284.000000;0.447139
9283.000000;0.446700
9282.000000;0.445776
9281.000000;0.444297
9280.000000;0.442667
9279.000000;0.441456
9278.000000;0.440925
9277.000000;0.440920
9276.000000;0.441082
9275.000000;0.441011
9274.000000;0.440378
9273.000000;0.439149
9272.000000;0.437758
9271.000000;0.436826
9270.000000;0.436604
9269.000000;0.436736
9268.000000;0.436594
9267.000000;0.435823
9266.000000;0.434550
9265.000000;0.433192
9264.000000;0.432112
9263.000000;0.431386
9262.000000;0.430797
9261.000000;0.430041
9260.000000;0.428959
9259.000000;0.427648
9258.000000;0.426398
9257.000000;0.425526
9256.000000;0.425158
9255.000000;0.425092
9254.000000;0.424905
9253.000000;0.424305
9252.000000;0.423404
9251.000000;0.422555
9250.000000;0.421963
9249.000000;0.421486
9248.000000;0.420827
9247.000000;0.419843
9246.000000;0.418659
9245.000000;0.417562
9244.000000;0.416801
9243.000000;0.416420
9242.000000;0.416245
9241.000000;0.416012
9240.000000;0.415564
9239.000000;0.414930
9238.000000;0.414260
9237.000000;0.413686
9236.000000;0.413219
9235.000000;0.412701
9234.000000;0.411899
9233.000000;0.410724
9232.000000;0.409379
9231.000000;0.408217
9230.000000;0.407401
9229.000000;0.406724
9228.000000;0.405839
9227.000000;0.404660
9226.000000;0.403484
9225.000000;0.402685
9224.000000;0.402313
9223.000000;0.402055
9222.000000;0.401591
9221.000000;0.400921
9220.000000;0.400297
9219.000000;0.399895
9218.000000;0.399637
9217.000000;0.399277
9216.000000;0.398569
9215.000000;0.397370
9214.000000;0.395729
9213.000000;0.393955
9212.000000;0.392507
9211.000000;0.391685
9210.000000;0.391417
9209.000000;0.391364
9208.000000;0.391208
9207.000000;0.390838
9206.000000;0.390349
9205.000000;0.389943
9204.000000;0.389800
9203.000000;0.389916
9202.000000;0.390026
9201.000000;0.389736
9200.000000;0.388822
9199.000000;0.387423
9198.000000;0.385922
9197.000000;0.384614
9196.000000;0.383516
9195.000000;0.382532
9194.000000;0.381718
9193.000000;0.381256
9192.000000;0.381126
9191.000000;0.380967
9190.000000;0.380438
9189.000000;0.379593
9188.000000;0.378735
9187.000000;0.377969
9186.000000;0.377182
9185.000000;0.376436
9184.000000;0.376064
9183.000000;0.376212
9182.000000;0.376513
9181.000000;0.376430
9180.000000;0.375806
9179.000000;0.374903
9178.000000;0.374019
9177.000000;0.373264
9176.000000;0.372659
9175.000000;0.372213
9174.000000;0.371867
9173.000000;0.371466
9172.000000;0.370831
9171.000000;0.369850
9170.000000;0.368556
9169.000000;0.367186
9168.000000;0.366069
9167.000000;0.365346
9166.000000;0.364828
9165.000000;0.364245
9164.000000;0.363580
9163.000000;0.363026
9162.000000;0.362664
9161.000000;0.362338
9160.000000;0.361853
9159.000000;0.361152
9158.000000;0.360286
9157.000000;0.359346
9156.000000;0.358479
9155.000000;0.357824
9154.000000;0.357359
9153.000000;0.356872
9152.000000;0.356183
9151.000000;0.355358
9150.000000;0.354647
9149.000000;0.354214
9148.000000;0.353963
9147.000000;0.353669
9146.000000;0.353251
9145.000000;0.352830
9144.000000;0.352494
9143.000000;0.352072
9142.000000;0.351313
9141.000000;0.350267
9140.000000;0.349310
9139.000000;0.348714
9138.000000;0.348351
9137.000000;0.347916
9136.000000;0.347312
9135.000000;0.346668
9134.000000;0.346113
9133.000000;0.345684
9132.000000;0.345367
9131.000000;0.345031
9130.000000;0.344392
9129.000000;0.343247
9128.000000;0.341767
9127.000000;0.340421
9126.000000;0.339586
9125.000000;0.339341
9124.000000;0.339541
9123.000000;0.339896
9122.000000;0.339977
9121.000000;0.339427
9120.000000;0.338299
9119.000000;0.337070
9118.000000;0.336211
9117.000000;0.335770
9116.000000;0.335413
9115.000000;0.334814
9114.000000;0.333950
9113.000000;0.333048
9112.000000;0.332299
9111.000000;0.331649
9110.000000;0.330936
9109.000000;0.330179
9108.000000;0.329595
9107.000000;0.329262
9106.000000;0.328959
9105.000000;0.328504
9104.000000;0.328065
9103.000000;0.327889
9102.000000;0.327821
9101.000000;0.327429
9100.000000;0.326610
9099.000000;0.325753
9098.000000;0.325231
9097.000000;0.324972
9096.000000;0.324665
9095.000000;0.324140
9094.000000;0.323376
9093.000000;0.322347
9092.000000;0.321094
9091.000000;0.319864
9090.000000;0.318978
9089.000000;0.318577
9088.000000;0.318563
9087.000000;0.318708
9086.000000;0.318762
9085.000000;0.318551
9084.000000;0.318102
9083.000000;0.317601
9082.000000;0.317133
9081.000000;0.316551
9080.000000;0.315691
9079.000000;0.314652
9078.000000;0.313741
9077.000000;0.313194
9076.000000;0.313020
9075.000000;0.313052
9074.000000;0.313042
9073.000000;0.312783
9072.000000;0.312247
9071.000000;0.311608
9070.000000;0.311044
9069.000000;0.310540
9068.000000;0.309942
9067.000000;0.309180
9066.000000;0.308336
9065.000000;0.307543
9064.000000;0.306869
9063.000000;0.306304
9062.000000;0.305826
9061.000000;0.305453
9060.000000;0.305217
9059.000000;0.305041
9058.000000;0.304697
9057.000000;0.304005
9056.000000;0.303097
9055.000000;0.302343
9054.000000;0.301944
9053.000000;0.301724
