Criado como novo conjunto de dados;"e2410_daniel_v2.spp","102787.4 Secs"
cm-1;Abs
10000.000000;0.138476
9999.000000;0.139257
9998.000000;0.140038
9997.000000;0.140803
9996.000000;0.141465
9995.000000;0.141995
9994.000000;0.142455
9993.000000;0.142943
9992.000000;0.143515
9991.000000;0.144149
9990.000000;0.144779
9989.000000;0.145379
9988.000000;0.146022
9987.000000;0.146794
9986.000000;0.147651
9985.000000;0.148431
9984.000000;0.149034
9983.000000;0.149528
9982.000000;0.150051
9981.000000;0.150680
9980.000000;0.151433
9979.000000;0.152332
9978.000000;0.153366
9977.000000;0.154419
9976.000000;0.155329
9975.000000;0.156010
9974.000000;0.156494
9973.000000;0.156871
9972.000000;0.157251
9971.000000;0.157766
9970.000000;0.158521
9969.000000;0.159478
9968.000000;0.160424
9967.000000;0.161128
9966.000000;0.161557
9965.000000;0.161914
9964.000000;0.162434
9963.000000;0.163172
9962.000000;0.164016
9961.000000;0.164854
9960.000000;0.165628
9959.000000;0.166232
9958.000000;0.166533
9957.000000;0.166591
9956.000000;0.166756
9955.000000;0.167369
9954.000000;0.168353
9953.000000;0.169265
9952.000000;0.169809
9951.000000;0.170171
9950.000000;0.170759
9949.000000;0.171697
9948.000000;0.172699
9947.000000;0.173421
9946.000000;0.173848
9945.000000;0.174300
9944.000000;0.175086
9943.000000;0.176196
9942.000000;0.177316
9941.000000;0.178139
9940.000000;0.178666
9939.000000;0.179169
9938.000000;0.179887
9937.000000;0.180791
9936.000000;0.181652
9935.000000;0.182281
9934.000000;0.182691
9933.000000;0.183053
9932.000000;0.183548
9931.000000;0.184241
9930.000000;0.185059
9929.000000;0.185893
9928.000000;0.186715
9927.000000;0.187581
9926.000000;0.188513
9925.000000;0.189448
9924.000000;0.190309
9923.000000;0.191097
9922.000000;0.191852
9921.000000;0.192553
9920.000000;0.193130
9919.000000;0.193606
9918.000000;0.194170
9917.000000;0.195027
9916.000000;0.196163
9915.000000;0.197290
9914.000000;0.198091
9913.000000;0.198522
9912.000000;0.198842
9911.000000;0.199338
9910.000000;0.200091
9909.000000;0.200996
9908.000000;0.201919
9907.000000;0.202773
9906.000000;0.203520
9905.000000;0.204215
9904.000000;0.204993
9903.000000;0.205927
9902.000000;0.206909
9901.000000;0.207766
9900.000000;0.208479
9899.000000;0.209162
9898.000000;0.209852
9897.000000;0.210471
9896.000000;0.211015
9895.000000;0.211649
9894.000000;0.212518
9893.000000;0.213525
9892.000000;0.214404
9891.000000;0.214957
9890.000000;0.215220
9889.000000;0.215438
9888.000000;0.215923
9887.000000;0.216840
9886.000000;0.218051
9885.000000;0.219216
9884.000000;0.220102
9883.000000;0.220779
9882.000000;0.221468
9881.000000;0.222285
9880.000000;0.223187
9879.000000;0.224092
9878.000000;0.224950
9877.000000;0.225721
9876.000000;0.226386
9875.000000;0.226996
9874.000000;0.227658
9873.000000;0.228453
9872.000000;0.229389
9871.000000;0.230415
9870.000000;0.231444
9869.000000;0.232379
9868.000000;0.233169
9867.000000;0.233836
9866.000000;0.234437
9865.000000;0.235014
9864.000000;0.235607
9863.000000;0.236265
9862.000000;0.237023
9861.000000;0.237870
9860.000000;0.238774
9859.000000;0.239712
9858.000000;0.240644
9857.000000;0.241501
9856.000000;0.242252
9855.000000;0.242959
9854.000000;0.243706
9853.000000;0.244488
9852.000000;0.245237
9851.000000;0.245959
9850.000000;0.246766
9849.000000;0.247726
9848.000000;0.248738
9847.000000;0.249636
9846.000000;0.250377
9845.000000;0.251074
9844.000000;0.251832
9843.000000;0.252660
9842.000000;0.253568
9841.000000;0.254661
9840.000000;0.256000
9839.000000;0.257401
9838.000000;0.258508
9837.000000;0.259108
9836.000000;0.259324
9835.000000;0.259464
9834.000000;0.259777
9833.000000;0.260384
9832.000000;0.261307
9831.000000;0.262434
9830.000000;0.263534
9829.000000;0.264465
9828.000000;0.265322
9827.000000;0.266274
9826.000000;0.267296
9825.000000;0.268205
9824.000000;0.268940
9823.000000;0.269642
9822.000000;0.270429
9821.000000;0.271250
9820.000000;0.272033
9819.000000;0.272859
9818.000000;0.273874
9817.000000;0.275091
9816.000000;0.276373
9815.000000;0.277578
9814.000000;0.278669
9813.000000;0.279716
9812.000000;0.280807
9811.000000;0.281920
9810.000000;0.282904
9809.000000;0.283645
9808.000000;0.284269
9807.000000;0.285059
9806.000000;0.286118
9805.000000;0.287207
9804.000000;0.287977
9803.000000;0.288325
9802.000000;0.288471
9801.000000;0.288756
9800.000000;0.289420
9799.000000;0.290482
9798.000000;0.291734
9797.000000;0.292862
9796.000000;0.293679
9795.000000;0.294273
9794.000000;0.294899
9793.000000;0.295740
9792.000000;0.296789
9791.000000;0.297942
9790.000000;0.299126
9789.000000;0.300301
9788.000000;0.301370
9787.000000;0.302172
9786.000000;0.302649
9785.000000;0.302986
9784.000000;0.303483
9783.000000;0.304260
9782.000000;0.305190
9781.000000;0.306175
9780.000000;0.307344
9779.000000;0.308813
9778.000000;0.310346
9777.000000;0.311503
9776.000000;0.312131
9775.000000;0.312537
9774.000000;0.313123
9773.000000;0.314030
9772.000000;0.315183
9771.000000;0.316482
9770.000000;0.317818
9769.000000;0.319040
9768.000000;0.320047
9767.000000;0.320867
9766.000000;0.321584
9765.000000;0.322250
9764.000000;0.322933
9763.000000;0.323708
9762.000000;0.324532
9761.000000;0.325261
9760.000000;0.325891
9759.000000;0.326672
9758.000000;0.327811
9757.000000;0.329140
9756.000000;0.330249
9755.000000;0.330950
9754.000000;0.331466
9753.000000;0.332150
9752.000000;0.333140
9751.000000;0.334325
9750.000000;0.335541
9749.000000;0.336716
9748.000000;0.337832
9747.000000;0.338835
9746.000000;0.339683
9745.000000;0.340471
9744.000000;0.341408
9743.000000;0.342572
9742.000000;0.343717
9741.000000;0.344501
9740.000000;0.344911
9739.000000;0.345322
9738.000000;0.346094
9737.000000;0.347228
9736.000000;0.348480
9735.000000;0.349657
9734.000000;0.350706
9733.000000;0.351642
9732.000000;0.352526
9731.000000;0.353468
9730.000000;0.354538
9729.000000;0.355676
9728.000000;0.356767
9727.000000;0.357766
9726.000000;0.358711
9725.000000;0.359651
9724.000000;0.360606
9723.000000;0.361566
9722.000000;0.362471
9721.000000;0.363267
9720.000000;0.363993
9719.000000;0.364753
9718.000000;0.365582
9717.000000;0.366392
9716.000000;0.367112
9715.000000;0.367783
9714.000000;0.368493
9713.000000;0.369320
9712.000000;0.370364
9711.000000;0.371693
9710.000000;0.373175
9709.000000;0.374490
9708.000000;0.375434
9707.000000;0.376114
9706.000000;0.376775
9705.000000;0.377533
9704.000000;0.378412
9703.000000;0.379480
9702.000000;0.380751
9701.000000;0.381997
9700.000000;0.382872
9699.000000;0.383306
9698.000000;0.383654
9697.000000;0.384413
9696.000000;0.385804
9695.000000;0.387613
9694.000000;0.389384
9693.000000;0.390757
9692.000000;0.391690
9691.000000;0.392398
9690.000000;0.393161
9689.000000;0.394220
9688.000000;0.395698
9687.000000;0.397441
9686.000000;0.398966
9685.000000;0.399826
9684.000000;0.400090
9683.000000;0.400266
9682.000000;0.400702
9681.000000;0.401294
9680.000000;0.401870
9679.000000;0.402557
9678.000000;0.403537
9677.000000;0.404671
9676.000000;0.405641
9675.000000;0.406367
9674.000000;0.407029
9673.000000;0.407763
9672.000000;0.408587
9671.000000;0.409532
9670.000000;0.410595
9669.000000;0.411614
9668.000000;0.412451
9667.000000;0.413265
9666.000000;0.414344
9665.000000;0.415679
9664.000000;0.416963
9663.000000;0.418061
9662.000000;0.419189
9661.000000;0.420540
9660.000000;0.421968
9659.000000;0.423180
9658.000000;0.424059
9657.000000;0.424667
9656.000000;0.425110
9655.000000;0.425554
9654.000000;0.426231
9653.000000;0.427252
9652.000000;0.428465
9651.000000;0.429601
9650.000000;0.430531
9649.000000;0.431317
9648.000000;0.432079
9647.000000;0.432917
9646.000000;0.433874
9645.000000;0.434878
9644.000000;0.435750
9643.000000;0.436369
9642.000000;0.436805
9641.000000;0.437231
9640.000000;0.437715
9639.000000;0.438188
9638.000000;0.438638
9637.000000;0.439260
9636.000000;0.440330
9635.000000;0.441894
9634.000000;0.443612
9633.000000;0.444994
9632.000000;0.445867
9631.000000;0.446541
9630.000000;0.447419
9629.000000;0.448472
9628.000000;0.449264
9627.000000;0.449548
9626.000000;0.449689
9625.000000;0.450316
9624.000000;0.451621
9623.000000;0.453173
9622.000000;0.454459
9621.000000;0.455451
9620.000000;0.456491
9619.000000;0.457732
9618.000000;0.458913
9617.000000;0.459750
9616.000000;0.460330
9615.000000;0.460953
9614.000000;0.461696
9613.000000;0.462331
9612.000000;0.462665
9611.000000;0.462785
9610.000000;0.462914
9609.000000;0.463175
9608.000000;0.463585
9607.000000;0.464180
9606.000000;0.465038
9605.000000;0.466200
9604.000000;0.467608
9603.000000;0.469092
9602.000000;0.470422
9601.000000;0.471501
9600.000000;0.472522
9599.000000;0.473804
9598.000000;0.475377
9597.000000;0.476809
9596.000000;0.477538
9595.000000;0.477385
9594.000000;0.476732
9593.000000;0.476256
9592.000000;0.476465
9591.000000;0.477379
9590.000000;0.478575
9589.000000;0.479608
9588.000000;0.480408
9587.000000;0.481214
9586.000000;0.482189
9585.000000;0.483256
9584.000000;0.484265
9583.000000;0.485106
9582.000000;0.485658
9581.000000;0.485910
9580.000000;0.486228
9579.000000;0.487162
9578.000000;0.488801
9577.000000;0.490534
9576.000000;0.491714
9575.000000;0.492348
9574.000000;0.492892
9573.000000;0.493549
9572.000000;0.494164
9571.000000;0.494699
9570.000000;0.495402
9569.000000;0.496390
9568.000000;0.497359
9567.000000;0.497842
9566.000000;0.497684
9565.000000;0.497228
9564.000000;0.497114
9563.000000;0.497802
9562.000000;0.499111
9561.000000;0.500275
9560.000000;0.500668
9559.000000;0.500490
9558.000000;0.500528
9557.000000;0.501298
9556.000000;0.502647
9555.000000;0.504134
9554.000000;0.505463
9553.000000;0.506474
9552.000000;0.507024
9551.000000;0.507128
9550.000000;0.507070
9549.000000;0.507161
9548.000000;0.507458
9547.000000;0.507799
9546.000000;0.508065
9545.000000;0.508303
9544.000000;0.508655
9543.000000;0.509193
9542.000000;0.509799
9541.000000;0.510234
9540.000000;0.510446
9539.000000;0.510777
9538.000000;0.511643
9537.000000;0.512947
9536.000000;0.514021
9535.000000;0.514316
9534.000000;0.514033
9533.000000;0.513895
9532.000000;0.514376
9531.000000;0.515306
9530.000000;0.516142
9529.000000;0.516505
9528.000000;0.516466
9527.000000;0.516409
9526.000000;0.516657
9525.000000;0.517234
9524.000000;0.517977
9523.000000;0.518813
9522.000000;0.519778
9521.000000;0.520761
9520.000000;0.521417
9519.000000;0.521500
9518.000000;0.521164
9517.000000;0.520824
9516.000000;0.520778
9515.000000;0.521095
9514.000000;0.521762
9513.000000;0.522742
9512.000000;0.523845
9511.000000;0.524704
9510.000000;0.524969
9509.000000;0.524551
9508.000000;0.523685
9507.000000;0.522833
9506.000000;0.522442
9505.000000;0.522654
9504.000000;0.523212
9503.000000;0.523774
9502.000000;0.524333
9501.000000;0.525188
9500.000000;0.526410
9499.000000;0.527503
9498.000000;0.527805
9497.000000;0.527231
9496.000000;0.526491
9495.000000;0.526476
9494.000000;0.527494
9493.000000;0.529076
9492.000000;0.530385
9491.000000;0.530756
9490.000000;0.530038
9489.000000;0.528644
9488.000000;0.527308
9487.000000;0.526615
9486.000000;0.526652
9485.000000;0.527087
9484.000000;0.527564
9483.000000;0.527910
9482.000000;0.528049
9481.000000;0.527971
9480.000000;0.527842
9479.000000;0.527924
9478.000000;0.528204
9477.000000;0.528334
9476.000000;0.528175
9475.000000;0.528232
9474.000000;0.529138
9473.000000;0.530696
9472.000000;0.531791
9471.000000;0.531481
9470.000000;0.530018
9469.000000;0.528586
9468.000000;0.528161
9467.000000;0.528763
9466.000000;0.529672
9465.000000;0.530175
9464.000000;0.530103
9463.000000;0.529805
9462.000000;0.529662
9461.000000;0.529665
9460.000000;0.529483
9459.000000;0.528951
9458.000000;0.528319
9457.000000;0.527918
9456.000000;0.527716
9455.000000;0.527419
9454.000000;0.526973
9453.000000;0.526706
9452.000000;0.526856
9451.000000;0.527152
9450.000000;0.527093
9449.000000;0.526599
9448.000000;0.526153
9447.000000;0.526188
9446.000000;0.526509
9445.000000;0.526505
9444.000000;0.525885
9443.000000;0.525020
9442.000000;0.524518
9441.000000;0.524650
9440.000000;0.525229
9439.000000;0.525865
9438.000000;0.526164
9437.000000;0.525849
9436.000000;0.524997
9435.000000;0.524169
9434.000000;0.524014
9433.000000;0.524600
9432.000000;0.525248
9431.000000;0.525183
9430.000000;0.524281
9429.000000;0.523037
9428.000000;0.521932
9427.000000;0.521036
9426.000000;0.520234
9425.000000;0.519582
9424.000000;0.519296
9423.000000;0.519435
9422.000000;0.519762
9421.000000;0.519945
9420.000000;0.519845
9419.000000;0.519558
9418.000000;0.519244
9417.000000;0.518990
9416.000000;0.518780
9415.000000;0.518485
9414.000000;0.517877
9413.000000;0.516792
9412.000000;0.515398
9411.000000;0.514196
9410.000000;0.513625
9409.000000;0.513644
9408.000000;0.513801
9407.000000;0.513698
9406.000000;0.513319
9405.000000;0.512896
9404.000000;0.512588
9403.000000;0.512347
9402.000000;0.512003
9401.000000;0.511431
9400.000000;0.510691
9399.000000;0.510042
9398.000000;0.509752
9397.000000;0.509848
9396.000000;0.510085
9395.000000;0.510195
9394.000000;0.510119
9393.000000;0.509962
9392.000000;0.509768
9391.000000;0.509402
9390.000000;0.508662
9389.000000;0.507493
9388.000000;0.506117
9387.000000;0.504921
9386.000000;0.504133
9385.000000;0.503575
9384.000000;0.502860
9383.000000;0.501863
9382.000000;0.500878
9381.000000;0.500230
9380.000000;0.499851
9379.000000;0.499427
9378.000000;0.498915
9377.000000;0.498649
9376.000000;0.498826
9375.000000;0.499086
9374.000000;0.498862
9373.000000;0.498109
9372.000000;0.497432
9371.000000;0.497344
9370.000000;0.497604
9369.000000;0.497489
9368.000000;0.496667
9367.000000;0.495523
9366.000000;0.494555
9365.000000;0.493744
9364.000000;0.492756
9363.000000;0.491619
9362.000000;0.490841
9361.000000;0.490780
9360.000000;0.491157
9359.000000;0.491342
9358.000000;0.490983
9357.000000;0.490237
9356.000000;0.489464
9355.000000;0.488898
9354.000000;0.488571
9353.000000;0.488357
9352.000000;0.488017
9351.000000;0.487313
9350.000000;0.486199
9349.000000;0.484920
9348.000000;0.483844
9347.000000;0.483159
9346.000000;0.482716
9345.000000;0.482191
9344.000000;0.481415
9343.000000;0.480518
9342.000000;0.479729
9341.000000;0.479103
9340.000000;0.478530
9339.000000;0.477956
9338.000000;0.477475
9337.000000;0.477141
9336.000000;0.476809
9335.000000;0.476239
9334.000000;0.475321
9333.000000;0.474172
9332.000000;0.473068
9331.000000;0.472305
9330.000000;0.472020
9329.000000;0.472056
9328.000000;0.472034
9327.000000;0.471629
9326.000000;0.470790
9325.000000;0.469693
9324.000000;0.468547
9323.000000;0.467493
9322.000000;0.466628
9321.000000;0.466021
9320.000000;0.465652
9319.000000;0.465338
9318.000000;0.464769
9317.000000;0.463745
9316.000000;0.462460
9315.000000;0.461448
9314.000000;0.461068
9313.000000;0.461071
9312.000000;0.460857
9311.000000;0.460182
9310.000000;0.459397
9309.000000;0.458872
9308.000000;0.458468
9307.000000;0.457798
9306.000000;0.456849
9305.000000;0.456020
9304.000000;0.455549
9303.000000;0.455179
9302.000000;0.454474
9301.000000;0.453329
9300.000000;0.452089
9299.000000;0.451240
9298.000000;0.451005
9297.000000;0.451155
9296.000000;0.451217
9295.000000;0.450906
9294.000000;0.450292
9293.000000;0.449490
9292.000000;0.448352
9291.000000;0.446716
9290.000000;0.444900
9289.000000;0.443620
9288.000000;0.443276
9287.000000;0.443522
9286.000000;0.443628
9285.000000;0.443147
9284.000000;0.442111
9283.000000;0.440748
9282.000000;0.439250
9281.000000;0.437814
9280.000000;0.436680
9279.000000;0.436006
9278.000000;0.435705
9277.000000;0.435490
9276.000000;0.435130
9275.000000;0.434675
9274.000000;0.434345
9273.000000;0.434139
9272.000000;0.433671
9271.000000;0.432559
9270.000000;0.430958
9269.000000;0.429488
9268.000000;0.428590
9267.000000;0.428150
9266.000000;0.427816
9265.000000;0.427428
9264.000000;0.426948
9263.000000;0.426185
9262.000000;0.424963
9261.000000;0.423524
9260.000000;0.422435
9259.000000;0.421994
9258.000000;0.421912
9257.000000;0.421712
9256.000000;0.421265
9255.000000;0.420776
9254.000000;0.420364
9253.000000;0.419880
9252.000000;0.419137
9251.000000;0.418176
9250.000000;0.417226
9249.000000;0.416517
9248.000000;0.416148
9247.000000;0.416066
9246.000000;0.416066
9245.000000;0.415885
9244.000000;0.415363
9243.000000;0.414526
9242.000000;0.413467
9241.000000;0.412226
9240.000000;0.410870
9239.000000;0.409619
9238.000000;0.408716
9237.000000;0.408140
9236.000000;0.407593
9235.000000;0.406868
9234.000000;0.406113
9233.000000;0.405602
9232.000000;0.405334
9231.000000;0.405008
9230.000000;0.404396
9229.000000;0.403605
9228.000000;0.402927
9227.000000;0.402541
9226.000000;0.402363
9225.000000;0.402099
9224.000000;0.401438
9223.000000;0.400317
9222.000000;0.399041
9221.000000;0.398032
9220.000000;0.397416
9219.000000;0.396919
9218.000000;0.396248
9217.000000;0.395469
9216.000000;0.394901
9215.000000;0.394719
9214.000000;0.394755
9213.000000;0.394657
9212.000000;0.394105
9211.000000;0.392911
9210.000000;0.391099
9209.000000;0.389017
9208.000000;0.387263
9207.000000;0.386341
9206.000000;0.386286
9205.000000;0.386600
9204.000000;0.386631
9203.000000;0.386074
9202.000000;0.385160
9201.000000;0.384355
9200.000000;0.383875
9199.000000;0.383513
9198.000000;0.382950
9197.000000;0.382143
9196.000000;0.381338
9195.000000;0.380745
9194.000000;0.380340
9193.000000;0.379995
9192.000000;0.379657
9191.000000;0.379307
9190.000000;0.378854
9189.000000;0.378211
9188.000000;0.377456
9187.000000;0.376738
9186.000000;0.376022
9185.000000;0.375095
9184.000000;0.373935
9183.000000;0.372902
9182.000000;0.372373
9181.000000;0.372248
9180.000000;0.372034
9179.000000;0.371439
9178.000000;0.370678
9177.000000;0.370135
9176.000000;0.369886
9175.000000;0.369684
9174.000000;0.369284
9173.000000;0.368605
9172.000000;0.367674
9171.000000;0.366589
9170.000000;0.365534
9169.000000;0.364684
9168.000000;0.364079
9167.000000;0.363659
9166.000000;0.363369
9165.000000;0.363115
9164.000000;0.362699
9163.000000;0.361978
9162.000000;0.361113
9161.000000;0.360459
9160.000000;0.360130
9159.000000;0.359825
9158.000000;0.359196
9157.000000;0.358263
9156.000000;0.357337
9155.000000;0.356611
9154.000000;0.355991
9153.000000;0.355293
9152.000000;0.354477
9151.000000;0.353662
9150.000000;0.353021
9149.000000;0.352679
9148.000000;0.352626
9147.000000;0.352664
9146.000000;0.352496
9145.000000;0.351939
9144.000000;0.351056
9143.000000;0.350045
9142.000000;0.349031
9141.000000;0.348014
9140.000000;0.347001
9139.000000;0.346085
9138.000000;0.345334
9137.000000;0.344681
9136.000000;0.344042
9135.000000;0.343505
9134.000000;0.343224
9133.000000;0.343082
9132.000000;0.342636
9131.000000;0.341565
9130.000000;0.340103
9129.000000;0.338879
9128.000000;0.338357
9127.000000;0.338482
9126.000000;0.338820
9125.000000;0.338917
9124.000000;0.338585
9123.000000;0.337994
9122.000000;0.337468
9121.000000;0.337118
9120.000000;0.336723
9119.000000;0.336071
9118.000000;0.335305
9117.000000;0.334731
9116.000000;0.334339
9115.000000;0.333802
9114.000000;0.332965
9113.000000;0.332073
9112.000000;0.331389
9111.000000;0.330829
9110.000000;0.330141
9109.000000;0.329285
9108.000000;0.328440
9107.000000;0.327753
9106.000000;0.327245
9105.000000;0.326898
9104.000000;0.326667
9103.000000;0.326433
9102.000000;0.326070
9101.000000;0.325557
9100.000000;0.324970
9099.000000;0.324391
9098.000000;0.323870
9097.000000;0.323426
9096.000000;0.323004
9095.000000;0.322546
9094.000000;0.322135
9093.000000;0.321939
9092.000000;0.321910
9091.000000;0.321708
9090.000000;0.321074
9089.000000;0.320152
9088.000000;0.319270
9087.000000;0.318501
9086.000000;0.317679
9085.000000;0.316763
9084.000000;0.315922
9083.000000;0.315267
9082.000000;0.314733
9081.000000;0.314275
9080.000000;0.313982
9079.000000;0.313886
9078.000000;0.313843
9077.000000;0.313684
9076.000000;0.313363
9075.000000;0.312844
9074.000000;0.312008
9073.000000;0.310844
9072.000000;0.309644
9071.000000;0.308830
9070.000000;0.308532
9069.000000;0.308469
9068.000000;0.308287
9067.000000;0.307925
9066.000000;0.307583
9065.000000;0.307377
9064.000000;0.307186
9063.000000;0.306841
9062.000000;0.306353
9061.000000;0.305838
9060.000000;0.305330
9059.000000;0.304824
9058.000000;0.304440
9057.000000;0.304293
9056.000000;0.304176
9055.000000;0.303671
9054.000000;0.302710
9053.000000;0.301792
