Criado como novo conjunto de dados;"e2410_daniel_v2.spp","73806.1 Secs"
cm-1;Abs
10000.000000;1.390862
9999.000000;1.389605
9998.000000;1.388352
9997.000000;1.387103
9996.000000;1.385856
9995.000000;1.384614
9994.000000;1.383375
9993.000000;1.382140
9992.000000;1.380908
9991.000000;1.379680
9990.000000;1.378450
9989.000000;1.377273
9988.000000;1.376274
9987.000000;1.375277
9986.000000;1.373932
9985.000000;1.372247
9984.000000;1.370798
9983.000000;1.370470
9982.000000;1.371724
9981.000000;1.373995
9980.000000;1.375947
9979.000000;1.376524
9978.000000;1.375708
9977.000000;1.374180
9976.000000;1.372558
9975.000000;1.371137
9974.000000;1.370026
9973.000000;1.369163
9972.000000;1.368294
9971.000000;1.367269
9970.000000;1.366325
9969.000000;1.365850
9968.000000;1.365908
9967.000000;1.366145
9966.000000;1.366071
9965.000000;1.365354
9964.000000;1.364104
9963.000000;1.363023
9962.000000;1.362908
9961.000000;1.363702
9960.000000;1.364372
9959.000000;1.364100
9958.000000;1.363270
9957.000000;1.362759
9956.000000;1.362599
9955.000000;1.362023
9954.000000;1.360728
9953.000000;1.359345
9952.000000;1.358534
9951.000000;1.358153
9950.000000;1.357611
9949.000000;1.356674
9948.000000;1.355603
9947.000000;1.354733
9946.000000;1.354167
9945.000000;1.353780
9944.000000;1.353397
9943.000000;1.352959
9942.000000;1.352552
9941.000000;1.352258
9940.000000;1.352018
9939.000000;1.351736
9938.000000;1.351404
9937.000000;1.351012
9936.000000;1.350492
9935.000000;1.349903
9934.000000;1.349487
9933.000000;1.349272
9932.000000;1.348838
9931.000000;1.347754
9930.000000;1.346154
9929.000000;1.344627
9928.000000;1.343655
9927.000000;1.343395
9926.000000;1.343862
9925.000000;1.344972
9924.000000;1.346357
9923.000000;1.347390
9922.000000;1.347490
9921.000000;1.346440
9920.000000;1.344537
9919.000000;1.342451
9918.000000;1.340734
9917.000000;1.339388
9916.000000;1.338175
9915.000000;1.337331
9914.000000;1.337440
9913.000000;1.338379
9912.000000;1.338977
9911.000000;1.338312
9910.000000;1.336972
9909.000000;1.336338
9908.000000;1.336844
9907.000000;1.337591
9906.000000;1.337628
9905.000000;1.336978
9904.000000;1.336227
9903.000000;1.335628
9902.000000;1.334938
9901.000000;1.333882
9900.000000;1.332483
9899.000000;1.331001
9898.000000;1.329699
9897.000000;1.328681
9896.000000;1.327971
9895.000000;1.327683
9894.000000;1.327890
9893.000000;1.328307
9892.000000;1.328409
9891.000000;1.327966
9890.000000;1.327185
9889.000000;1.326298
9888.000000;1.325409
9887.000000;1.324807
9886.000000;1.324867
9885.000000;1.325343
9884.000000;1.325300
9883.000000;1.324213
9882.000000;1.322744
9881.000000;1.321904
9880.000000;1.321862
9879.000000;1.322087
9878.000000;1.322229
9877.000000;1.322232
9876.000000;1.321882
9875.000000;1.320999
9874.000000;1.319933
9873.000000;1.319188
9872.000000;1.318630
9871.000000;1.317718
9870.000000;1.316513
9869.000000;1.315816
9868.000000;1.316180
9867.000000;1.317261
9866.000000;1.318208
9865.000000;1.318366
9864.000000;1.317578
9863.000000;1.316224
9862.000000;1.314998
9861.000000;1.314316
9860.000000;1.313923
9859.000000;1.313339
9858.000000;1.312549
9857.000000;1.311915
9856.000000;1.311546
9855.000000;1.311189
9854.000000;1.310655
9853.000000;1.309904
9852.000000;1.308810
9851.000000;1.307340
9850.000000;1.305964
9849.000000;1.305407
9848.000000;1.305854
9847.000000;1.306724
9846.000000;1.307290
9845.000000;1.307261
9844.000000;1.306736
9843.000000;1.305875
9842.000000;1.304721
9841.000000;1.303271
9840.000000;1.301772
9839.000000;1.300915
9838.000000;1.301347
9837.000000;1.302727
9836.000000;1.303681
9835.000000;1.303192
9834.000000;1.301699
9833.000000;1.300268
9832.000000;1.299110
9831.000000;1.297654
9830.000000;1.295807
9829.000000;1.294283
9828.000000;1.293637
9827.000000;1.293683
9826.000000;1.293990
9825.000000;1.294344
9824.000000;1.294575
9823.000000;1.294489
9822.000000;1.294211
9821.000000;1.294140
9820.000000;1.294379
9819.000000;1.294554
9818.000000;1.294310
9817.000000;1.293650
9816.000000;1.292729
9815.000000;1.291717
9814.000000;1.290918
9813.000000;1.290609
9812.000000;1.290639
9811.000000;1.290534
9810.000000;1.290050
9809.000000;1.289334
9808.000000;1.288519
9807.000000;1.287598
9806.000000;1.286706
9805.000000;1.286090
9804.000000;1.285693
9803.000000;1.285153
9802.000000;1.284343
9801.000000;1.283556
9800.000000;1.283035
9799.000000;1.282682
9798.000000;1.282364
9797.000000;1.282171
9796.000000;1.282193
9795.000000;1.282298
9794.000000;1.282276
9793.000000;1.281989
9792.000000;1.281292
9791.000000;1.280064
9790.000000;1.278471
9789.000000;1.277010
9788.000000;1.276134
9787.000000;1.275896
9786.000000;1.275948
9785.000000;1.275796
9784.000000;1.275151
9783.000000;1.274191
9782.000000;1.273419
9781.000000;1.273107
9780.000000;1.273008
9779.000000;1.272765
9778.000000;1.272379
9777.000000;1.272005
9776.000000;1.271514
9775.000000;1.270665
9774.000000;1.269603
9773.000000;1.268824
9772.000000;1.268682
9771.000000;1.269192
9770.000000;1.270156
9769.000000;1.271151
9768.000000;1.271587
9767.000000;1.271217
9766.000000;1.270497
9765.000000;1.270043
9764.000000;1.269832
9763.000000;1.269371
9762.000000;1.268548
9761.000000;1.267803
9760.000000;1.267381
9759.000000;1.266901
9758.000000;1.265856
9757.000000;1.264224
9756.000000;1.262397
9755.000000;1.260755
9754.000000;1.259465
9753.000000;1.258552
9752.000000;1.258035
9751.000000;1.257971
9750.000000;1.258320
9749.000000;1.258759
9748.000000;1.258892
9747.000000;1.258704
9746.000000;1.258522
9745.000000;1.258364
9744.000000;1.257778
9743.000000;1.256600
9742.000000;1.255432
9741.000000;1.254898
9740.000000;1.254790
9739.000000;1.254484
9738.000000;1.253909
9737.000000;1.253520
9736.000000;1.253522
9735.000000;1.253736
9734.000000;1.254050
9733.000000;1.254358
9732.000000;1.254184
9731.000000;1.253082
9730.000000;1.251359
9729.000000;1.249822
9728.000000;1.248839
9727.000000;1.248234
9726.000000;1.247947
9725.000000;1.248067
9724.000000;1.248201
9723.000000;1.247614
9722.000000;1.246245
9721.000000;1.244929
9720.000000;1.244349
9719.000000;1.244327
9718.000000;1.244373
9717.000000;1.244355
9716.000000;1.244278
9715.000000;1.243923
9714.000000;1.243176
9713.000000;1.242399
9712.000000;1.242053
9711.000000;1.242135
9710.000000;1.242262
9709.000000;1.242113
9708.000000;1.241620
9707.000000;1.240875
9706.000000;1.240036
9705.000000;1.239216
9704.000000;1.238421
9703.000000;1.237725
9702.000000;1.237438
9701.000000;1.237814
9700.000000;1.238558
9699.000000;1.238911
9698.000000;1.238308
9697.000000;1.236808
9696.000000;1.234962
9695.000000;1.233490
9694.000000;1.232944
9693.000000;1.233273
9692.000000;1.233721
9691.000000;1.233489
9690.000000;1.232546
9689.000000;1.231489
9688.000000;1.230728
9687.000000;1.230235
9686.000000;1.230008
9685.000000;1.230235
9684.000000;1.230857
9683.000000;1.231413
9682.000000;1.231510
9681.000000;1.231149
9680.000000;1.230496
9679.000000;1.229682
9678.000000;1.228908
9677.000000;1.228386
9676.000000;1.228043
9675.000000;1.227573
9674.000000;1.226871
9673.000000;1.226140
9672.000000;1.225539
9671.000000;1.225022
9670.000000;1.224571
9669.000000;1.224267
9668.000000;1.224070
9667.000000;1.223848
9666.000000;1.223634
9665.000000;1.223492
9664.000000;1.223123
9663.000000;1.222053
9662.000000;1.220348
9661.000000;1.218779
9660.000000;1.218059
9659.000000;1.218159
9658.000000;1.218466
9657.000000;1.218346
9656.000000;1.217545
9655.000000;1.216338
9654.000000;1.215394
9653.000000;1.215222
9652.000000;1.215617
9651.000000;1.215826
9650.000000;1.215327
9649.000000;1.214282
9648.000000;1.213258
9647.000000;1.212736
9646.000000;1.212822
9645.000000;1.213119
9644.000000;1.212930
9643.000000;1.211944
9642.000000;1.210705
9641.000000;1.210013
9640.000000;1.209907
9639.000000;1.209711
9638.000000;1.209121
9637.000000;1.208682
9636.000000;1.208955
9635.000000;1.209671
9634.000000;1.210077
9633.000000;1.209834
9632.000000;1.209259
9631.000000;1.208815
9630.000000;1.208616
9629.000000;1.208384
9628.000000;1.207791
9627.000000;1.206896
9626.000000;1.206182
9625.000000;1.205971
9624.000000;1.205899
9623.000000;1.205290
9622.000000;1.204050
9621.000000;1.202830
9620.000000;1.202216
9619.000000;1.202116
9618.000000;1.202048
9617.000000;1.201719
9616.000000;1.201164
9615.000000;1.200547
9614.000000;1.200020
9613.000000;1.199634
9612.000000;1.199311
9611.000000;1.198988
9610.000000;1.198784
9609.000000;1.198791
9608.000000;1.198753
9607.000000;1.198230
9606.000000;1.197144
9605.000000;1.195894
9604.000000;1.194898
9603.000000;1.194270
9602.000000;1.193986
9601.000000;1.194009
9600.000000;1.194131
9599.000000;1.193966
9598.000000;1.193338
9597.000000;1.192526
9596.000000;1.191989
9595.000000;1.191930
9594.000000;1.192169
9593.000000;1.192321
9592.000000;1.192111
9591.000000;1.191660
9590.000000;1.191426
9589.000000;1.191680
9588.000000;1.192073
9587.000000;1.191958
9586.000000;1.191136
9585.000000;1.190007
9584.000000;1.188971
9583.000000;1.187977
9582.000000;1.186746
9581.000000;1.185234
9580.000000;1.183758
9579.000000;1.182806
9578.000000;1.182718
9577.000000;1.183397
9576.000000;1.184318
9575.000000;1.184947
9574.000000;1.185169
9573.000000;1.185145
9572.000000;1.184838
9571.000000;1.183967
9570.000000;1.182435
9569.000000;1.180585
9568.000000;1.178976
9567.000000;1.178025
9566.000000;1.177827
9565.000000;1.178120
9564.000000;1.178436
9563.000000;1.178445
9562.000000;1.178161
9561.000000;1.177770
9560.000000;1.177371
9559.000000;1.176990
9558.000000;1.176642
9557.000000;1.176228
9556.000000;1.175561
9555.000000;1.174705
9554.000000;1.174078
9553.000000;1.173962
9552.000000;1.174155
9551.000000;1.174334
9550.000000;1.174481
9549.000000;1.174569
9548.000000;1.174162
9547.000000;1.172933
9546.000000;1.171413
9545.000000;1.170586
9544.000000;1.170731
9543.000000;1.171157
9542.000000;1.171152
9541.000000;1.170703
9540.000000;1.170187
9539.000000;1.169811
9538.000000;1.169574
9537.000000;1.169408
9536.000000;1.169156
9535.000000;1.168658
9534.000000;1.167980
9533.000000;1.167363
9532.000000;1.166883
9531.000000;1.166416
9530.000000;1.165944
9529.000000;1.165629
9528.000000;1.165527
9527.000000;1.165479
9526.000000;1.165316
9525.000000;1.164941
9524.000000;1.164283
9523.000000;1.163476
9522.000000;1.163019
9521.000000;1.163322
9520.000000;1.164056
9519.000000;1.164302
9518.000000;1.163504
9517.000000;1.162011
9516.000000;1.160606
9515.000000;1.159812
9514.000000;1.159723
9513.000000;1.160146
9512.000000;1.160709
9511.000000;1.161034
9510.000000;1.160923
9509.000000;1.160298
9508.000000;1.159072
9507.000000;1.157373
9506.000000;1.155810
9505.000000;1.155058
9504.000000;1.155113
9503.000000;1.155264
9502.000000;1.154933
9501.000000;1.154231
9500.000000;1.153590
9499.000000;1.153185
9498.000000;1.152931
9497.000000;1.152777
9496.000000;1.152780
9495.000000;1.153000
9494.000000;1.153448
9493.000000;1.153990
9492.000000;1.154259
9491.000000;1.153878
9490.000000;1.152854
9489.000000;1.151570
9488.000000;1.150380
9487.000000;1.149400
9486.000000;1.148678
9485.000000;1.148266
9484.000000;1.148079
9483.000000;1.147917
9482.000000;1.147680
9481.000000;1.147380
9480.000000;1.146927
9479.000000;1.146182
9478.000000;1.145287
9477.000000;1.144635
9476.000000;1.144381
9475.000000;1.144209
9474.000000;1.143738
9473.000000;1.143011
9472.000000;1.142467
9471.000000;1.142480
9470.000000;1.142966
9469.000000;1.143345
9468.000000;1.142955
9467.000000;1.141669
9466.000000;1.140101
9465.000000;1.139028
9464.000000;1.138685
9463.000000;1.138767
9462.000000;1.138987
9461.000000;1.139308
9460.000000;1.139693
9459.000000;1.139997
9458.000000;1.140160
9457.000000;1.140201
9456.000000;1.139968
9455.000000;1.139216
9454.000000;1.138088
9453.000000;1.137195
9452.000000;1.136994
9451.000000;1.137235
9450.000000;1.137221
9449.000000;1.136561
9448.000000;1.135514
9447.000000;1.134650
9446.000000;1.134265
9445.000000;1.134120
9444.000000;1.133722
9443.000000;1.132886
9442.000000;1.131974
9441.000000;1.131532
9440.000000;1.131773
9439.000000;1.132469
9438.000000;1.133167
9437.000000;1.133394
9436.000000;1.132876
9435.000000;1.131806
9434.000000;1.130787
9433.000000;1.130259
9432.000000;1.130054
9431.000000;1.129737
9430.000000;1.129213
9429.000000;1.128703
9428.000000;1.128238
9427.000000;1.127611
9426.000000;1.126835
9425.000000;1.126250
9424.000000;1.126041
9423.000000;1.125942
9422.000000;1.125583
9421.000000;1.124927
9420.000000;1.124263
9419.000000;1.123882
9418.000000;1.123828
9417.000000;1.123867
9416.000000;1.123679
9415.000000;1.123199
9414.000000;1.122753
9413.000000;1.122698
9412.000000;1.123003
9411.000000;1.123333
9410.000000;1.123446
9409.000000;1.123299
9408.000000;1.122827
9407.000000;1.121962
9406.000000;1.120899
9405.000000;1.120046
9404.000000;1.119581
9403.000000;1.119238
9402.000000;1.118662
9401.000000;1.117863
9400.000000;1.117242
9399.000000;1.117161
9398.000000;1.117513
9397.000000;1.117711
9396.000000;1.117219
9395.000000;1.116138
9394.000000;1.115108
9393.000000;1.114594
9392.000000;1.114474
9391.000000;1.114417
9390.000000;1.114333
9389.000000;1.114237
9388.000000;1.113990
9387.000000;1.113542
9386.000000;1.113213
9385.000000;1.113309
9384.000000;1.113600
9383.000000;1.113594
9382.000000;1.113235
9381.000000;1.112930
9380.000000;1.112890
9379.000000;1.112860
9378.000000;1.112539
9377.000000;1.111922
9376.000000;1.111157
9375.000000;1.110355
9374.000000;1.109631
9373.000000;1.109061
9372.000000;1.108545
9371.000000;1.107905
9370.000000;1.107177
9369.000000;1.106600
9368.000000;1.106292
9367.000000;1.106118
9366.000000;1.105851
9365.000000;1.105353
9364.000000;1.104662
9363.000000;1.104022
9362.000000;1.103717
9361.000000;1.103697
9360.000000;1.103557
9359.000000;1.103093
9358.000000;1.102652
9357.000000;1.102620
9356.000000;1.102802
9355.000000;1.102714
9354.000000;1.102355
9353.000000;1.102176
9352.000000;1.102348
9351.000000;1.102535
9350.000000;1.102452
9349.000000;1.102202
9348.000000;1.101958
9347.000000;1.101699
9346.000000;1.101360
9345.000000;1.100945
9344.000000;1.100402
9343.000000;1.099666
9342.000000;1.098896
9341.000000;1.098383
9340.000000;1.098194
9339.000000;1.098168
9338.000000;1.098227
9337.000000;1.098349
9336.000000;1.098272
9335.000000;1.097677
9334.000000;1.096717
9333.000000;1.095948
9332.000000;1.095615
9331.000000;1.095382
9330.000000;1.094949
9329.000000;1.094533
9328.000000;1.094503
9327.000000;1.094813
9326.000000;1.095043
9325.000000;1.094818
9324.000000;1.094046
9323.000000;1.092959
9322.000000;1.092067
9321.000000;1.091858
9320.000000;1.092321
9319.000000;1.092866
9318.000000;1.092844
9317.000000;1.092096
9316.000000;1.090975
9315.000000;1.090009
9314.000000;1.089614
9313.000000;1.089892
9312.000000;1.090500
9311.000000;1.090819
9310.000000;1.090406
9309.000000;1.089337
9308.000000;1.088151
9307.000000;1.087503
9306.000000;1.087710
9305.000000;1.088455
9304.000000;1.088973
9303.000000;1.088764
9302.000000;1.088057
9301.000000;1.087405
9300.000000;1.086973
9299.000000;1.086511
9298.000000;1.085882
9297.000000;1.085217
9296.000000;1.084600
9295.000000;1.084021
9294.000000;1.083653
9293.000000;1.083750
9292.000000;1.084143
9291.000000;1.084206
9290.000000;1.083532
9289.000000;1.082377
9288.000000;1.081271
9287.000000;1.080479
9286.000000;1.080009
9285.000000;1.079857
9284.000000;1.079983
9283.000000;1.080218
9282.000000;1.080393
9281.000000;1.080453
9280.000000;1.080321
9279.000000;1.079835
9278.000000;1.078989
9277.000000;1.078077
9276.000000;1.077428
9275.000000;1.077096
9274.000000;1.076940
9273.000000;1.076907
9272.000000;1.077072
9271.000000;1.077417
9270.000000;1.077704
9269.000000;1.077620
9268.000000;1.077067
9267.000000;1.076323
9266.000000;1.075835
9265.000000;1.075806
9264.000000;1.076019
9263.000000;1.076133
9262.000000;1.076014
9261.000000;1.075719
9260.000000;1.075295
9259.000000;1.074831
9258.000000;1.074537
9257.000000;1.074492
9256.000000;1.074384
9255.000000;1.073824
9254.000000;1.072922
9253.000000;1.072258
9252.000000;1.072208
9251.000000;1.072532
9250.000000;1.072681
9249.000000;1.072320
9248.000000;1.071481
9247.000000;1.070454
9246.000000;1.069636
9245.000000;1.069301
9244.000000;1.069393
9243.000000;1.069604
9242.000000;1.069689
9241.000000;1.069591
9240.000000;1.069286
9239.000000;1.068715
9238.000000;1.067932
9237.000000;1.067171
9236.000000;1.066656
9235.000000;1.066423
9234.000000;1.066325
9233.000000;1.066129
9232.000000;1.065656
9231.000000;1.064951
9230.000000;1.064304
9229.000000;1.064002
9228.000000;1.064100
9227.000000;1.064467
9226.000000;1.064955
9225.000000;1.065383
9224.000000;1.065525
9223.000000;1.065318
9222.000000;1.064987
9221.000000;1.064751
9220.000000;1.064504
9219.000000;1.064025
9218.000000;1.063383
9217.000000;1.062848
9216.000000;1.062478
9215.000000;1.062076
9214.000000;1.061555
9213.000000;1.061056
9212.000000;1.060745
9211.000000;1.060728
9210.000000;1.061088
9209.000000;1.061712
9208.000000;1.062108
9207.000000;1.061797
9206.000000;1.060940
9205.000000;1.060264
9204.000000;1.060291
9203.000000;1.060877
9202.000000;1.061506
9201.000000;1.061734
9200.000000;1.061326
9199.000000;1.060306
9198.000000;1.059041
9197.000000;1.058038
9196.000000;1.057503
9195.000000;1.057248
9194.000000;1.057064
9193.000000;1.056912
9192.000000;1.056719
9191.000000;1.056322
9190.000000;1.055753
9189.000000;1.055318
9188.000000;1.055161
9187.000000;1.054989
9186.000000;1.054459
9185.000000;1.053655
9184.000000;1.052977
9183.000000;1.052666
9182.000000;1.052633
9181.000000;1.052687
9180.000000;1.052713
9179.000000;1.052644
9178.000000;1.052437
9177.000000;1.052151
9176.000000;1.051978
9175.000000;1.052100
9174.000000;1.052427
9173.000000;1.052529
9172.000000;1.051986
9171.000000;1.050908
9170.000000;1.049974
9169.000000;1.049783
9168.000000;1.050249
9167.000000;1.050762
9166.000000;1.050835
9165.000000;1.050416
9164.000000;1.049682
9163.000000;1.048868
9162.000000;1.048320
9161.000000;1.048334
9160.000000;1.048767
9159.000000;1.049016
9158.000000;1.048573
9157.000000;1.047548
9156.000000;1.046535
9155.000000;1.046011
9154.000000;1.045964
9153.000000;1.046024
9152.000000;1.045899
9151.000000;1.045673
9150.000000;1.045634
9149.000000;1.045842
9148.000000;1.046048
9147.000000;1.046067
9146.000000;1.046013
9145.000000;1.045988
9144.000000;1.045761
9143.000000;1.045053
9142.000000;1.044036
9141.000000;1.043194
9140.000000;1.042733
9139.000000;1.042441
9138.000000;1.042132
9137.000000;1.041887
9136.000000;1.041799
9135.000000;1.041781
9134.000000;1.041771
9133.000000;1.041878
9132.000000;1.042188
9131.000000;1.042574
9130.000000;1.042822
9129.000000;1.042812
9128.000000;1.042518
9127.000000;1.041977
9126.000000;1.041336
9125.000000;1.040776
9124.000000;1.040319
9123.000000;1.039817
9122.000000;1.039162
9121.000000;1.038372
9120.000000;1.037491
9119.000000;1.036620
9118.000000;1.036075
9117.000000;1.036247
9116.000000;1.037156
9115.000000;1.038272
9114.000000;1.038936
9113.000000;1.038865
9112.000000;1.038191
9111.000000;1.037167
9110.000000;1.036052
9109.000000;1.035175
9108.000000;1.034850
9107.000000;1.035100
9106.000000;1.035555
9105.000000;1.035720
9104.000000;1.035394
9103.000000;1.034784
9102.000000;1.034204
9101.000000;1.033758
9100.000000;1.033399
9099.000000;1.033190
9098.000000;1.033268
9097.000000;1.033561
9096.000000;1.033763
9095.000000;1.033728
9094.000000;1.033672
9093.000000;1.033827
9092.000000;1.034061
9091.000000;1.034044
9090.000000;1.033682
9089.000000;1.033159
9088.000000;1.032669
9087.000000;1.032295
9086.000000;1.032076
9085.000000;1.031955
9084.000000;1.031716
9083.000000;1.031191
9082.000000;1.030521
9081.000000;1.030026
9080.000000;1.029835
9079.000000;1.029815
9078.000000;1.029796
9077.000000;1.029704
9076.000000;1.029514
9075.000000;1.029250
9074.000000;1.029010
9073.000000;1.028830
9072.000000;1.028587
9071.000000;1.028193
9070.000000;1.027802
9069.000000;1.027637
9068.000000;1.027672
9067.000000;1.027655
9066.000000;1.027403
9065.000000;1.026894
9064.000000;1.026181
9063.000000;1.025439
9062.000000;1.025004
9061.000000;1.025101
9060.000000;1.025539
9059.000000;1.025878
9058.000000;1.025894
9057.000000;1.025688
9056.000000;1.025410
9055.000000;1.025143
9054.000000;1.025013
9053.000000;1.025126
