Criado como novo conjunto de dados;"e2410_daniel_v2.spp","34023.5 Secs"
cm-1;Abs
10000.000000;0.357038
9999.000000;0.356608
9998.000000;0.356447
9997.000000;0.356470
9996.000000;0.356411
9995.000000;0.356136
9994.000000;0.355667
9993.000000;0.355103
9992.000000;0.354425
9991.000000;0.353614
9990.000000;0.352789
9989.000000;0.352156
9988.000000;0.351800
9987.000000;0.351598
9986.000000;0.351363
9985.000000;0.351002
9984.000000;0.350544
9983.000000;0.350057
9982.000000;0.349571
9981.000000;0.349067
9980.000000;0.348511
9979.000000;0.347907
9978.000000;0.347287
9977.000000;0.346676
9976.000000;0.346088
9975.000000;0.345542
9974.000000;0.345052
9973.000000;0.344603
9972.000000;0.344168
9971.000000;0.343728
9970.000000;0.343241
9969.000000;0.342616
9968.000000;0.341824
9967.000000;0.341033
9966.000000;0.340502
9965.000000;0.340295
9964.000000;0.340190
9963.000000;0.339904
9962.000000;0.339354
9961.000000;0.338673
9960.000000;0.338065
9959.000000;0.337667
9958.000000;0.337472
9957.000000;0.337304
9956.000000;0.336962
9955.000000;0.336410
9954.000000;0.335772
9953.000000;0.335125
9952.000000;0.334432
9951.000000;0.333707
9950.000000;0.333091
9949.000000;0.332678
9948.000000;0.332379
9947.000000;0.332053
9946.000000;0.331667
9945.000000;0.331229
9944.000000;0.330667
9943.000000;0.329935
9942.000000;0.329156
9941.000000;0.328520
9940.000000;0.328071
9939.000000;0.327714
9938.000000;0.327394
9937.000000;0.327134
9936.000000;0.326906
9935.000000;0.326588
9934.000000;0.326073
9933.000000;0.325367
9932.000000;0.324569
9931.000000;0.323804
9930.000000;0.323152
9929.000000;0.322593
9928.000000;0.322038
9927.000000;0.321465
9926.000000;0.320974
9925.000000;0.320648
9924.000000;0.320427
9923.000000;0.320181
9922.000000;0.319869
9921.000000;0.319540
9920.000000;0.319219
9919.000000;0.318865
9918.000000;0.318435
9917.000000;0.317915
9916.000000;0.317315
9915.000000;0.316688
9914.000000;0.316115
9913.000000;0.315625
9912.000000;0.315166
9911.000000;0.314687
9910.000000;0.314196
9909.000000;0.313704
9908.000000;0.313175
9907.000000;0.312594
9906.000000;0.312011
9905.000000;0.311461
9904.000000;0.310898
9903.000000;0.310292
9902.000000;0.309731
9901.000000;0.309336
9900.000000;0.309091
9899.000000;0.308845
9898.000000;0.308446
9897.000000;0.307836
9896.000000;0.307069
9895.000000;0.306314
9894.000000;0.305760
9893.000000;0.305445
9892.000000;0.305192
9891.000000;0.304798
9890.000000;0.304239
9889.000000;0.303663
9888.000000;0.303217
9887.000000;0.302948
9886.000000;0.302804
9885.000000;0.302661
9884.000000;0.302390
9883.000000;0.301960
9882.000000;0.301430
9881.000000;0.300813
9880.000000;0.300043
9879.000000;0.299142
9878.000000;0.298290
9877.000000;0.297653
9876.000000;0.297211
9875.000000;0.296853
9874.000000;0.296538
9873.000000;0.296256
9872.000000;0.295923
9871.000000;0.295460
9870.000000;0.294907
9869.000000;0.294346
9868.000000;0.293781
9867.000000;0.293208
9866.000000;0.292711
9865.000000;0.292342
9864.000000;0.291967
9863.000000;0.291422
9862.000000;0.290762
9861.000000;0.290193
9860.000000;0.289768
9859.000000;0.289347
9858.000000;0.288849
9857.000000;0.288357
9856.000000;0.287938
9855.000000;0.287521
9854.000000;0.287045
9853.000000;0.286564
9852.000000;0.286145
9851.000000;0.285736
9850.000000;0.285228
9849.000000;0.284592
9848.000000;0.283914
9847.000000;0.283321
9846.000000;0.282886
9845.000000;0.282546
9844.000000;0.282142
9843.000000;0.281597
9842.000000;0.281038
9841.000000;0.280649
9840.000000;0.280406
9839.000000;0.280081
9838.000000;0.279524
9837.000000;0.278825
9836.000000;0.278179
9835.000000;0.277659
9834.000000;0.277208
9833.000000;0.276774
9832.000000;0.276376
9831.000000;0.276057
9830.000000;0.275791
9829.000000;0.275456
9828.000000;0.274920
9827.000000;0.274194
9826.000000;0.273468
9825.000000;0.272953
9824.000000;0.272687
9823.000000;0.272537
9822.000000;0.272358
9821.000000;0.272074
9820.000000;0.271643
9819.000000;0.271053
9818.000000;0.270367
9817.000000;0.269701
9816.000000;0.269120
9815.000000;0.268616
9814.000000;0.268186
9813.000000;0.267851
9812.000000;0.267576
9811.000000;0.267242
9810.000000;0.266744
9809.000000;0.266098
9808.000000;0.265412
9807.000000;0.264797
9806.000000;0.264295
9805.000000;0.263862
9804.000000;0.263408
9803.000000;0.262875
9802.000000;0.262296
9801.000000;0.261755
9800.000000;0.261317
9799.000000;0.260999
9798.000000;0.260783
9797.000000;0.260613
9796.000000;0.260392
9795.000000;0.260040
9794.000000;0.259558
9793.000000;0.259000
9792.000000;0.258390
9791.000000;0.257722
9790.000000;0.257033
9789.000000;0.256420
9788.000000;0.255963
9787.000000;0.255635
9786.000000;0.255316
9785.000000;0.254895
9784.000000;0.254379
9783.000000;0.253882
9782.000000;0.253485
9781.000000;0.253135
9780.000000;0.252724
9779.000000;0.252252
9778.000000;0.251838
9777.000000;0.251534
9776.000000;0.251231
9775.000000;0.250785
9774.000000;0.250167
9773.000000;0.249445
9772.000000;0.248700
9771.000000;0.248029
9770.000000;0.247541
9769.000000;0.247272
9768.000000;0.247103
9767.000000;0.246856
9766.000000;0.246431
9765.000000;0.245827
9764.000000;0.245092
9763.000000;0.244336
9762.000000;0.243722
9761.000000;0.243329
9760.000000;0.243048
9759.000000;0.242691
9758.000000;0.242195
9757.000000;0.241664
9756.000000;0.241224
9755.000000;0.240932
9754.000000;0.240774
9753.000000;0.240676
9752.000000;0.240499
9751.000000;0.240118
9750.000000;0.239517
9749.000000;0.238784
9748.000000;0.238025
9747.000000;0.237314
9746.000000;0.236698
9745.000000;0.236191
9744.000000;0.235790
9743.000000;0.235498
9742.000000;0.235298
9741.000000;0.235076
9740.000000;0.234667
9739.000000;0.234042
9738.000000;0.233361
9737.000000;0.232780
9736.000000;0.232280
9735.000000;0.231796
9734.000000;0.231397
9733.000000;0.231183
9732.000000;0.231060
9731.000000;0.230791
9730.000000;0.230284
9729.000000;0.229675
9728.000000;0.229105
9727.000000;0.228568
9726.000000;0.228008
9725.000000;0.227436
9724.000000;0.226881
9723.000000;0.226325
9722.000000;0.225768
9721.000000;0.225281
9720.000000;0.224923
9719.000000;0.224659
9718.000000;0.224398
9717.000000;0.224104
9716.000000;0.223793
9715.000000;0.223478
9714.000000;0.223130
9713.000000;0.222690
9712.000000;0.222116
9711.000000;0.221447
9710.000000;0.220798
9709.000000;0.220259
9708.000000;0.219786
9707.000000;0.219280
9706.000000;0.218740
9705.000000;0.218287
9704.000000;0.217993
9703.000000;0.217781
9702.000000;0.217519
9701.000000;0.217176
9700.000000;0.216814
9699.000000;0.216480
9698.000000;0.216163
9697.000000;0.215814
9696.000000;0.215387
9695.000000;0.214863
9694.000000;0.214283
9693.000000;0.213730
9692.000000;0.213253
9691.000000;0.212813
9690.000000;0.212346
9689.000000;0.211864
9688.000000;0.211443
9687.000000;0.211111
9686.000000;0.210805
9685.000000;0.210460
9684.000000;0.210096
9683.000000;0.209757
9682.000000;0.209399
9681.000000;0.208905
9680.000000;0.208235
9679.000000;0.207492
9678.000000;0.206818
9677.000000;0.206282
9676.000000;0.205879
9675.000000;0.205585
9674.000000;0.205333
9673.000000;0.205000
9672.000000;0.204512
9671.000000;0.203938
9670.000000;0.203388
9669.000000;0.202865
9668.000000;0.202309
9667.000000;0.201776
9666.000000;0.201423
9665.000000;0.201278
9664.000000;0.201151
9663.000000;0.200845
9662.000000;0.200356
9661.000000;0.199818
9660.000000;0.199325
9659.000000;0.198894
9658.000000;0.198518
9657.000000;0.198166
9656.000000;0.197760
9655.000000;0.197250
9654.000000;0.196694
9653.000000;0.196206
9652.000000;0.195844
9651.000000;0.195571
9650.000000;0.195297
9649.000000;0.194931
9648.000000;0.194440
9647.000000;0.193911
9646.000000;0.193490
9645.000000;0.193222
9644.000000;0.192990
9643.000000;0.192640
9642.000000;0.192122
9641.000000;0.191482
9640.000000;0.190792
9639.000000;0.190144
9638.000000;0.189633
9637.000000;0.189267
9636.000000;0.188929
9635.000000;0.188522
9634.000000;0.188095
9633.000000;0.187764
9632.000000;0.187550
9631.000000;0.187355
9630.000000;0.187077
9629.000000;0.186667
9628.000000;0.186126
9627.000000;0.185504
9626.000000;0.184902
9625.000000;0.184397
9624.000000;0.183988
9623.000000;0.183649
9622.000000;0.183383
9621.000000;0.183159
9620.000000;0.182867
9619.000000;0.182408
9618.000000;0.181830
9617.000000;0.181289
9616.000000;0.180876
9615.000000;0.180551
9614.000000;0.180211
9613.000000;0.179800
9612.000000;0.179343
9611.000000;0.178922
9610.000000;0.178604
9609.000000;0.178349
9608.000000;0.178050
9607.000000;0.177657
9606.000000;0.177234
9605.000000;0.176827
9604.000000;0.176385
9603.000000;0.175858
9602.000000;0.175326
9601.000000;0.174924
9600.000000;0.174676
9599.000000;0.174474
9598.000000;0.174187
9597.000000;0.173730
9596.000000;0.173079
9595.000000;0.172308
9594.000000;0.171598
9593.000000;0.171101
9592.000000;0.170824
9591.000000;0.170671
9590.000000;0.170550
9589.000000;0.170388
9588.000000;0.170105
9587.000000;0.169676
9586.000000;0.169183
9585.000000;0.168703
9584.000000;0.168215
9583.000000;0.167675
9582.000000;0.167151
9581.000000;0.166747
9580.000000;0.166439
9579.000000;0.166110
9578.000000;0.165738
9577.000000;0.165399
9576.000000;0.165107
9575.000000;0.164766
9574.000000;0.164324
9573.000000;0.163835
9572.000000;0.163333
9571.000000;0.162777
9570.000000;0.162171
9569.000000;0.161631
9568.000000;0.161257
9567.000000;0.160988
9566.000000;0.160672
9565.000000;0.160254
9564.000000;0.159803
9563.000000;0.159404
9562.000000;0.159055
9561.000000;0.158699
9560.000000;0.158314
9559.000000;0.157937
9558.000000;0.157605
9557.000000;0.157285
9556.000000;0.156896
9555.000000;0.156417
9554.000000;0.155940
9553.000000;0.155575
9552.000000;0.155333
9551.000000;0.155129
9550.000000;0.154872
9549.000000;0.154527
9548.000000;0.154115
9547.000000;0.153690
9546.000000;0.153307
9545.000000;0.152966
9544.000000;0.152614
9543.000000;0.152236
9542.000000;0.151885
9541.000000;0.151592
9540.000000;0.151290
9539.000000;0.150907
9538.000000;0.150465
9537.000000;0.150017
9536.000000;0.149537
9535.000000;0.148990
9534.000000;0.148466
9533.000000;0.148132
9532.000000;0.148019
9531.000000;0.147971
9530.000000;0.147807
9529.000000;0.147471
9528.000000;0.146986
9527.000000;0.146397
9526.000000;0.145778
9525.000000;0.145233
9524.000000;0.144807
9523.000000;0.144464
9522.000000;0.144157
9521.000000;0.143884
9520.000000;0.143627
9519.000000;0.143320
9518.000000;0.142926
9517.000000;0.142503
9516.000000;0.142128
9515.000000;0.141793
9514.000000;0.141406
9513.000000;0.140913
9512.000000;0.140370
9511.000000;0.139901
9510.000000;0.139586
9509.000000;0.139378
9508.000000;0.139125
9507.000000;0.138714
9506.000000;0.138182
9505.000000;0.137677
9504.000000;0.137308
9503.000000;0.137051
9502.000000;0.136821
9501.000000;0.136561
9500.000000;0.136253
9499.000000;0.135885
9498.000000;0.135460
9497.000000;0.135010
9496.000000;0.134576
9495.000000;0.134170
9494.000000;0.133790
9493.000000;0.133449
9492.000000;0.133161
9491.000000;0.132892
9490.000000;0.132551
9489.000000;0.132066
9488.000000;0.131465
9487.000000;0.130872
9486.000000;0.130417
9485.000000;0.130149
9484.000000;0.130017
9483.000000;0.129907
9482.000000;0.129695
9481.000000;0.129308
9480.000000;0.128786
9479.000000;0.128263
9478.000000;0.127840
9477.000000;0.127500
9476.000000;0.127160
9475.000000;0.126804
9474.000000;0.126487
9473.000000;0.126216
9472.000000;0.125908
9471.000000;0.125507
9470.000000;0.125056
9469.000000;0.124623
9468.000000;0.124196
9467.000000;0.123741
9466.000000;0.123311
9465.000000;0.123025
9464.000000;0.122916
9463.000000;0.122850
9462.000000;0.122633
9461.000000;0.122184
9460.000000;0.121606
9459.000000;0.121086
9458.000000;0.120712
9457.000000;0.120394
9456.000000;0.119986
9455.000000;0.119463
9454.000000;0.118945
9453.000000;0.118544
9452.000000;0.118267
9451.000000;0.118065
9450.000000;0.117907
9449.000000;0.117765
9448.000000;0.117582
9447.000000;0.117316
9446.000000;0.116985
9445.000000;0.116625
9444.000000;0.116233
9443.000000;0.115789
9442.000000;0.115298
9441.000000;0.114782
9440.000000;0.114263
9439.000000;0.113797
9438.000000;0.113459
9437.000000;0.113251
9436.000000;0.113060
9435.000000;0.112782
9434.000000;0.112438
9433.000000;0.112123
9432.000000;0.111861
9431.000000;0.111588
9430.000000;0.111253
9429.000000;0.110870
9428.000000;0.110473
9427.000000;0.110087
9426.000000;0.109729
9425.000000;0.109400
9424.000000;0.109067
9423.000000;0.108703
9422.000000;0.108336
9421.000000;0.108022
9420.000000;0.107775
9419.000000;0.107564
9418.000000;0.107354
9417.000000;0.107117
9416.000000;0.106825
9415.000000;0.106477
9414.000000;0.106111
9413.000000;0.105759
9412.000000;0.105404
9411.000000;0.105033
9410.000000;0.104682
9409.000000;0.104363
9408.000000;0.104005
9407.000000;0.103536
9406.000000;0.103015
9405.000000;0.102587
9404.000000;0.102299
9403.000000;0.102067
9402.000000;0.101814
9401.000000;0.101559
9400.000000;0.101327
9399.000000;0.101063
9398.000000;0.100697
9397.000000;0.100253
9396.000000;0.099815
9395.000000;0.099425
9394.000000;0.099091
9393.000000;0.098831
9392.000000;0.098653
9391.000000;0.098478
9390.000000;0.098172
9389.000000;0.097702
9388.000000;0.097203
9387.000000;0.096845
9386.000000;0.096651
9385.000000;0.096490
9384.000000;0.096243
9383.000000;0.095917
9382.000000;0.095581
9381.000000;0.095247
9380.000000;0.094860
9379.000000;0.094388
9378.000000;0.093873
9377.000000;0.093401
9376.000000;0.093053
9375.000000;0.092850
9374.000000;0.092731
9373.000000;0.092577
9372.000000;0.092301
9371.000000;0.091923
9370.000000;0.091525
9369.000000;0.091154
9368.000000;0.090817
9367.000000;0.090524
9366.000000;0.090281
9365.000000;0.090036
9364.000000;0.089705
9363.000000;0.089276
9362.000000;0.088830
9361.000000;0.088452
9360.000000;0.088158
9359.000000;0.087920
9358.000000;0.087703
9357.000000;0.087457
9356.000000;0.087168
9355.000000;0.086902
9354.000000;0.086744
9353.000000;0.086656
9352.000000;0.086476
9351.000000;0.086112
9350.000000;0.085655
9349.000000;0.085241
9348.000000;0.084878
9347.000000;0.084496
9346.000000;0.084096
9345.000000;0.083754
9344.000000;0.083500
9343.000000;0.083269
9342.000000;0.082978
9341.000000;0.082605
9340.000000;0.082197
9339.000000;0.081851
9338.000000;0.081656
9337.000000;0.081596
9336.000000;0.081521
9335.000000;0.081276
9334.000000;0.080859
9333.000000;0.080415
9332.000000;0.080078
9331.000000;0.079856
9330.000000;0.079647
9329.000000;0.079333
9328.000000;0.078870
9327.000000;0.078318
9326.000000;0.077788
9325.000000;0.077332
9324.000000;0.076934
9323.000000;0.076600
9322.000000;0.076394
9321.000000;0.076333
9320.000000;0.076299
9319.000000;0.076135
9318.000000;0.075819
9317.000000;0.075459
9316.000000;0.075134
9315.000000;0.074811
9314.000000;0.074433
9313.000000;0.074022
9312.000000;0.073666
9311.000000;0.073416
9310.000000;0.073228
9309.000000;0.072995
9308.000000;0.072651
9307.000000;0.072255
9306.000000;0.071948
9305.000000;0.071806
9304.000000;0.071747
9303.000000;0.071617
9302.000000;0.071330
9301.000000;0.070920
9300.000000;0.070483
9299.000000;0.070120
9298.000000;0.069891
9297.000000;0.069765
9296.000000;0.069626
9295.000000;0.069382
9294.000000;0.069053
9293.000000;0.068718
9292.000000;0.068394
9291.000000;0.068014
9290.000000;0.067539
9289.000000;0.067032
9288.000000;0.066623
9287.000000;0.066403
9286.000000;0.066354
9285.000000;0.066353
9284.000000;0.066248
9283.000000;0.065985
9282.000000;0.065629
9281.000000;0.065266
9280.000000;0.064890
9279.000000;0.064452
9278.000000;0.063988
9277.000000;0.063622
9276.000000;0.063440
9275.000000;0.063395
9274.000000;0.063358
9273.000000;0.063235
9272.000000;0.063006
9271.000000;0.062702
9270.000000;0.062370
9269.000000;0.062061
9268.000000;0.061811
9267.000000;0.061619
9266.000000;0.061442
9265.000000;0.061225
9264.000000;0.060938
9263.000000;0.060603
9262.000000;0.060252
9261.000000;0.059895
9260.000000;0.059524
9259.000000;0.059157
9258.000000;0.058841
9257.000000;0.058598
9256.000000;0.058401
9255.000000;0.058206
9254.000000;0.057987
9253.000000;0.057723
9252.000000;0.057386
9251.000000;0.056983
9250.000000;0.056577
9249.000000;0.056248
9248.000000;0.056032
9247.000000;0.055907
9246.000000;0.055801
9245.000000;0.055627
9244.000000;0.055342
9243.000000;0.055001
9242.000000;0.054704
9241.000000;0.054472
9240.000000;0.054223
9239.000000;0.053898
9238.000000;0.053552
9237.000000;0.053273
9236.000000;0.053061
9235.000000;0.052838
9234.000000;0.052562
9233.000000;0.052266
9232.000000;0.052007
9231.000000;0.051817
9230.000000;0.051686
9229.000000;0.051560
9228.000000;0.051356
9227.000000;0.051050
9226.000000;0.050722
9225.000000;0.050468
9224.000000;0.050284
9223.000000;0.050074
9222.000000;0.049784
9221.000000;0.049449
9220.000000;0.049125
9219.000000;0.048812
9218.000000;0.048495
9217.000000;0.048213
9216.000000;0.048021
9215.000000;0.047916
9214.000000;0.047831
9213.000000;0.047693
9212.000000;0.047474
9211.000000;0.047166
9210.000000;0.046765
9209.000000;0.046297
9208.000000;0.045847
9207.000000;0.045508
9206.000000;0.045295
9205.000000;0.045136
9204.000000;0.044953
9203.000000;0.044740
9202.000000;0.044534
9201.000000;0.044331
9200.000000;0.044094
9199.000000;0.043822
9198.000000;0.043579
9197.000000;0.043417
9196.000000;0.043311
9195.000000;0.043185
9194.000000;0.042974
9193.000000;0.042655
9192.000000;0.042253
9191.000000;0.041832
9190.000000;0.041464
9189.000000;0.041185
9188.000000;0.040985
9187.000000;0.040833
9186.000000;0.040705
9185.000000;0.040584
9184.000000;0.040452
9183.000000;0.040284
9182.000000;0.040055
9181.000000;0.039761
9180.000000;0.039458
9179.000000;0.039221
9178.000000;0.039062
9177.000000;0.038889
9176.000000;0.038614
9175.000000;0.038269
9174.000000;0.037962
9173.000000;0.037730
9172.000000;0.037504
9171.000000;0.037220
9170.000000;0.036908
9169.000000;0.036649
9168.000000;0.036498
9167.000000;0.036447
9166.000000;0.036432
9165.000000;0.036351
9164.000000;0.036132
9163.000000;0.035810
9162.000000;0.035495
9161.000000;0.035248
9160.000000;0.035036
9159.000000;0.034798
9158.000000;0.034512
9157.000000;0.034196
9156.000000;0.033903
9155.000000;0.033701
9154.000000;0.033600
9153.000000;0.033491
9152.000000;0.033247
9151.000000;0.032893
9150.000000;0.032595
9149.000000;0.032436
9148.000000;0.032319
9147.000000;0.032119
9146.000000;0.031852
9145.000000;0.031600
9144.000000;0.031364
9143.000000;0.031090
9142.000000;0.030795
9141.000000;0.030554
9140.000000;0.030366
9139.000000;0.030146
9138.000000;0.029838
9137.000000;0.029482
9136.000000;0.029152
9135.000000;0.028893
9134.000000;0.028727
9133.000000;0.028645
9132.000000;0.028585
9131.000000;0.028453
9130.000000;0.028220
9129.000000;0.027960
9128.000000;0.027769
9127.000000;0.027653
9126.000000;0.027524
9125.000000;0.027294
9124.000000;0.026971
9123.000000;0.026639
9122.000000;0.026373
9121.000000;0.026174
9120.000000;0.026013
9119.000000;0.025878
9118.000000;0.025749
9117.000000;0.025571
9116.000000;0.025297
9115.000000;0.024967
9114.000000;0.024679
9113.000000;0.024475
9112.000000;0.024305
9111.000000;0.024113
9110.000000;0.023905
9109.000000;0.023713
9108.000000;0.023531
9107.000000;0.023332
9106.000000;0.023103
9105.000000;0.022854
9104.000000;0.022616
9103.000000;0.022433
9102.000000;0.022320
9101.000000;0.022210
9100.000000;0.022000
9099.000000;0.021675
9098.000000;0.021352
9097.000000;0.021171
9096.000000;0.021163
9095.000000;0.021238
9094.000000;0.021254
9093.000000;0.021094
9092.000000;0.020751
9091.000000;0.020372
9090.000000;0.020153
9089.000000;0.020140
9088.000000;0.020177
9087.000000;0.020087
9086.000000;0.019848
9085.000000;0.019560
9084.000000;0.019278
9083.000000;0.018965
9082.000000;0.018584
9081.000000;0.018157
9080.000000;0.017761
9079.000000;0.017486
9078.000000;0.017387
9077.000000;0.017412
9076.000000;0.017414
9075.000000;0.017267
9074.000000;0.016983
9073.000000;0.016669
9072.000000;0.016401
9071.000000;0.016182
9070.000000;0.016001
9069.000000;0.015865
9068.000000;0.015768
9067.000000;0.015671
9066.000000;0.015528
9065.000000;0.015326
9064.000000;0.015098
9063.000000;0.014889
9062.000000;0.014728
9061.000000;0.014599
9060.000000;0.014452
9059.000000;0.014245
9058.000000;0.013966
9057.000000;0.013634
9056.000000;0.013301
9055.000000;0.013041
9054.000000;0.012894
9053.000000;0.012811
