Criado como novo conjunto de dados;"e2410_daniel_v2.spp","29343.5 Secs"
cm-1;Abs
10000.000000;0.629140
9999.000000;0.629068
9998.000000;0.628921
9997.000000;0.628712
9996.000000;0.628349
9995.000000;0.627628
9994.000000;0.626481
9993.000000;0.625142
9992.000000;0.624059
9991.000000;0.623553
9990.000000;0.623518
9989.000000;0.623462
9988.000000;0.622963
9987.000000;0.622066
9986.000000;0.621161
9985.000000;0.620511
9984.000000;0.620030
9983.000000;0.619526
9982.000000;0.618963
9981.000000;0.618403
9980.000000;0.617869
9979.000000;0.617393
9978.000000;0.617036
9977.000000;0.616740
9976.000000;0.616294
9975.000000;0.615609
9974.000000;0.614910
9973.000000;0.614484
9972.000000;0.614310
9971.000000;0.614096
9970.000000;0.613639
9969.000000;0.613015
9968.000000;0.612434
9967.000000;0.612045
9966.000000;0.611824
9965.000000;0.611557
9964.000000;0.610994
9963.000000;0.610135
9962.000000;0.609325
9961.000000;0.608920
9960.000000;0.608900
9959.000000;0.608916
9958.000000;0.608690
9957.000000;0.608235
9956.000000;0.607710
9955.000000;0.607205
9954.000000;0.606679
9953.000000;0.606024
9952.000000;0.605167
9951.000000;0.604192
9950.000000;0.603322
9949.000000;0.602712
9948.000000;0.602289
9947.000000;0.601875
9946.000000;0.601433
9945.000000;0.601086
9944.000000;0.600922
9943.000000;0.600857
9942.000000;0.600694
9941.000000;0.600264
9940.000000;0.599580
9939.000000;0.598868
9938.000000;0.598366
9937.000000;0.598027
9936.000000;0.597560
9935.000000;0.596847
9934.000000;0.596154
9933.000000;0.595780
9932.000000;0.595646
9931.000000;0.595417
9930.000000;0.594938
9929.000000;0.594316
9928.000000;0.593658
9927.000000;0.592981
9926.000000;0.592357
9925.000000;0.591873
9924.000000;0.591445
9923.000000;0.590903
9922.000000;0.590269
9921.000000;0.589763
9920.000000;0.589460
9919.000000;0.589186
9918.000000;0.588809
9917.000000;0.588425
9916.000000;0.588142
9915.000000;0.587856
9914.000000;0.587398
9913.000000;0.586775
9912.000000;0.586120
9911.000000;0.585481
9910.000000;0.584792
9909.000000;0.584014
9908.000000;0.583196
9907.000000;0.582419
9906.000000;0.581772
9905.000000;0.581348
9904.000000;0.581189
9903.000000;0.581187
9902.000000;0.581070
9901.000000;0.580550
9900.000000;0.579554
9899.000000;0.578341
9898.000000;0.577325
9897.000000;0.576696
9896.000000;0.576258
9895.000000;0.575704
9894.000000;0.575016
9893.000000;0.574458
9892.000000;0.574211
9891.000000;0.574155
9890.000000;0.574044
9889.000000;0.573781
9888.000000;0.573449
9887.000000;0.573129
9886.000000;0.572778
9885.000000;0.572290
9884.000000;0.571649
9883.000000;0.571014
9882.000000;0.570607
9881.000000;0.570472
9880.000000;0.570376
9879.000000;0.570010
9878.000000;0.569283
9877.000000;0.568363
9876.000000;0.567493
9875.000000;0.566814
9874.000000;0.566357
9873.000000;0.566069
9872.000000;0.565834
9871.000000;0.565520
9870.000000;0.565052
9869.000000;0.564430
9868.000000;0.563702
9867.000000;0.562962
9866.000000;0.562308
9865.000000;0.561775
9864.000000;0.561329
9863.000000;0.560967
9862.000000;0.560736
9861.000000;0.560589
9860.000000;0.560342
9859.000000;0.559884
9858.000000;0.559343
9857.000000;0.558922
9856.000000;0.558612
9855.000000;0.558228
9854.000000;0.557671
9853.000000;0.557016
9852.000000;0.556324
9851.000000;0.555579
9850.000000;0.554825
9849.000000;0.554233
9848.000000;0.553917
9847.000000;0.553786
9846.000000;0.553642
9845.000000;0.553360
9844.000000;0.552933
9843.000000;0.552405
9842.000000;0.551850
9841.000000;0.551370
9840.000000;0.551039
9839.000000;0.550794
9838.000000;0.550423
9837.000000;0.549729
9836.000000;0.548793
9835.000000;0.547991
9834.000000;0.547645
9833.000000;0.547645
9832.000000;0.547555
9831.000000;0.547111
9830.000000;0.546462
9829.000000;0.545864
9828.000000;0.545320
9827.000000;0.544687
9826.000000;0.543980
9825.000000;0.543338
9824.000000;0.542777
9823.000000;0.542192
9822.000000;0.541594
9821.000000;0.541146
9820.000000;0.540948
9819.000000;0.540931
9818.000000;0.540971
9817.000000;0.540946
9816.000000;0.540687
9815.000000;0.540039
9814.000000;0.539030
9813.000000;0.537895
9812.000000;0.536892
9811.000000;0.536169
9810.000000;0.535777
9809.000000;0.535654
9808.000000;0.535578
9807.000000;0.535287
9806.000000;0.534717
9805.000000;0.534052
9804.000000;0.533528
9803.000000;0.533235
9802.000000;0.533095
9801.000000;0.532920
9800.000000;0.532510
9799.000000;0.531826
9798.000000;0.531089
9797.000000;0.530599
9796.000000;0.530413
9795.000000;0.530290
9794.000000;0.529952
9793.000000;0.529340
9792.000000;0.528598
9791.000000;0.527903
9790.000000;0.527338
9789.000000;0.526855
9788.000000;0.526334
9787.000000;0.525721
9786.000000;0.525097
9785.000000;0.524576
9784.000000;0.524171
9783.000000;0.523798
9782.000000;0.523368
9781.000000;0.522808
9780.000000;0.522100
9779.000000;0.521388
9778.000000;0.520935
9777.000000;0.520835
9776.000000;0.520804
9775.000000;0.520451
9774.000000;0.519725
9773.000000;0.518937
9772.000000;0.518365
9771.000000;0.518013
9770.000000;0.517731
9769.000000;0.517384
9768.000000;0.516882
9767.000000;0.516219
9766.000000;0.515555
9765.000000;0.515097
9764.000000;0.514852
9763.000000;0.514626
9762.000000;0.514285
9761.000000;0.513917
9760.000000;0.513652
9759.000000;0.513479
9758.000000;0.513298
9757.000000;0.513039
9756.000000;0.512652
9755.000000;0.512094
9754.000000;0.511382
9753.000000;0.510613
9752.000000;0.509889
9751.000000;0.509295
9750.000000;0.508911
9749.000000;0.508749
9748.000000;0.508636
9747.000000;0.508317
9746.000000;0.507737
9745.000000;0.507081
9744.000000;0.506514
9743.000000;0.505996
9742.000000;0.505440
9741.000000;0.504912
9740.000000;0.504537
9739.000000;0.504282
9738.000000;0.503966
9737.000000;0.503481
9736.000000;0.502922
9735.000000;0.502467
9734.000000;0.502181
9733.000000;0.501941
9732.000000;0.501559
9731.000000;0.500988
9730.000000;0.500356
9729.000000;0.499786
9728.000000;0.499242
9727.000000;0.498616
9726.000000;0.497915
9725.000000;0.497272
9724.000000;0.496783
9723.000000;0.496456
9722.000000;0.496277
9721.000000;0.496217
9720.000000;0.496157
9719.000000;0.495930
9718.000000;0.495456
9717.000000;0.494763
9716.000000;0.493898
9715.000000;0.492935
9714.000000;0.492044
9713.000000;0.491429
9712.000000;0.491137
9711.000000;0.491047
9710.000000;0.491028
9709.000000;0.490992
9708.000000;0.490826
9707.000000;0.490415
9706.000000;0.489802
9705.000000;0.489179
9704.000000;0.488653
9703.000000;0.488154
9702.000000;0.487619
9701.000000;0.487136
9700.000000;0.486823
9699.000000;0.486676
9698.000000;0.486608
9697.000000;0.486543
9696.000000;0.486381
9695.000000;0.485978
9694.000000;0.485281
9693.000000;0.484440
9692.000000;0.483690
9691.000000;0.483163
9690.000000;0.482822
9689.000000;0.482531
9688.000000;0.482140
9687.000000;0.481567
9686.000000;0.480893
9685.000000;0.480305
9684.000000;0.479909
9683.000000;0.479618
9682.000000;0.479288
9681.000000;0.478902
9680.000000;0.478579
9679.000000;0.478388
9678.000000;0.478224
9677.000000;0.477870
9676.000000;0.477191
9675.000000;0.476281
9674.000000;0.475420
9673.000000;0.474851
9672.000000;0.474598
9671.000000;0.474500
9670.000000;0.474353
9669.000000;0.473998
9668.000000;0.473361
9667.000000;0.472533
9666.000000;0.471761
9665.000000;0.471249
9664.000000;0.470950
9663.000000;0.470667
9662.000000;0.470317
9661.000000;0.469968
9660.000000;0.469648
9659.000000;0.469277
9658.000000;0.468817
9657.000000;0.468333
9656.000000;0.467852
9655.000000;0.467293
9654.000000;0.466611
9653.000000;0.465917
9652.000000;0.465381
9651.000000;0.465077
9650.000000;0.464962
9649.000000;0.464922
9648.000000;0.464788
9647.000000;0.464414
9646.000000;0.463827
9645.000000;0.463227
9644.000000;0.462780
9643.000000;0.462464
9642.000000;0.462135
9641.000000;0.461689
9640.000000;0.461140
9639.000000;0.460602
9638.000000;0.460224
9637.000000;0.460053
9636.000000;0.459940
9635.000000;0.459648
9634.000000;0.459099
9633.000000;0.458415
9632.000000;0.457732
9631.000000;0.457079
9630.000000;0.456470
9629.000000;0.456003
9628.000000;0.455764
9627.000000;0.455710
9626.000000;0.455693
9625.000000;0.455552
9624.000000;0.455178
9623.000000;0.454573
9622.000000;0.453896
9621.000000;0.453336
9620.000000;0.452919
9619.000000;0.452530
9618.000000;0.452116
9617.000000;0.451745
9616.000000;0.451400
9615.000000;0.450902
9614.000000;0.450147
9613.000000;0.449311
9612.000000;0.448673
9611.000000;0.448307
9610.000000;0.448058
9609.000000;0.447759
9608.000000;0.447354
9607.000000;0.446869
9606.000000;0.446355
9605.000000;0.445872
9604.000000;0.445464
9603.000000;0.445155
9602.000000;0.445002
9601.000000;0.445033
9600.000000;0.445109
9599.000000;0.444950
9598.000000;0.444418
9597.000000;0.443688
9596.000000;0.443045
9595.000000;0.442575
9594.000000;0.442182
9593.000000;0.441821
9592.000000;0.441540
9591.000000;0.441305
9590.000000;0.440952
9589.000000;0.440370
9588.000000;0.439650
9587.000000;0.438987
9586.000000;0.438497
9585.000000;0.438153
9584.000000;0.437840
9583.000000;0.437473
9582.000000;0.437081
9581.000000;0.436782
9580.000000;0.436633
9579.000000;0.436516
9578.000000;0.436241
9577.000000;0.435760
9576.000000;0.435220
9575.000000;0.434781
9574.000000;0.434424
9573.000000;0.433998
9572.000000;0.433424
9571.000000;0.432810
9570.000000;0.432339
9569.000000;0.432063
9568.000000;0.431854
9567.000000;0.431559
9566.000000;0.431160
9565.000000;0.430721
9564.000000;0.430249
9563.000000;0.429701
9562.000000;0.429144
9561.000000;0.428765
9560.000000;0.428655
9559.000000;0.428652
9558.000000;0.428499
9557.000000;0.428112
9556.000000;0.427624
9555.000000;0.427177
9554.000000;0.426775
9553.000000;0.426323
9552.000000;0.425761
9551.000000;0.425140
9550.000000;0.424608
9549.000000;0.424298
9548.000000;0.424192
9547.000000;0.424100
9546.000000;0.423830
9545.000000;0.423381
9544.000000;0.422918
9543.000000;0.422570
9542.000000;0.422309
9541.000000;0.422017
9540.000000;0.421621
9539.000000;0.421118
9538.000000;0.420534
9537.000000;0.419911
9536.000000;0.419324
9535.000000;0.418869
9534.000000;0.418594
9533.000000;0.418430
9532.000000;0.418216
9531.000000;0.417828
9530.000000;0.417303
9529.000000;0.416804
9528.000000;0.416429
9527.000000;0.416104
9526.000000;0.415692
9525.000000;0.415184
9524.000000;0.414712
9523.000000;0.414372
9522.000000;0.414097
9521.000000;0.413746
9520.000000;0.413275
9519.000000;0.412749
9518.000000;0.412210
9517.000000;0.411629
9516.000000;0.411011
9515.000000;0.410475
9514.000000;0.410159
9513.000000;0.410055
9512.000000;0.410022
9511.000000;0.409940
9510.000000;0.409769
9509.000000;0.409476
9508.000000;0.409023
9507.000000;0.408471
9506.000000;0.407999
9505.000000;0.407710
9504.000000;0.407469
9503.000000;0.407065
9502.000000;0.406491
9501.000000;0.405957
9500.000000;0.405608
9499.000000;0.405365
9498.000000;0.405082
9497.000000;0.404754
9496.000000;0.404468
9495.000000;0.404224
9494.000000;0.403900
9493.000000;0.403432
9492.000000;0.402914
9491.000000;0.402489
9490.000000;0.402165
9489.000000;0.401799
9488.000000;0.401282
9487.000000;0.400694
9486.000000;0.400237
9485.000000;0.400027
9484.000000;0.399996
9483.000000;0.399985
9482.000000;0.399894
9481.000000;0.399694
9480.000000;0.399360
9479.000000;0.398870
9478.000000;0.398287
9477.000000;0.397777
9476.000000;0.397481
9475.000000;0.397377
9474.000000;0.397270
9473.000000;0.396927
9472.000000;0.396268
9471.000000;0.395448
9470.000000;0.394728
9469.000000;0.394259
9468.000000;0.393980
9467.000000;0.393737
9466.000000;0.393431
9465.000000;0.393034
9464.000000;0.392558
9463.000000;0.392069
9462.000000;0.391714
9461.000000;0.391600
9460.000000;0.391650
9459.000000;0.391643
9458.000000;0.391431
9457.000000;0.391067
9456.000000;0.390702
9455.000000;0.390395
9454.000000;0.390076
9453.000000;0.389659
9452.000000;0.389159
9451.000000;0.388677
9450.000000;0.388272
9449.000000;0.387866
9448.000000;0.387332
9447.000000;0.386662
9446.000000;0.386015
9445.000000;0.385559
9444.000000;0.385321
9443.000000;0.385230
9442.000000;0.385205
9441.000000;0.385167
9440.000000;0.385006
9439.000000;0.384656
9438.000000;0.384171
9437.000000;0.383658
9436.000000;0.383169
9435.000000;0.382719
9434.000000;0.382370
9433.000000;0.382169
9432.000000;0.382024
9431.000000;0.381770
9430.000000;0.381353
9429.000000;0.380862
9428.000000;0.380375
9427.000000;0.379879
9426.000000;0.379381
9425.000000;0.378971
9424.000000;0.378715
9423.000000;0.378551
9422.000000;0.378354
9421.000000;0.378056
9420.000000;0.377648
9419.000000;0.377159
9418.000000;0.376654
9417.000000;0.376209
9416.000000;0.375822
9415.000000;0.375410
9414.000000;0.374941
9413.000000;0.374509
9412.000000;0.374229
9411.000000;0.374084
9410.000000;0.373942
9409.000000;0.373686
9408.000000;0.373288
9407.000000;0.372780
9406.000000;0.372244
9405.000000;0.371777
9404.000000;0.371443
9403.000000;0.371221
9402.000000;0.371054
9401.000000;0.370909
9400.000000;0.370769
9399.000000;0.370575
9398.000000;0.370254
9397.000000;0.369809
9396.000000;0.369357
9395.000000;0.369034
9394.000000;0.368880
9393.000000;0.368783
9392.000000;0.368563
9391.000000;0.368120
9390.000000;0.367541
9389.000000;0.367037
9388.000000;0.366762
9387.000000;0.366680
9386.000000;0.366612
9385.000000;0.366417
9384.000000;0.366105
9383.000000;0.365789
9382.000000;0.365536
9381.000000;0.365286
9380.000000;0.364929
9379.000000;0.364431
9378.000000;0.363863
9377.000000;0.363302
9376.000000;0.362782
9375.000000;0.362347
9374.000000;0.362083
9373.000000;0.362013
9372.000000;0.362002
9371.000000;0.361876
9370.000000;0.361614
9369.000000;0.361330
9368.000000;0.361080
9367.000000;0.360784
9366.000000;0.360389
9365.000000;0.359972
9364.000000;0.359620
9363.000000;0.359281
9362.000000;0.358859
9361.000000;0.358404
9360.000000;0.358068
9359.000000;0.357886
9358.000000;0.357697
9357.000000;0.357348
9356.000000;0.356887
9355.000000;0.356484
9354.000000;0.356200
9353.000000;0.355920
9352.000000;0.355529
9351.000000;0.355058
9350.000000;0.354630
9349.000000;0.354300
9348.000000;0.354018
9347.000000;0.353727
9346.000000;0.353432
9345.000000;0.353156
9344.000000;0.352892
9343.000000;0.352620
9342.000000;0.352342
9341.000000;0.352046
9340.000000;0.351696
9339.000000;0.351293
9338.000000;0.350932
9337.000000;0.350709
9336.000000;0.350606
9335.000000;0.350497
9334.000000;0.350282
9333.000000;0.349965
9332.000000;0.349597
9331.000000;0.349201
9330.000000;0.348774
9329.000000;0.348337
9328.000000;0.347955
9327.000000;0.347702
9326.000000;0.347606
9325.000000;0.347594
9324.000000;0.347530
9323.000000;0.347324
9322.000000;0.347001
9321.000000;0.346628
9320.000000;0.346205
9319.000000;0.345705
9318.000000;0.345194
9317.000000;0.344834
9316.000000;0.344726
9315.000000;0.344796
9314.000000;0.344856
9313.000000;0.344743
9312.000000;0.344401
9311.000000;0.343890
9310.000000;0.343351
9309.000000;0.342906
9308.000000;0.342561
9307.000000;0.342211
9306.000000;0.341775
9305.000000;0.341293
9304.000000;0.340866
9303.000000;0.340544
9302.000000;0.340314
9301.000000;0.340163
9300.000000;0.340085
9299.000000;0.340018
9298.000000;0.339816
9297.000000;0.339349
9296.000000;0.338639
9295.000000;0.337892
9294.000000;0.337346
9293.000000;0.337081
9292.000000;0.336972
9291.000000;0.336843
9290.000000;0.336657
9289.000000;0.336519
9288.000000;0.336491
9287.000000;0.336485
9286.000000;0.336351
9285.000000;0.336038
9284.000000;0.335623
9283.000000;0.335218
9282.000000;0.334884
9281.000000;0.334627
9280.000000;0.334427
9279.000000;0.334248
9278.000000;0.334032
9277.000000;0.333731
9276.000000;0.333344
9275.000000;0.332918
9274.000000;0.332512
9273.000000;0.332169
9272.000000;0.331902
9271.000000;0.331703
9270.000000;0.331557
9269.000000;0.331441
9268.000000;0.331328
9267.000000;0.331178
9266.000000;0.330953
9265.000000;0.330648
9264.000000;0.330318
9263.000000;0.330036
9262.000000;0.329807
9261.000000;0.329530
9260.000000;0.329107
9259.000000;0.328580
9258.000000;0.328120
9257.000000;0.327846
9256.000000;0.327713
9255.000000;0.327611
9254.000000;0.327510
9253.000000;0.327451
9252.000000;0.327407
9251.000000;0.327268
9250.000000;0.326974
9249.000000;0.326581
9248.000000;0.326172
9247.000000;0.325749
9246.000000;0.325292
9245.000000;0.324868
9244.000000;0.324594
9243.000000;0.324479
9242.000000;0.324393
9241.000000;0.324211
9240.000000;0.323935
9239.000000;0.323634
9238.000000;0.323313
9237.000000;0.322937
9236.000000;0.322544
9235.000000;0.322259
9234.000000;0.322134
9233.000000;0.322059
9232.000000;0.321863
9231.000000;0.321485
9230.000000;0.320995
9229.000000;0.320513
9228.000000;0.320142
9227.000000;0.319947
9226.000000;0.319911
9225.000000;0.319919
9224.000000;0.319846
9223.000000;0.319654
9222.000000;0.319380
9221.000000;0.319049
9220.000000;0.318681
9219.000000;0.318357
9218.000000;0.318174
9217.000000;0.318109
9216.000000;0.318019
9215.000000;0.317799
9214.000000;0.317483
9213.000000;0.317147
9212.000000;0.316806
9211.000000;0.316445
9210.000000;0.316083
9209.000000;0.315729
9208.000000;0.315351
9207.000000;0.314947
9206.000000;0.314613
9205.000000;0.314446
9204.000000;0.314397
9203.000000;0.314317
9202.000000;0.314134
9201.000000;0.313919
9200.000000;0.313746
9199.000000;0.313578
9198.000000;0.313310
9197.000000;0.312902
9196.000000;0.312438
9195.000000;0.312052
9194.000000;0.311823
9193.000000;0.311716
9192.000000;0.311622
9191.000000;0.311441
9190.000000;0.311145
9189.000000;0.310776
9188.000000;0.310419
9187.000000;0.310169
9186.000000;0.310087
9185.000000;0.310153
9184.000000;0.310269
9183.000000;0.310297
9182.000000;0.310120
9181.000000;0.309695
9180.000000;0.309109
9179.000000;0.308563
9178.000000;0.308218
9177.000000;0.308044
9176.000000;0.307870
9175.000000;0.307606
9174.000000;0.307345
9173.000000;0.307207
9172.000000;0.307154
9171.000000;0.307010
9170.000000;0.306653
9169.000000;0.306131
9168.000000;0.305629
9167.000000;0.305355
9166.000000;0.305400
9165.000000;0.305633
9164.000000;0.305759
9163.000000;0.305551
9162.000000;0.305049
9161.000000;0.304479
9160.000000;0.304009
9159.000000;0.303640
9158.000000;0.303326
9157.000000;0.303106
9156.000000;0.303055
9155.000000;0.303119
9154.000000;0.303086
9153.000000;0.302780
9152.000000;0.302281
9151.000000;0.301895
9150.000000;0.301851
9149.000000;0.302063
9148.000000;0.302226
9147.000000;0.302145
9146.000000;0.301872
9145.000000;0.301554
9144.000000;0.301250
9143.000000;0.300943
9142.000000;0.300646
9141.000000;0.300395
9140.000000;0.300170
9139.000000;0.299902
9138.000000;0.299542
9137.000000;0.299109
9136.000000;0.298683
9135.000000;0.298360
9134.000000;0.298187
9133.000000;0.298111
9132.000000;0.298026
9131.000000;0.297880
9130.000000;0.297695
9129.000000;0.297489
9128.000000;0.297251
9127.000000;0.297009
9126.000000;0.296826
9125.000000;0.296690
9124.000000;0.296501
9123.000000;0.296226
9122.000000;0.295983
9121.000000;0.295869
9120.000000;0.295801
9119.000000;0.295646
9118.000000;0.295427
9117.000000;0.295286
9116.000000;0.295255
9115.000000;0.295188
9114.000000;0.294938
9113.000000;0.294507
9112.000000;0.294015
9111.000000;0.293603
9110.000000;0.293351
9109.000000;0.293221
9108.000000;0.293063
9107.000000;0.292760
9106.000000;0.292355
9105.000000;0.291998
9104.000000;0.291769
9103.000000;0.291644
9102.000000;0.291602
9101.000000;0.291653
9100.000000;0.291748
9099.000000;0.291743
9098.000000;0.291545
9097.000000;0.291217
9096.000000;0.290900
9095.000000;0.290676
9094.000000;0.290523
9093.000000;0.290375
9092.000000;0.290182
9091.000000;0.289920
9090.000000;0.289603
9089.000000;0.289266
9088.000000;0.288944
9087.000000;0.288669
9086.000000;0.288449
9085.000000;0.288241
9084.000000;0.287979
9083.000000;0.287667
9082.000000;0.287408
9081.000000;0.287292
9080.000000;0.287256
9079.000000;0.287154
9078.000000;0.286940
9077.000000;0.286720
9076.000000;0.286591
9075.000000;0.286532
9074.000000;0.286469
9073.000000;0.286384
9072.000000;0.286288
9071.000000;0.286149
9070.000000;0.285916
9069.000000;0.285596
9068.000000;0.285258
9067.000000;0.284948
9066.000000;0.284645
9065.000000;0.284324
9064.000000;0.284039
9063.000000;0.283893
9062.000000;0.283912
9061.000000;0.283965
9060.000000;0.283844
9059.000000;0.283460
9058.000000;0.282928
9057.000000;0.282459
9056.000000;0.282181
9055.000000;0.282085
9054.000000;0.282093
9053.000000;0.282121
