Criado como novo conjunto de dados;"e2410_daniel_v2.spp","78846.2 Secs"
cm-1;Abs
10000.000000;1.135228
9999.000000;1.134768
9998.000000;1.134309
9997.000000;1.133850
9996.000000;1.133390
9995.000000;1.132935
9994.000000;1.132471
9993.000000;1.132026
9992.000000;1.131550
9991.000000;1.131129
9990.000000;1.130594
9989.000000;1.130578
9988.000000;1.131250
9987.000000;1.131534
9986.000000;1.130650
9985.000000;1.128666
9984.000000;1.126508
9983.000000;1.124921
9982.000000;1.124028
9981.000000;1.123592
9980.000000;1.123386
9979.000000;1.123203
9978.000000;1.122844
9977.000000;1.122253
9976.000000;1.121522
9975.000000;1.120738
9974.000000;1.120000
9973.000000;1.119524
9972.000000;1.119452
9971.000000;1.119522
9970.000000;1.119211
9969.000000;1.118294
9968.000000;1.117065
9967.000000;1.115943
9966.000000;1.115046
9965.000000;1.114234
9964.000000;1.113389
9963.000000;1.112545
9962.000000;1.111863
9961.000000;1.111501
9960.000000;1.111404
9959.000000;1.111261
9958.000000;1.110791
9957.000000;1.110048
9956.000000;1.109279
9955.000000;1.108583
9954.000000;1.107936
9953.000000;1.107444
9952.000000;1.107257
9951.000000;1.107267
9950.000000;1.107202
9949.000000;1.107027
9948.000000;1.106908
9947.000000;1.106760
9946.000000;1.106201
9945.000000;1.105119
9944.000000;1.103937
9943.000000;1.103119
9942.000000;1.102662
9941.000000;1.102277
9940.000000;1.101834
9939.000000;1.101380
9938.000000;1.100884
9937.000000;1.100201
9936.000000;1.099287
9935.000000;1.098315
9934.000000;1.097626
9933.000000;1.097545
9932.000000;1.098116
9931.000000;1.098900
9930.000000;1.099191
9929.000000;1.098577
9928.000000;1.097258
9927.000000;1.095817
9926.000000;1.094759
9925.000000;1.094221
9924.000000;1.093916
9923.000000;1.093382
9922.000000;1.092479
9921.000000;1.091657
9920.000000;1.091479
9919.000000;1.091859
9918.000000;1.092028
9917.000000;1.091356
9916.000000;1.089992
9915.000000;1.088600
9914.000000;1.087715
9913.000000;1.087454
9912.000000;1.087579
9911.000000;1.087621
9910.000000;1.087170
9909.000000;1.086259
9908.000000;1.085363
9907.000000;1.084865
9906.000000;1.084672
9905.000000;1.084456
9904.000000;1.084081
9903.000000;1.083582
9902.000000;1.082940
9901.000000;1.082164
9900.000000;1.081480
9899.000000;1.081125
9898.000000;1.080948
9897.000000;1.080479
9896.000000;1.079479
9895.000000;1.078275
9894.000000;1.077464
9893.000000;1.077369
9892.000000;1.077801
9891.000000;1.078224
9890.000000;1.078137
9889.000000;1.077418
9888.000000;1.076393
9887.000000;1.075512
9886.000000;1.074927
9885.000000;1.074408
9884.000000;1.073746
9883.000000;1.073105
9882.000000;1.072832
9881.000000;1.072911
9880.000000;1.072826
9879.000000;1.072125
9878.000000;1.070996
9877.000000;1.070071
9876.000000;1.069679
9875.000000;1.069566
9874.000000;1.069367
9873.000000;1.069025
9872.000000;1.068581
9871.000000;1.067856
9870.000000;1.066705
9869.000000;1.065393
9868.000000;1.064372
9867.000000;1.063749
9866.000000;1.063308
9865.000000;1.062973
9864.000000;1.062848
9863.000000;1.062782
9862.000000;1.062326
9861.000000;1.061338
9860.000000;1.060312
9859.000000;1.059809
9858.000000;1.059767
9857.000000;1.059617
9856.000000;1.058998
9855.000000;1.058114
9854.000000;1.057414
9853.000000;1.057111
9852.000000;1.057038
9851.000000;1.056884
9850.000000;1.056506
9849.000000;1.055997
9848.000000;1.055457
9847.000000;1.054803
9846.000000;1.053947
9845.000000;1.053056
9844.000000;1.052402
9843.000000;1.051941
9842.000000;1.051309
9841.000000;1.050363
9840.000000;1.049458
9839.000000;1.048978
9838.000000;1.048768
9837.000000;1.048331
9836.000000;1.047565
9835.000000;1.046999
9834.000000;1.047138
9833.000000;1.047750
9832.000000;1.047988
9831.000000;1.047244
9830.000000;1.045790
9829.000000;1.044477
9828.000000;1.043875
9827.000000;1.043831
9826.000000;1.043830
9825.000000;1.043619
9824.000000;1.043340
9823.000000;1.043132
9822.000000;1.042813
9821.000000;1.042074
9820.000000;1.040925
9819.000000;1.039818
9818.000000;1.039254
9817.000000;1.039309
9816.000000;1.039589
9815.000000;1.039686
9814.000000;1.039536
9813.000000;1.039248
9812.000000;1.038715
9811.000000;1.037683
9810.000000;1.036229
9809.000000;1.034848
9808.000000;1.033966
9807.000000;1.033554
9806.000000;1.033349
9805.000000;1.033201
9804.000000;1.033020
9803.000000;1.032597
9802.000000;1.031784
9801.000000;1.030778
9800.000000;1.029954
9799.000000;1.029454
9798.000000;1.029127
9797.000000;1.028793
9796.000000;1.028401
9795.000000;1.027976
9794.000000;1.027622
9793.000000;1.027499
9792.000000;1.027563
9791.000000;1.027428
9790.000000;1.026735
9789.000000;1.025617
9788.000000;1.024559
9787.000000;1.023859
9786.000000;1.023489
9785.000000;1.023377
9784.000000;1.023428
9783.000000;1.023240
9782.000000;1.022286
9781.000000;1.020584
9780.000000;1.018919
9779.000000;1.018143
9778.000000;1.018400
9777.000000;1.019165
9776.000000;1.019829
9775.000000;1.020083
9774.000000;1.019913
9773.000000;1.019475
9772.000000;1.018997
9771.000000;1.018594
9770.000000;1.018172
9769.000000;1.017562
9768.000000;1.016726
9767.000000;1.015770
9766.000000;1.014820
9765.000000;1.013963
9764.000000;1.013264
9763.000000;1.012774
9762.000000;1.012486
9761.000000;1.012337
9760.000000;1.012245
9759.000000;1.012140
9758.000000;1.012000
9757.000000;1.011844
9756.000000;1.011685
9755.000000;1.011478
9754.000000;1.011094
9753.000000;1.010339
9752.000000;1.009069
9751.000000;1.007395
9750.000000;1.005755
9749.000000;1.004623
9748.000000;1.004105
9747.000000;1.003916
9746.000000;1.003764
9745.000000;1.003572
9744.000000;1.003290
9743.000000;1.002772
9742.000000;1.002001
9741.000000;1.001231
9740.000000;1.000667
9739.000000;1.000214
9738.000000;0.999734
9737.000000;0.999374
9736.000000;0.999337
9735.000000;0.999471
9734.000000;0.999407
9733.000000;0.999042
9732.000000;0.998594
9731.000000;0.998235
9730.000000;0.997934
9729.000000;0.997655
9728.000000;0.997397
9727.000000;0.997056
9726.000000;0.996506
9725.000000;0.995801
9724.000000;0.995066
9723.000000;0.994235
9722.000000;0.993194
9721.000000;0.992145
9720.000000;0.991471
9719.000000;0.991191
9718.000000;0.990860
9717.000000;0.990158
9716.000000;0.989308
9715.000000;0.988774
9714.000000;0.988714
9713.000000;0.988846
9712.000000;0.988709
9711.000000;0.988022
9710.000000;0.986951
9709.000000;0.986056
9708.000000;0.985767
9707.000000;0.985890
9706.000000;0.985835
9705.000000;0.985321
9704.000000;0.984619
9703.000000;0.984098
9702.000000;0.983824
9701.000000;0.983688
9700.000000;0.983600
9699.000000;0.983401
9698.000000;0.982830
9697.000000;0.981790
9696.000000;0.980533
9695.000000;0.979496
9694.000000;0.979026
9693.000000;0.979249
9692.000000;0.979943
9691.000000;0.980514
9690.000000;0.980381
9689.000000;0.979530
9688.000000;0.978494
9687.000000;0.977720
9686.000000;0.977175
9685.000000;0.976683
9684.000000;0.976302
9683.000000;0.976146
9682.000000;0.976031
9681.000000;0.975575
9680.000000;0.974585
9679.000000;0.973235
9678.000000;0.971950
9677.000000;0.971163
9676.000000;0.971021
9675.000000;0.971188
9674.000000;0.971078
9673.000000;0.970397
9672.000000;0.969370
9671.000000;0.968429
9670.000000;0.967865
9669.000000;0.967786
9668.000000;0.968086
9667.000000;0.968303
9666.000000;0.967874
9665.000000;0.966791
9664.000000;0.965771
9663.000000;0.965466
9662.000000;0.965696
9661.000000;0.965748
9660.000000;0.965282
9659.000000;0.964608
9658.000000;0.964130
9657.000000;0.963867
9656.000000;0.963578
9655.000000;0.963080
9654.000000;0.962342
9653.000000;0.961437
9652.000000;0.960505
9651.000000;0.959663
9650.000000;0.958910
9649.000000;0.958199
9648.000000;0.957580
9647.000000;0.957146
9646.000000;0.956849
9645.000000;0.956506
9644.000000;0.956026
9643.000000;0.955536
9642.000000;0.955225
9641.000000;0.955096
9640.000000;0.954929
9639.000000;0.954499
9638.000000;0.953838
9637.000000;0.953236
9636.000000;0.952947
9635.000000;0.952852
9634.000000;0.952520
9633.000000;0.951658
9632.000000;0.950440
9631.000000;0.949323
9630.000000;0.948609
9629.000000;0.948262
9628.000000;0.948081
9627.000000;0.947931
9626.000000;0.947822
9625.000000;0.947855
9624.000000;0.948135
9623.000000;0.948639
9622.000000;0.949128
9621.000000;0.949206
9620.000000;0.948587
9619.000000;0.947349
9618.000000;0.945908
9617.000000;0.944687
9616.000000;0.943803
9615.000000;0.943077
9614.000000;0.942351
9613.000000;0.941695
9612.000000;0.941288
9611.000000;0.941178
9610.000000;0.941244
9609.000000;0.941320
9608.000000;0.941263
9607.000000;0.940968
9606.000000;0.940441
9605.000000;0.939813
9604.000000;0.939194
9603.000000;0.938567
9602.000000;0.937932
9601.000000;0.937457
9600.000000;0.937289
9599.000000;0.937257
9598.000000;0.936975
9597.000000;0.936273
9596.000000;0.935370
9595.000000;0.934597
9594.000000;0.934110
9593.000000;0.933888
9592.000000;0.933854
9591.000000;0.933886
9590.000000;0.933842
9589.000000;0.933605
9588.000000;0.933081
9587.000000;0.932229
9586.000000;0.931232
9585.000000;0.930551
9584.000000;0.930517
9583.000000;0.930838
9582.000000;0.930774
9581.000000;0.929913
9580.000000;0.928593
9579.000000;0.927452
9578.000000;0.926812
9577.000000;0.926620
9576.000000;0.926713
9575.000000;0.926891
9574.000000;0.926855
9573.000000;0.926354
9572.000000;0.925411
9571.000000;0.924293
9570.000000;0.923292
9569.000000;0.922584
9568.000000;0.922190
9567.000000;0.921967
9566.000000;0.921726
9565.000000;0.921450
9564.000000;0.921297
9563.000000;0.921311
9562.000000;0.921274
9561.000000;0.920981
9560.000000;0.920516
9559.000000;0.920047
9558.000000;0.919497
9557.000000;0.918644
9556.000000;0.917544
9555.000000;0.916593
9554.000000;0.916159
9553.000000;0.916249
9552.000000;0.916555
9551.000000;0.916684
9550.000000;0.916389
9549.000000;0.915725
9548.000000;0.915037
9547.000000;0.914645
9546.000000;0.914493
9545.000000;0.914236
9544.000000;0.913694
9543.000000;0.913085
9542.000000;0.912725
9541.000000;0.912629
9540.000000;0.912540
9539.000000;0.912270
9538.000000;0.911901
9537.000000;0.911608
9536.000000;0.911407
9535.000000;0.911117
9534.000000;0.910579
9533.000000;0.909859
9532.000000;0.909232
9531.000000;0.908912
9530.000000;0.908798
9529.000000;0.908523
9528.000000;0.907799
9527.000000;0.906659
9526.000000;0.905351
9525.000000;0.904097
9524.000000;0.903090
9523.000000;0.902615
9522.000000;0.902896
9521.000000;0.903725
9520.000000;0.904459
9519.000000;0.904616
9518.000000;0.904347
9517.000000;0.904102
9516.000000;0.903941
9515.000000;0.903503
9514.000000;0.902646
9513.000000;0.901725
9512.000000;0.901094
9511.000000;0.900659
9510.000000;0.900174
9509.000000;0.899729
9508.000000;0.899552
9507.000000;0.899474
9506.000000;0.898975
9505.000000;0.897844
9504.000000;0.896516
9503.000000;0.895607
9502.000000;0.895300
9501.000000;0.895297
9500.000000;0.895217
9499.000000;0.894898
9498.000000;0.894423
9497.000000;0.893959
9496.000000;0.893599
9495.000000;0.893276
9494.000000;0.892832
9493.000000;0.892214
9492.000000;0.891589
9491.000000;0.891237
9490.000000;0.891292
9489.000000;0.891552
9488.000000;0.891559
9487.000000;0.890970
9486.000000;0.889879
9485.000000;0.888701
9484.000000;0.887715
9483.000000;0.886884
9482.000000;0.886149
9481.000000;0.885707
9480.000000;0.885768
9479.000000;0.886186
9478.000000;0.886543
9477.000000;0.886595
9476.000000;0.886429
9475.000000;0.886194
9474.000000;0.885913
9473.000000;0.885585
9472.000000;0.885251
9471.000000;0.884874
9470.000000;0.884289
9469.000000;0.883434
9468.000000;0.882517
9467.000000;0.881874
9466.000000;0.881646
9465.000000;0.881628
9464.000000;0.881399
9463.000000;0.880655
9462.000000;0.879520
9461.000000;0.878501
9460.000000;0.878033
9459.000000;0.878076
9458.000000;0.878249
9457.000000;0.878304
9456.000000;0.878287
9455.000000;0.878255
9454.000000;0.878089
9453.000000;0.877662
9452.000000;0.877028
9451.000000;0.876300
9450.000000;0.875520
9449.000000;0.874774
9448.000000;0.874298
9447.000000;0.874260
9446.000000;0.874475
9445.000000;0.874518
9444.000000;0.874155
9443.000000;0.873547
9442.000000;0.873007
9441.000000;0.872693
9440.000000;0.872571
9439.000000;0.872565
9438.000000;0.872606
9437.000000;0.872543
9436.000000;0.872174
9435.000000;0.871438
9434.000000;0.870547
9433.000000;0.869800
9432.000000;0.869277
9431.000000;0.868803
9430.000000;0.868254
9429.000000;0.867753
9428.000000;0.867472
9427.000000;0.867316
9426.000000;0.866981
9425.000000;0.866322
9424.000000;0.865536
9423.000000;0.864938
9422.000000;0.864663
9421.000000;0.864612
9420.000000;0.864604
9419.000000;0.864506
9418.000000;0.864252
9417.000000;0.863842
9416.000000;0.863352
9415.000000;0.862909
9414.000000;0.862607
9413.000000;0.862403
9412.000000;0.862139
9411.000000;0.861689
9410.000000;0.861095
9409.000000;0.860498
9408.000000;0.859973
9407.000000;0.859512
9406.000000;0.859139
9405.000000;0.858909
9404.000000;0.858778
9403.000000;0.858595
9402.000000;0.858292
9401.000000;0.857969
9400.000000;0.857721
9399.000000;0.857503
9398.000000;0.857258
9397.000000;0.857058
9396.000000;0.856996
9395.000000;0.857008
9394.000000;0.856896
9393.000000;0.856482
9392.000000;0.855685
9391.000000;0.854569
9390.000000;0.853446
9389.000000;0.852772
9388.000000;0.852733
9387.000000;0.852967
9386.000000;0.852901
9385.000000;0.852366
9384.000000;0.851733
9383.000000;0.851443
9382.000000;0.851544
9381.000000;0.851706
9380.000000;0.851547
9379.000000;0.850937
9378.000000;0.850059
9377.000000;0.849228
9376.000000;0.848597
9375.000000;0.848053
9374.000000;0.847422
9373.000000;0.846724
9372.000000;0.846129
9371.000000;0.845765
9370.000000;0.845662
9369.000000;0.845833
9368.000000;0.846214
9367.000000;0.846549
9366.000000;0.846487
9365.000000;0.845876
9364.000000;0.844912
9363.000000;0.843964
9362.000000;0.843292
9361.000000;0.842936
9360.000000;0.842798
9359.000000;0.842796
9358.000000;0.842918
9357.000000;0.843091
9356.000000;0.843063
9355.000000;0.842582
9354.000000;0.841735
9353.000000;0.840956
9352.000000;0.840585
9351.000000;0.840528
9350.000000;0.840449
9349.000000;0.840146
9348.000000;0.839623
9347.000000;0.838962
9346.000000;0.838286
9345.000000;0.837753
9344.000000;0.837404
9343.000000;0.837110
9342.000000;0.836811
9341.000000;0.836640
9340.000000;0.836622
9339.000000;0.836438
9338.000000;0.835785
9337.000000;0.834854
9336.000000;0.834145
9335.000000;0.833827
9334.000000;0.833640
9333.000000;0.833406
9332.000000;0.833310
9331.000000;0.833546
9330.000000;0.833976
9329.000000;0.834273
9328.000000;0.834209
9327.000000;0.833702
9326.000000;0.832803
9325.000000;0.831785
9324.000000;0.831070
9323.000000;0.830885
9322.000000;0.831046
9321.000000;0.831181
9320.000000;0.831077
9319.000000;0.830720
9318.000000;0.830133
9317.000000;0.829321
9316.000000;0.828384
9315.000000;0.827551
9314.000000;0.827065
9313.000000;0.826965
9312.000000;0.826989
9311.000000;0.826760
9310.000000;0.826184
9309.000000;0.825598
9308.000000;0.825409
9307.000000;0.825636
9306.000000;0.825931
9305.000000;0.825978
9304.000000;0.825685
9303.000000;0.825064
9302.000000;0.824205
9301.000000;0.823409
9300.000000;0.823073
9299.000000;0.823269
9298.000000;0.823585
9297.000000;0.823530
9296.000000;0.822998
9295.000000;0.822250
9294.000000;0.821566
9293.000000;0.821036
9292.000000;0.820614
9291.000000;0.820229
9290.000000;0.819872
9289.000000;0.819622
9288.000000;0.819533
9287.000000;0.819472
9286.000000;0.819164
9285.000000;0.818477
9284.000000;0.817613
9283.000000;0.816943
9282.000000;0.816691
9281.000000;0.816814
9280.000000;0.817089
9279.000000;0.817244
9278.000000;0.817086
9277.000000;0.816608
9276.000000;0.816019
9275.000000;0.815608
9274.000000;0.815507
9273.000000;0.815548
9272.000000;0.815387
9271.000000;0.814825
9270.000000;0.814025
9269.000000;0.813378
9268.000000;0.813108
9267.000000;0.813065
9266.000000;0.812914
9265.000000;0.812473
9264.000000;0.811844
9263.000000;0.811303
9262.000000;0.811092
9261.000000;0.811202
9260.000000;0.811306
9259.000000;0.811031
9258.000000;0.810382
9257.000000;0.809761
9256.000000;0.809453
9255.000000;0.809268
9254.000000;0.808868
9253.000000;0.808300
9252.000000;0.807943
9251.000000;0.807999
9250.000000;0.808273
9249.000000;0.808468
9248.000000;0.808450
9247.000000;0.808215
9246.000000;0.807802
9245.000000;0.807305
9244.000000;0.806823
9243.000000;0.806350
9242.000000;0.805824
9241.000000;0.805316
9240.000000;0.805003
9239.000000;0.804948
9238.000000;0.804999
9237.000000;0.804936
9236.000000;0.804642
9235.000000;0.804126
9234.000000;0.803508
9233.000000;0.802961
9232.000000;0.802589
9231.000000;0.802381
9230.000000;0.802325
9229.000000;0.802456
9228.000000;0.802671
9227.000000;0.802666
9226.000000;0.802260
9225.000000;0.801671
9224.000000;0.801224
9223.000000;0.800908
9222.000000;0.800501
9221.000000;0.800047
9220.000000;0.799830
9219.000000;0.799880
9218.000000;0.799863
9217.000000;0.799555
9216.000000;0.799116
9215.000000;0.798776
9214.000000;0.798542
9213.000000;0.798359
9212.000000;0.798263
9211.000000;0.798207
9210.000000;0.797954
9209.000000;0.797356
9208.000000;0.796562
9207.000000;0.795796
9206.000000;0.795125
9205.000000;0.794589
9204.000000;0.794343
9203.000000;0.794422
9202.000000;0.794532
9201.000000;0.794307
9200.000000;0.793729
9199.000000;0.793109
9198.000000;0.792722
9197.000000;0.792612
9196.000000;0.792672
9195.000000;0.792718
9194.000000;0.792536
9193.000000;0.792073
9192.000000;0.791569
9191.000000;0.791324
9190.000000;0.791320
9189.000000;0.791206
9188.000000;0.790702
9187.000000;0.789940
9186.000000;0.789347
9185.000000;0.789240
9184.000000;0.789547
9183.000000;0.789896
9182.000000;0.789955
9181.000000;0.789687
9180.000000;0.789286
9179.000000;0.788914
9178.000000;0.788587
9177.000000;0.788279
9176.000000;0.788028
9175.000000;0.787881
9174.000000;0.787796
9173.000000;0.787632
9172.000000;0.787227
9171.000000;0.786530
9170.000000;0.785724
9169.000000;0.785190
9168.000000;0.785190
9167.000000;0.785585
9166.000000;0.785940
9165.000000;0.785939
9164.000000;0.785587
9163.000000;0.785050
9162.000000;0.784458
9161.000000;0.783900
9160.000000;0.783446
9159.000000;0.783086
9158.000000;0.782759
9157.000000;0.782472
9156.000000;0.782274
9155.000000;0.782084
9154.000000;0.781701
9153.000000;0.781081
9152.000000;0.780453
9151.000000;0.780047
9150.000000;0.779839
9149.000000;0.779670
9148.000000;0.779504
9147.000000;0.779420
9146.000000;0.779403
9145.000000;0.779311
9144.000000;0.779027
9143.000000;0.778590
9142.000000;0.778155
9141.000000;0.777852
9140.000000;0.777654
9139.000000;0.777401
9138.000000;0.777012
9137.000000;0.776654
9136.000000;0.776562
9135.000000;0.776699
9134.000000;0.776758
9133.000000;0.776550
9132.000000;0.776216
9131.000000;0.775984
9130.000000;0.775869
9129.000000;0.775757
9128.000000;0.775614
9127.000000;0.775446
9126.000000;0.775181
9125.000000;0.774769
9124.000000;0.774348
9123.000000;0.774112
9122.000000;0.774049
9121.000000;0.773949
9120.000000;0.773683
9119.000000;0.773309
9118.000000;0.772912
9117.000000;0.772500
9116.000000;0.772092
9115.000000;0.771814
9114.000000;0.771785
9113.000000;0.771968
9112.000000;0.772164
9111.000000;0.772136
9110.000000;0.771763
9109.000000;0.771118
9108.000000;0.770462
9107.000000;0.770067
9106.000000;0.769981
9105.000000;0.769965
9104.000000;0.769718
9103.000000;0.769221
9102.000000;0.768771
9101.000000;0.768633
9100.000000;0.768699
9099.000000;0.768590
9098.000000;0.768121
9097.000000;0.767528
9096.000000;0.767157
9095.000000;0.767056
9094.000000;0.766991
9093.000000;0.766796
9092.000000;0.766540
9091.000000;0.766355
9090.000000;0.766256
9089.000000;0.766165
9088.000000;0.765989
9087.000000;0.765653
9086.000000;0.765135
9085.000000;0.764539
9084.000000;0.764042
9083.000000;0.763730
9082.000000;0.763543
9081.000000;0.763402
9080.000000;0.763306
9079.000000;0.763273
9078.000000;0.763265
9077.000000;0.763218
9076.000000;0.763106
9075.000000;0.762952
9074.000000;0.762791
9073.000000;0.762631
9072.000000;0.762409
9071.000000;0.762007
9070.000000;0.761382
9069.000000;0.760682
9068.000000;0.760164
9067.000000;0.759966
9066.000000;0.760024
9065.000000;0.760162
9064.000000;0.760215
9063.000000;0.760093
9062.000000;0.759828
9061.000000;0.759573
9060.000000;0.759465
9059.000000;0.759468
9058.000000;0.759445
9057.000000;0.759337
9056.000000;0.759203
9055.000000;0.759080
9054.000000;0.758950
9053.000000;0.758815
