Criado como novo conjunto de dados;"e2410_daniel_v2.spp","72365.5 Secs"
cm-1;Abs
10000.000000;1.363319
9999.000000;1.362646
9998.000000;1.362591
9997.000000;1.363032
9996.000000;1.363243
9995.000000;1.362440
9994.000000;1.360407
9993.000000;1.358001
9992.000000;1.356487
9991.000000;1.356367
9990.000000;1.356909
9989.000000;1.357096
9988.000000;1.356722
9987.000000;1.356238
9986.000000;1.355841
9985.000000;1.355237
9984.000000;1.354192
9983.000000;1.352812
9982.000000;1.351322
9981.000000;1.350001
9980.000000;1.349271
9979.000000;1.349363
9978.000000;1.349877
9977.000000;1.350102
9976.000000;1.349853
9975.000000;1.349590
9974.000000;1.349687
9973.000000;1.349966
9972.000000;1.349999
9971.000000;1.349490
9970.000000;1.348311
9969.000000;1.346574
9968.000000;1.344805
9967.000000;1.343691
9966.000000;1.343537
9965.000000;1.344098
9964.000000;1.344853
9963.000000;1.345181
9962.000000;1.344535
9961.000000;1.342969
9960.000000;1.341406
9959.000000;1.340831
9958.000000;1.341218
9957.000000;1.341702
9956.000000;1.341742
9955.000000;1.341563
9954.000000;1.341495
9953.000000;1.341545
9952.000000;1.341690
9951.000000;1.341954
9950.000000;1.342029
9949.000000;1.341422
9948.000000;1.340170
9947.000000;1.338851
9946.000000;1.337767
9945.000000;1.336721
9944.000000;1.335722
9943.000000;1.335210
9942.000000;1.335314
9941.000000;1.335512
9940.000000;1.335325
9939.000000;1.334780
9938.000000;1.333912
9937.000000;1.332450
9936.000000;1.330477
9935.000000;1.328807
9934.000000;1.328164
9933.000000;1.328334
9932.000000;1.328505
9931.000000;1.328128
9930.000000;1.327160
9929.000000;1.325820
9928.000000;1.324509
9927.000000;1.323682
9926.000000;1.323476
9925.000000;1.323613
9924.000000;1.323803
9923.000000;1.323927
9922.000000;1.323795
9921.000000;1.323218
9920.000000;1.322489
9919.000000;1.322210
9918.000000;1.322400
9917.000000;1.322341
9916.000000;1.321577
9915.000000;1.320478
9914.000000;1.319454
9913.000000;1.318331
9912.000000;1.317035
9911.000000;1.316200
9910.000000;1.316310
9909.000000;1.316700
9908.000000;1.316292
9907.000000;1.315147
9906.000000;1.314436
9905.000000;1.314848
9904.000000;1.315725
9903.000000;1.315923
9902.000000;1.315058
9901.000000;1.313703
9900.000000;1.312635
9899.000000;1.312122
9898.000000;1.311790
9897.000000;1.311109
9896.000000;1.309991
9895.000000;1.308848
9894.000000;1.308069
9893.000000;1.307662
9892.000000;1.307444
9891.000000;1.307309
9890.000000;1.307224
9889.000000;1.307207
9888.000000;1.307389
9887.000000;1.307809
9886.000000;1.308078
9885.000000;1.307664
9884.000000;1.306649
9883.000000;1.305771
9882.000000;1.305495
9881.000000;1.305502
9880.000000;1.305302
9879.000000;1.304868
9878.000000;1.304341
9877.000000;1.303625
9876.000000;1.302702
9875.000000;1.301900
9874.000000;1.301354
9873.000000;1.300597
9872.000000;1.299218
9871.000000;1.297622
9870.000000;1.296561
9869.000000;1.296183
9868.000000;1.296052
9867.000000;1.295911
9866.000000;1.295837
9865.000000;1.295730
9864.000000;1.295225
9863.000000;1.294224
9862.000000;1.293099
9861.000000;1.292304
9860.000000;1.292022
9859.000000;1.292112
9858.000000;1.292155
9857.000000;1.291700
9856.000000;1.290783
9855.000000;1.290068
9854.000000;1.290092
9853.000000;1.290498
9852.000000;1.290383
9851.000000;1.289354
9850.000000;1.287835
9849.000000;1.286374
9848.000000;1.285095
9847.000000;1.283951
9846.000000;1.283132
9845.000000;1.282968
9844.000000;1.283485
9843.000000;1.284194
9842.000000;1.284377
9841.000000;1.283736
9840.000000;1.282778
9839.000000;1.282337
9838.000000;1.282598
9837.000000;1.282848
9836.000000;1.282392
9835.000000;1.281453
9834.000000;1.280820
9833.000000;1.280796
9832.000000;1.280851
9831.000000;1.280276
9830.000000;1.278862
9829.000000;1.276971
9828.000000;1.275257
9827.000000;1.274345
9826.000000;1.274473
9825.000000;1.275272
9824.000000;1.275983
9823.000000;1.275971
9822.000000;1.275058
9821.000000;1.273544
9820.000000;1.272041
9819.000000;1.271085
9818.000000;1.270674
9817.000000;1.270250
9816.000000;1.269358
9815.000000;1.268255
9814.000000;1.267618
9813.000000;1.267766
9812.000000;1.268405
9811.000000;1.269062
9810.000000;1.269493
9809.000000;1.269625
9808.000000;1.269361
9807.000000;1.268606
9806.000000;1.267422
9805.000000;1.266081
9804.000000;1.264953
9803.000000;1.264304
9802.000000;1.264111
9801.000000;1.264108
9800.000000;1.264043
9799.000000;1.263854
9798.000000;1.263569
9797.000000;1.263132
9796.000000;1.262400
9795.000000;1.261250
9794.000000;1.259705
9793.000000;1.258059
9792.000000;1.256867
9791.000000;1.256571
9790.000000;1.257034
9789.000000;1.257600
9788.000000;1.257800
9787.000000;1.257801
9786.000000;1.257981
9785.000000;1.258227
9784.000000;1.257955
9783.000000;1.256836
9782.000000;1.255283
9781.000000;1.254098
9780.000000;1.253740
9779.000000;1.253989
9778.000000;1.254233
9777.000000;1.253993
9776.000000;1.253166
9775.000000;1.251875
9774.000000;1.250355
9773.000000;1.248997
9772.000000;1.248204
9771.000000;1.247953
9770.000000;1.247703
9769.000000;1.247063
9768.000000;1.246393
9767.000000;1.246330
9766.000000;1.246817
9765.000000;1.247058
9764.000000;1.246520
9763.000000;1.245552
9762.000000;1.244832
9761.000000;1.244580
9760.000000;1.244563
9759.000000;1.244571
9758.000000;1.244599
9757.000000;1.244687
9756.000000;1.244778
9755.000000;1.244653
9754.000000;1.244023
9753.000000;1.242863
9752.000000;1.241635
9751.000000;1.240891
9750.000000;1.240623
9749.000000;1.240300
9748.000000;1.239607
9747.000000;1.238776
9746.000000;1.238094
9745.000000;1.237511
9744.000000;1.236969
9743.000000;1.236728
9742.000000;1.237046
9741.000000;1.237751
9740.000000;1.238359
9739.000000;1.238416
9738.000000;1.237602
9737.000000;1.235887
9736.000000;1.233861
9735.000000;1.232557
9734.000000;1.232513
9733.000000;1.233197
9732.000000;1.233644
9731.000000;1.233509
9730.000000;1.233142
9729.000000;1.232844
9728.000000;1.232490
9727.000000;1.231836
9726.000000;1.230793
9725.000000;1.229417
9724.000000;1.227935
9723.000000;1.226797
9722.000000;1.226369
9721.000000;1.226513
9720.000000;1.226716
9719.000000;1.226691
9718.000000;1.226624
9717.000000;1.226766
9716.000000;1.226985
9715.000000;1.226914
9714.000000;1.226428
9713.000000;1.225769
9712.000000;1.225168
9711.000000;1.224495
9710.000000;1.223461
9709.000000;1.222145
9708.000000;1.221087
9707.000000;1.220707
9706.000000;1.220796
9705.000000;1.220787
9704.000000;1.220424
9703.000000;1.219883
9702.000000;1.219301
9701.000000;1.218595
9700.000000;1.217795
9699.000000;1.217201
9698.000000;1.216991
9697.000000;1.216921
9696.000000;1.216587
9695.000000;1.215843
9694.000000;1.214852
9693.000000;1.213926
9692.000000;1.213403
9691.000000;1.213439
9690.000000;1.213732
9689.000000;1.213661
9688.000000;1.212905
9687.000000;1.211742
9686.000000;1.210641
9685.000000;1.209826
9684.000000;1.209357
9683.000000;1.209282
9682.000000;1.209442
9681.000000;1.209412
9680.000000;1.209006
9679.000000;1.208636
9678.000000;1.208802
9677.000000;1.209326
9676.000000;1.209489
9675.000000;1.208909
9674.000000;1.207941
9673.000000;1.207124
9672.000000;1.206559
9671.000000;1.205982
9670.000000;1.205263
9669.000000;1.204552
9668.000000;1.203987
9667.000000;1.203427
9666.000000;1.202626
9665.000000;1.201603
9664.000000;1.200672
9663.000000;1.200037
9662.000000;1.199541
9661.000000;1.198973
9660.000000;1.198464
9659.000000;1.198317
9658.000000;1.198489
9657.000000;1.198575
9656.000000;1.198327
9655.000000;1.197894
9654.000000;1.197467
9653.000000;1.196984
9652.000000;1.196348
9651.000000;1.195650
9650.000000;1.195029
9649.000000;1.194544
9648.000000;1.194295
9647.000000;1.194420
9646.000000;1.194789
9645.000000;1.194923
9644.000000;1.194418
9643.000000;1.193315
9642.000000;1.191966
9641.000000;1.190764
9640.000000;1.190099
9639.000000;1.190236
9638.000000;1.190937
9637.000000;1.191452
9636.000000;1.191173
9635.000000;1.190199
9634.000000;1.189064
9633.000000;1.188134
9632.000000;1.187501
9631.000000;1.187200
9630.000000;1.187181
9629.000000;1.187186
9628.000000;1.186960
9627.000000;1.186519
9626.000000;1.185981
9625.000000;1.185285
9624.000000;1.184367
9623.000000;1.183489
9622.000000;1.183034
9621.000000;1.183005
9620.000000;1.183012
9619.000000;1.182771
9618.000000;1.182306
9617.000000;1.181651
9616.000000;1.180710
9615.000000;1.179540
9614.000000;1.178461
9613.000000;1.177707
9612.000000;1.177141
9611.000000;1.176527
9610.000000;1.175941
9609.000000;1.175719
9608.000000;1.176003
9607.000000;1.176496
9606.000000;1.176699
9605.000000;1.176341
9604.000000;1.175588
9603.000000;1.174903
9602.000000;1.174669
9601.000000;1.174841
9600.000000;1.174944
9599.000000;1.174513
9598.000000;1.173585
9597.000000;1.172678
9596.000000;1.172229
9595.000000;1.172146
9594.000000;1.172011
9593.000000;1.171642
9592.000000;1.171267
9591.000000;1.171107
9590.000000;1.170989
9589.000000;1.170524
9588.000000;1.169562
9587.000000;1.168366
9586.000000;1.167375
9585.000000;1.166877
9584.000000;1.166824
9583.000000;1.166895
9582.000000;1.166781
9581.000000;1.166443
9580.000000;1.166027
9579.000000;1.165550
9578.000000;1.164891
9577.000000;1.164132
9576.000000;1.163590
9575.000000;1.163316
9574.000000;1.162872
9573.000000;1.161869
9572.000000;1.160574
9571.000000;1.159651
9570.000000;1.159461
9569.000000;1.159888
9568.000000;1.160671
9567.000000;1.161525
9566.000000;1.162028
9565.000000;1.161849
9564.000000;1.161130
9563.000000;1.160319
9562.000000;1.159583
9561.000000;1.158714
9560.000000;1.157634
9559.000000;1.156637
9558.000000;1.156023
9557.000000;1.155790
9556.000000;1.155779
9555.000000;1.155852
9554.000000;1.155830
9553.000000;1.155534
9552.000000;1.154960
9551.000000;1.154244
9550.000000;1.153418
9549.000000;1.152502
9548.000000;1.151822
9547.000000;1.151833
9546.000000;1.152445
9545.000000;1.152895
9544.000000;1.152541
9543.000000;1.151530
9542.000000;1.150463
9541.000000;1.149661
9540.000000;1.149074
9539.000000;1.148646
9538.000000;1.148412
9537.000000;1.148286
9536.000000;1.148047
9535.000000;1.147639
9534.000000;1.147314
9533.000000;1.147377
9532.000000;1.147804
9531.000000;1.148133
9530.000000;1.147780
9529.000000;1.146565
9528.000000;1.144932
9527.000000;1.143592
9526.000000;1.142954
9525.000000;1.142953
9524.000000;1.143299
9523.000000;1.143684
9522.000000;1.143794
9521.000000;1.143393
9520.000000;1.142517
9519.000000;1.141458
9518.000000;1.140516
9517.000000;1.139864
9516.000000;1.139609
9515.000000;1.139773
9514.000000;1.140181
9513.000000;1.140544
9512.000000;1.140680
9511.000000;1.140508
9510.000000;1.139893
9509.000000;1.138800
9508.000000;1.137607
9507.000000;1.136944
9506.000000;1.137061
9505.000000;1.137557
9504.000000;1.137851
9503.000000;1.137725
9502.000000;1.137294
9501.000000;1.136677
9500.000000;1.135904
9499.000000;1.135033
9498.000000;1.134200
9497.000000;1.133563
9496.000000;1.133246
9495.000000;1.133234
9494.000000;1.133342
9493.000000;1.133414
9492.000000;1.133495
9491.000000;1.133619
9490.000000;1.133483
9489.000000;1.132636
9488.000000;1.131064
9487.000000;1.129341
9486.000000;1.128084
9485.000000;1.127453
9484.000000;1.127244
9483.000000;1.127253
9482.000000;1.127397
9481.000000;1.127642
9480.000000;1.127919
9479.000000;1.128012
9478.000000;1.127548
9477.000000;1.126343
9476.000000;1.124800
9475.000000;1.123726
9474.000000;1.123588
9473.000000;1.124090
9472.000000;1.124580
9471.000000;1.124694
9470.000000;1.124474
9469.000000;1.124072
9468.000000;1.123561
9467.000000;1.122981
9466.000000;1.122374
9465.000000;1.121741
9464.000000;1.121056
9463.000000;1.120344
9462.000000;1.119749
9461.000000;1.119482
9460.000000;1.119599
9459.000000;1.119790
9458.000000;1.119553
9457.000000;1.118728
9456.000000;1.117709
9455.000000;1.116987
9454.000000;1.116613
9453.000000;1.116342
9452.000000;1.116100
9451.000000;1.115972
9450.000000;1.115782
9449.000000;1.115142
9448.000000;1.114008
9447.000000;1.112879
9446.000000;1.112299
9445.000000;1.112363
9444.000000;1.112770
9443.000000;1.113152
9442.000000;1.113275
9441.000000;1.113122
9440.000000;1.112821
9439.000000;1.112416
9438.000000;1.111801
9437.000000;1.111045
9436.000000;1.110583
9435.000000;1.110665
9434.000000;1.110770
9433.000000;1.110075
9432.000000;1.108578
9431.000000;1.107197
9430.000000;1.106589
9429.000000;1.106376
9428.000000;1.105841
9427.000000;1.104968
9426.000000;1.104382
9425.000000;1.104482
9424.000000;1.105032
9423.000000;1.105515
9422.000000;1.105646
9421.000000;1.105543
9420.000000;1.105543
9419.000000;1.105769
9418.000000;1.105854
9417.000000;1.105257
9416.000000;1.103981
9415.000000;1.102712
9414.000000;1.102094
9413.000000;1.102023
9412.000000;1.101878
9411.000000;1.101298
9410.000000;1.100523
9409.000000;1.100022
9408.000000;1.099969
9407.000000;1.100109
9406.000000;1.100063
9405.000000;1.099762
9404.000000;1.099527
9403.000000;1.099651
9402.000000;1.099994
9401.000000;1.100164
9400.000000;1.100034
9399.000000;1.099827
9398.000000;1.099696
9397.000000;1.099507
9396.000000;1.099061
9395.000000;1.098290
9394.000000;1.097242
9393.000000;1.096144
9392.000000;1.095448
9391.000000;1.095411
9390.000000;1.095578
9389.000000;1.095134
9388.000000;1.093960
9387.000000;1.092875
9386.000000;1.092561
9385.000000;1.092718
9384.000000;1.092630
9383.000000;1.092223
9382.000000;1.091985
9381.000000;1.092032
9380.000000;1.091854
9379.000000;1.091084
9378.000000;1.090078
9377.000000;1.089478
9376.000000;1.089446
9375.000000;1.089548
9374.000000;1.089312
9373.000000;1.088712
9372.000000;1.088066
9371.000000;1.087592
9370.000000;1.087232
9369.000000;1.086908
9368.000000;1.086746
9367.000000;1.086883
9366.000000;1.087175
9365.000000;1.087314
9364.000000;1.087173
9363.000000;1.086800
9362.000000;1.086117
9361.000000;1.084988
9360.000000;1.083630
9359.000000;1.082657
9358.000000;1.082526
9357.000000;1.083125
9356.000000;1.084007
9355.000000;1.084783
9354.000000;1.085193
9353.000000;1.085075
9352.000000;1.084488
9351.000000;1.083748
9350.000000;1.083117
9349.000000;1.082567
9348.000000;1.081972
9347.000000;1.081373
9346.000000;1.080866
9345.000000;1.080342
9344.000000;1.079534
9343.000000;1.078359
9342.000000;1.077107
9341.000000;1.076261
9340.000000;1.076091
9339.000000;1.076360
9338.000000;1.076466
9337.000000;1.076033
9336.000000;1.075328
9335.000000;1.074924
9334.000000;1.075002
9333.000000;1.075213
9332.000000;1.075208
9331.000000;1.075011
9330.000000;1.074752
9329.000000;1.074353
9328.000000;1.073709
9327.000000;1.072978
9326.000000;1.072520
9325.000000;1.072579
9324.000000;1.073086
9323.000000;1.073650
9322.000000;1.073770
9321.000000;1.073252
9320.000000;1.072457
9319.000000;1.071957
9318.000000;1.071894
9317.000000;1.071892
9316.000000;1.071601
9315.000000;1.071074
9314.000000;1.070537
9313.000000;1.070093
9312.000000;1.069773
9311.000000;1.069585
9310.000000;1.069374
9309.000000;1.068891
9308.000000;1.068175
9307.000000;1.067612
9306.000000;1.067413
9305.000000;1.067277
9304.000000;1.066821
9303.000000;1.066156
9302.000000;1.065758
9301.000000;1.065877
9300.000000;1.066291
9299.000000;1.066575
9298.000000;1.066443
9297.000000;1.065868
9296.000000;1.065046
9295.000000;1.064259
9294.000000;1.063667
9293.000000;1.063231
9292.000000;1.062826
9291.000000;1.062368
9290.000000;1.061845
9289.000000;1.061350
9288.000000;1.061071
9287.000000;1.061086
9286.000000;1.061183
9285.000000;1.061054
9284.000000;1.060654
9283.000000;1.060161
9282.000000;1.059626
9281.000000;1.058939
9280.000000;1.058164
9279.000000;1.057605
9278.000000;1.057425
9277.000000;1.057491
9276.000000;1.057689
9275.000000;1.058112
9274.000000;1.058799
9273.000000;1.059514
9272.000000;1.059927
9271.000000;1.059825
9270.000000;1.059097
9269.000000;1.057846
9268.000000;1.056603
9267.000000;1.056052
9266.000000;1.056302
9265.000000;1.056702
9264.000000;1.056558
9263.000000;1.055792
9262.000000;1.054720
9261.000000;1.053575
9260.000000;1.052563
9259.000000;1.052053
9258.000000;1.052231
9257.000000;1.052699
9256.000000;1.052790
9255.000000;1.052259
9254.000000;1.051412
9253.000000;1.050651
9252.000000;1.050168
9251.000000;1.049993
9250.000000;1.050032
9249.000000;1.050092
9248.000000;1.050073
9247.000000;1.050088
9246.000000;1.050230
9245.000000;1.050351
9244.000000;1.050266
9243.000000;1.050041
9242.000000;1.049830
9241.000000;1.049553
9240.000000;1.048989
9239.000000;1.048138
9238.000000;1.047237
9237.000000;1.046462
9236.000000;1.045824
9235.000000;1.045325
9234.000000;1.044978
9233.000000;1.044719
9232.000000;1.044471
9231.000000;1.044288
9230.000000;1.044255
9229.000000;1.044311
9228.000000;1.044367
9227.000000;1.044486
9226.000000;1.044719
9225.000000;1.044804
9224.000000;1.044314
9223.000000;1.043188
9222.000000;1.041888
9221.000000;1.040982
9220.000000;1.040705
9219.000000;1.040951
9218.000000;1.041525
9217.000000;1.042262
9216.000000;1.042981
9215.000000;1.043429
9214.000000;1.043332
9213.000000;1.042598
9212.000000;1.041496
9211.000000;1.040557
9210.000000;1.040157
9209.000000;1.040210
9208.000000;1.040300
9207.000000;1.040071
9206.000000;1.039493
9205.000000;1.038828
9204.000000;1.038438
9203.000000;1.038520
9202.000000;1.038937
9201.000000;1.039353
9200.000000;1.039539
9199.000000;1.039451
9198.000000;1.039036
9197.000000;1.038210
9196.000000;1.037122
9195.000000;1.036201
9194.000000;1.035725
9193.000000;1.035532
9192.000000;1.035320
9191.000000;1.035058
9190.000000;1.034873
9189.000000;1.034677
9188.000000;1.034230
9187.000000;1.033527
9186.000000;1.032844
9185.000000;1.032388
9184.000000;1.032154
9183.000000;1.032128
9182.000000;1.032369
9181.000000;1.032809
9180.000000;1.033158
9179.000000;1.033135
9178.000000;1.032707
9177.000000;1.032062
9176.000000;1.031477
9175.000000;1.031208
9174.000000;1.031342
9173.000000;1.031656
9172.000000;1.031752
9171.000000;1.031441
9170.000000;1.030928
9169.000000;1.030542
9168.000000;1.030356
9167.000000;1.030131
9166.000000;1.029579
9165.000000;1.028618
9164.000000;1.027465
9163.000000;1.026540
9162.000000;1.026247
9161.000000;1.026710
9160.000000;1.027627
9159.000000;1.028423
9158.000000;1.028614
9157.000000;1.028129
9156.000000;1.027296
9155.000000;1.026534
9154.000000;1.026045
9153.000000;1.025778
9152.000000;1.025593
9151.000000;1.025415
9150.000000;1.025212
9149.000000;1.024935
9148.000000;1.024522
9147.000000;1.023965
9146.000000;1.023329
9145.000000;1.022719
9144.000000;1.022241
9143.000000;1.021955
9142.000000;1.021839
9141.000000;1.021800
9140.000000;1.021728
9139.000000;1.021576
9138.000000;1.021405
9137.000000;1.021362
9136.000000;1.021563
9135.000000;1.021958
9134.000000;1.022315
9133.000000;1.022386
9132.000000;1.022085
9131.000000;1.021510
9130.000000;1.020832
9129.000000;1.020187
9128.000000;1.019619
9127.000000;1.019114
9126.000000;1.018704
9125.000000;1.018531
9124.000000;1.018702
9123.000000;1.019054
9122.000000;1.019215
9121.000000;1.018984
9120.000000;1.018536
9119.000000;1.018143
9118.000000;1.017847
9117.000000;1.017515
9116.000000;1.017097
9115.000000;1.016639
9114.000000;1.016172
9113.000000;1.015775
9112.000000;1.015641
9111.000000;1.015821
9110.000000;1.015993
9109.000000;1.015791
9108.000000;1.015338
9107.000000;1.015167
9106.000000;1.015548
9105.000000;1.016175
9104.000000;1.016563
9103.000000;1.016509
9102.000000;1.016059
9101.000000;1.015304
9100.000000;1.014392
9099.000000;1.013608
9098.000000;1.013199
9097.000000;1.013165
9096.000000;1.013308
9095.000000;1.013416
9094.000000;1.013358
9093.000000;1.013109
9092.000000;1.012748
9091.000000;1.012358
9090.000000;1.011900
9089.000000;1.011271
9088.000000;1.010500
9087.000000;1.009764
9086.000000;1.009189
9085.000000;1.008776
9084.000000;1.008520
9083.000000;1.008435
9082.000000;1.008431
9081.000000;1.008333
9080.000000;1.008149
9079.000000;1.008137
9078.000000;1.008496
9077.000000;1.009091
9076.000000;1.009587
9075.000000;1.009783
9074.000000;1.009713
9073.000000;1.009517
9072.000000;1.009267
9071.000000;1.008903
9070.000000;1.008328
9069.000000;1.007640
9068.000000;1.007169
9067.000000;1.007129
9066.000000;1.007257
9065.000000;1.007052
9064.000000;1.006398
9063.000000;1.005718
9062.000000;1.005427
9061.000000;1.005444
9060.000000;1.005374
9059.000000;1.004963
9058.000000;1.004248
9057.000000;1.003476
9056.000000;1.003050
9055.000000;1.003337
9054.000000;1.004258
9053.000000;1.005119
