Criado como novo conjunto de dados;"e2410_daniel_v2.spp","28083.5 Secs"
cm-1;Abs
10000.000000;0.543274
9999.000000;0.543212
9998.000000;0.542941
9997.000000;0.542426
9996.000000;0.541777
9995.000000;0.541084
9994.000000;0.540408
9993.000000;0.539799
9992.000000;0.539358
9991.000000;0.539114
9990.000000;0.538923
9989.000000;0.538521
9988.000000;0.537748
9987.000000;0.536694
9986.000000;0.535640
9985.000000;0.534851
9984.000000;0.534392
9983.000000;0.534097
9982.000000;0.533729
9981.000000;0.533177
9980.000000;0.532523
9979.000000;0.531921
9978.000000;0.531462
9977.000000;0.531140
9976.000000;0.530884
9975.000000;0.530598
9974.000000;0.530218
9973.000000;0.529766
9972.000000;0.529298
9971.000000;0.528808
9970.000000;0.528242
9969.000000;0.527625
9968.000000;0.527088
9967.000000;0.526705
9966.000000;0.526351
9965.000000;0.525809
9964.000000;0.524998
9963.000000;0.524047
9962.000000;0.523164
9961.000000;0.522489
9960.000000;0.522048
9959.000000;0.521762
9958.000000;0.521485
9957.000000;0.521089
9956.000000;0.520561
9955.000000;0.520026
9954.000000;0.519625
9953.000000;0.519351
9952.000000;0.519016
9951.000000;0.518429
9950.000000;0.517623
9949.000000;0.516882
9948.000000;0.516490
9947.000000;0.516471
9946.000000;0.516568
9945.000000;0.516459
9944.000000;0.515983
9943.000000;0.515222
9942.000000;0.514427
9941.000000;0.513811
9940.000000;0.513351
9939.000000;0.512802
9938.000000;0.511980
9937.000000;0.511008
9936.000000;0.510198
9935.000000;0.509720
9934.000000;0.509467
9933.000000;0.509227
9932.000000;0.508879
9931.000000;0.508423
9930.000000;0.507927
9929.000000;0.507499
9928.000000;0.507223
9927.000000;0.507058
9926.000000;0.506843
9925.000000;0.506447
9924.000000;0.505899
9923.000000;0.505349
9922.000000;0.504928
9921.000000;0.504632
9920.000000;0.504307
9919.000000;0.503784
9918.000000;0.503064
9917.000000;0.502351
9916.000000;0.501834
9915.000000;0.501461
9914.000000;0.501012
9913.000000;0.500352
9912.000000;0.499549
9911.000000;0.498762
9910.000000;0.498140
9909.000000;0.497793
9908.000000;0.497706
9907.000000;0.497632
9906.000000;0.497226
9905.000000;0.496380
9904.000000;0.495363
9903.000000;0.494575
9902.000000;0.494202
9901.000000;0.494113
9900.000000;0.494000
9899.000000;0.493602
9898.000000;0.492915
9897.000000;0.492212
9896.000000;0.491785
9895.000000;0.491609
9894.000000;0.491353
9893.000000;0.490774
9892.000000;0.490000
9891.000000;0.489358
9890.000000;0.489011
9889.000000;0.488836
9888.000000;0.488608
9887.000000;0.488189
9886.000000;0.487564
9885.000000;0.486796
9884.000000;0.485993
9883.000000;0.485280
9882.000000;0.484773
9881.000000;0.484501
9880.000000;0.484348
9879.000000;0.484113
9878.000000;0.483688
9877.000000;0.483156
9876.000000;0.482662
9875.000000;0.482220
9874.000000;0.481710
9873.000000;0.481050
9872.000000;0.480254
9871.000000;0.479387
9870.000000;0.478558
9869.000000;0.477935
9868.000000;0.477613
9867.000000;0.477458
9866.000000;0.477242
9865.000000;0.476922
9864.000000;0.476638
9863.000000;0.476425
9862.000000;0.476130
9861.000000;0.475678
9860.000000;0.475190
9859.000000;0.474731
9858.000000;0.474131
9857.000000;0.473265
9856.000000;0.472361
9855.000000;0.471807
9854.000000;0.471706
9853.000000;0.471794
9852.000000;0.471779
9851.000000;0.471569
9850.000000;0.471185
9849.000000;0.470632
9848.000000;0.469935
9847.000000;0.469204
9846.000000;0.468544
9845.000000;0.467951
9844.000000;0.467338
9843.000000;0.466647
9842.000000;0.465932
9841.000000;0.465315
9840.000000;0.464883
9839.000000;0.464606
9838.000000;0.464358
9837.000000;0.464016
9836.000000;0.463528
9835.000000;0.462908
9834.000000;0.462221
9833.000000;0.461574
9832.000000;0.461062
9831.000000;0.460686
9830.000000;0.460384
9829.000000;0.460137
9828.000000;0.459962
9827.000000;0.459791
9826.000000;0.459473
9825.000000;0.458930
9824.000000;0.458257
9823.000000;0.457594
9822.000000;0.456987
9821.000000;0.456431
9820.000000;0.455956
9819.000000;0.455577
9818.000000;0.455210
9817.000000;0.454751
9816.000000;0.454202
9815.000000;0.453646
9814.000000;0.453126
9813.000000;0.452617
9812.000000;0.452087
9811.000000;0.451520
9810.000000;0.450924
9809.000000;0.450379
9808.000000;0.450027
9807.000000;0.449920
9806.000000;0.449879
9805.000000;0.449613
9804.000000;0.448984
9803.000000;0.448119
9802.000000;0.447276
9801.000000;0.446653
9800.000000;0.446288
9799.000000;0.446058
9798.000000;0.445752
9797.000000;0.445225
9796.000000;0.444534
9795.000000;0.443879
9794.000000;0.443402
9793.000000;0.443069
9792.000000;0.442747
9791.000000;0.442357
9790.000000;0.441912
9789.000000;0.441464
9788.000000;0.441040
9787.000000;0.440633
9786.000000;0.440226
9785.000000;0.439799
9784.000000;0.439347
9783.000000;0.438895
9782.000000;0.438494
9781.000000;0.438172
9780.000000;0.437875
9779.000000;0.437488
9778.000000;0.436932
9777.000000;0.436253
9776.000000;0.435595
9775.000000;0.435073
9774.000000;0.434679
9773.000000;0.434302
9772.000000;0.433829
9771.000000;0.433247
9770.000000;0.432644
9769.000000;0.432109
9768.000000;0.431636
9767.000000;0.431159
9766.000000;0.430675
9765.000000;0.430266
9764.000000;0.429973
9763.000000;0.429733
9762.000000;0.429465
9761.000000;0.429166
9760.000000;0.428827
9759.000000;0.428355
9758.000000;0.427684
9757.000000;0.426936
9756.000000;0.426355
9755.000000;0.426062
9754.000000;0.425943
9753.000000;0.425780
9752.000000;0.425412
9751.000000;0.424820
9750.000000;0.424161
9749.000000;0.423675
9748.000000;0.423446
9747.000000;0.423241
9746.000000;0.422727
9745.000000;0.421845
9744.000000;0.420884
9743.000000;0.420171
9742.000000;0.419822
9741.000000;0.419769
9740.000000;0.419829
9739.000000;0.419725
9738.000000;0.419216
9737.000000;0.418362
9736.000000;0.417521
9735.000000;0.416974
9734.000000;0.416657
9733.000000;0.416344
9732.000000;0.415973
9731.000000;0.415626
9730.000000;0.415310
9729.000000;0.414934
9728.000000;0.414478
9727.000000;0.414024
9726.000000;0.413589
9725.000000;0.413062
9724.000000;0.412380
9723.000000;0.411657
9722.000000;0.411102
9721.000000;0.410816
9720.000000;0.410696
9719.000000;0.410532
9718.000000;0.410199
9717.000000;0.409739
9716.000000;0.409247
9715.000000;0.408701
9714.000000;0.408005
9713.000000;0.407205
9712.000000;0.406533
9711.000000;0.406150
9710.000000;0.405938
9709.000000;0.405635
9708.000000;0.405137
9707.000000;0.404577
9706.000000;0.404126
9705.000000;0.403817
9704.000000;0.403568
9703.000000;0.403273
9702.000000;0.402865
9701.000000;0.402358
9700.000000;0.401837
9699.000000;0.401357
9698.000000;0.400875
9697.000000;0.400347
9696.000000;0.399835
9695.000000;0.399450
9694.000000;0.399185
9693.000000;0.398916
9692.000000;0.398570
9691.000000;0.398218
9690.000000;0.397938
9689.000000;0.397673
9688.000000;0.397298
9687.000000;0.396762
9686.000000;0.396130
9685.000000;0.395494
9684.000000;0.394912
9683.000000;0.394426
9682.000000;0.394063
9681.000000;0.393803
9680.000000;0.393588
9679.000000;0.393377
9678.000000;0.393170
9677.000000;0.392931
9676.000000;0.392557
9675.000000;0.391967
9674.000000;0.391233
9673.000000;0.390557
9672.000000;0.390086
9671.000000;0.389785
9670.000000;0.389510
9669.000000;0.389145
9668.000000;0.388668
9667.000000;0.388134
9666.000000;0.387651
9665.000000;0.387310
9664.000000;0.387086
9663.000000;0.386813
9662.000000;0.386329
9661.000000;0.385637
9660.000000;0.384887
9659.000000;0.384228
9658.000000;0.383745
9657.000000;0.383458
9656.000000;0.383297
9655.000000;0.383085
9654.000000;0.382668
9653.000000;0.382098
9652.000000;0.381602
9651.000000;0.381333
9650.000000;0.381216
9649.000000;0.381045
9648.000000;0.380687
9647.000000;0.380146
9646.000000;0.379509
9645.000000;0.378853
9644.000000;0.378196
9643.000000;0.377511
9642.000000;0.376817
9641.000000;0.376217
9640.000000;0.375808
9639.000000;0.375548
9638.000000;0.375313
9637.000000;0.375065
9636.000000;0.374874
9635.000000;0.374752
9634.000000;0.374554
9633.000000;0.374123
9632.000000;0.373473
9631.000000;0.372773
9630.000000;0.372196
9629.000000;0.371797
9628.000000;0.371491
9627.000000;0.371107
9626.000000;0.370529
9625.000000;0.369823
9624.000000;0.369195
9623.000000;0.368789
9622.000000;0.368576
9621.000000;0.368429
9620.000000;0.368236
9619.000000;0.367916
9618.000000;0.367426
9617.000000;0.366815
9616.000000;0.366228
9615.000000;0.365793
9614.000000;0.365503
9613.000000;0.365255
9612.000000;0.364972
9611.000000;0.364644
9610.000000;0.364280
9609.000000;0.363890
9608.000000;0.363502
9607.000000;0.363142
9606.000000;0.362802
9605.000000;0.362442
9604.000000;0.362028
9603.000000;0.361568
9602.000000;0.361095
9601.000000;0.360634
9600.000000;0.360143
9599.000000;0.359538
9598.000000;0.358787
9597.000000;0.357991
9596.000000;0.357323
9595.000000;0.356887
9594.000000;0.356659
9593.000000;0.356533
9592.000000;0.356394
9591.000000;0.356161
9590.000000;0.355849
9589.000000;0.355572
9588.000000;0.355413
9587.000000;0.355296
9586.000000;0.355070
9585.000000;0.354718
9584.000000;0.354380
9583.000000;0.354158
9582.000000;0.353975
9581.000000;0.353672
9580.000000;0.353161
9579.000000;0.352455
9578.000000;0.351632
9577.000000;0.350822
9576.000000;0.350159
9575.000000;0.349666
9574.000000;0.349237
9573.000000;0.348776
9572.000000;0.348309
9571.000000;0.347915
9570.000000;0.347603
9569.000000;0.347300
9568.000000;0.346937
9567.000000;0.346503
9566.000000;0.346053
9565.000000;0.345674
9564.000000;0.345400
9563.000000;0.345154
9562.000000;0.344825
9561.000000;0.344418
9560.000000;0.344051
9559.000000;0.343776
9558.000000;0.343497
9557.000000;0.343099
9556.000000;0.342600
9555.000000;0.342095
9554.000000;0.341645
9553.000000;0.341275
9552.000000;0.341017
9551.000000;0.340853
9550.000000;0.340673
9549.000000;0.340385
9548.000000;0.340025
9547.000000;0.339666
9546.000000;0.339255
9545.000000;0.338655
9544.000000;0.337872
9543.000000;0.337119
9542.000000;0.336621
9541.000000;0.336403
9540.000000;0.336312
9539.000000;0.336195
9538.000000;0.335995
9537.000000;0.335690
9536.000000;0.335234
9535.000000;0.334623
9534.000000;0.333994
9533.000000;0.333551
9532.000000;0.333353
9531.000000;0.333224
9530.000000;0.332939
9529.000000;0.332465
9528.000000;0.331953
9527.000000;0.331524
9526.000000;0.331173
9525.000000;0.330870
9524.000000;0.330622
9523.000000;0.330380
9522.000000;0.330005
9521.000000;0.329420
9520.000000;0.328741
9519.000000;0.328178
9518.000000;0.327824
9517.000000;0.327599
9516.000000;0.327392
9515.000000;0.327171
9514.000000;0.326960
9513.000000;0.326751
9512.000000;0.326471
9511.000000;0.326031
9510.000000;0.325434
9509.000000;0.324793
9508.000000;0.324229
9507.000000;0.323758
9506.000000;0.323306
9505.000000;0.322844
9504.000000;0.322423
9503.000000;0.322097
9502.000000;0.321857
9501.000000;0.321654
9500.000000;0.321408
9499.000000;0.321013
9498.000000;0.320421
9497.000000;0.319759
9496.000000;0.319253
9495.000000;0.318997
9494.000000;0.318863
9493.000000;0.318687
9492.000000;0.318457
9491.000000;0.318247
9490.000000;0.318052
9489.000000;0.317795
9488.000000;0.317440
9487.000000;0.317022
9486.000000;0.316579
9485.000000;0.316146
9484.000000;0.315766
9483.000000;0.315447
9482.000000;0.315134
9481.000000;0.314782
9480.000000;0.314434
9479.000000;0.314136
9478.000000;0.313832
9477.000000;0.313428
9476.000000;0.312955
9475.000000;0.312547
9474.000000;0.312266
9473.000000;0.312029
9472.000000;0.311750
9471.000000;0.311453
9470.000000;0.311197
9469.000000;0.310938
9468.000000;0.310540
9467.000000;0.309932
9466.000000;0.309215
9465.000000;0.308609
9464.000000;0.308284
9463.000000;0.308226
9462.000000;0.308234
9461.000000;0.308072
9460.000000;0.307626
9459.000000;0.306960
9458.000000;0.306230
9457.000000;0.305579
9456.000000;0.305071
9455.000000;0.304696
9454.000000;0.304417
9453.000000;0.304199
9452.000000;0.303999
9451.000000;0.303771
9450.000000;0.303506
9449.000000;0.303251
9448.000000;0.303041
9447.000000;0.302826
9446.000000;0.302516
9445.000000;0.302105
9444.000000;0.301696
9443.000000;0.301381
9442.000000;0.301145
9441.000000;0.300907
9440.000000;0.300613
9439.000000;0.300263
9438.000000;0.299889
9437.000000;0.299539
9436.000000;0.299244
9435.000000;0.298965
9434.000000;0.298612
9433.000000;0.298152
9432.000000;0.297669
9431.000000;0.297285
9430.000000;0.297053
9429.000000;0.296929
9428.000000;0.296822
9427.000000;0.296627
9426.000000;0.296267
9425.000000;0.295746
9424.000000;0.295165
9423.000000;0.294634
9422.000000;0.294194
9421.000000;0.293825
9420.000000;0.293497
9419.000000;0.293161
9418.000000;0.292764
9417.000000;0.292312
9416.000000;0.291923
9415.000000;0.291722
9414.000000;0.291692
9413.000000;0.291667
9412.000000;0.291487
9411.000000;0.291131
9410.000000;0.290690
9409.000000;0.290239
9408.000000;0.289772
9407.000000;0.289253
9406.000000;0.288701
9405.000000;0.288201
9404.000000;0.287822
9403.000000;0.287556
9402.000000;0.287338
9401.000000;0.287123
9400.000000;0.286904
9399.000000;0.286686
9398.000000;0.286459
9397.000000;0.286210
9396.000000;0.285905
9395.000000;0.285477
9394.000000;0.284907
9393.000000;0.284317
9392.000000;0.283917
9391.000000;0.283780
9390.000000;0.283715
9389.000000;0.283447
9388.000000;0.282897
9387.000000;0.282260
9386.000000;0.281781
9385.000000;0.281530
9384.000000;0.281390
9383.000000;0.281226
9382.000000;0.281003
9381.000000;0.280761
9380.000000;0.280530
9379.000000;0.280308
9378.000000;0.280093
9377.000000;0.279895
9376.000000;0.279692
9375.000000;0.279428
9374.000000;0.279075
9373.000000;0.278655
9372.000000;0.278192
9371.000000;0.277670
9370.000000;0.277092
9369.000000;0.276543
9368.000000;0.276110
9367.000000;0.275789
9366.000000;0.275514
9365.000000;0.275278
9364.000000;0.275122
9363.000000;0.275023
9362.000000;0.274882
9361.000000;0.274658
9360.000000;0.274404
9359.000000;0.274157
9358.000000;0.273876
9357.000000;0.273529
9356.000000;0.273163
9355.000000;0.272828
9354.000000;0.272490
9353.000000;0.272100
9352.000000;0.271705
9351.000000;0.271407
9350.000000;0.271237
9349.000000;0.271121
9348.000000;0.270949
9347.000000;0.270629
9346.000000;0.270125
9345.000000;0.269526
9344.000000;0.269046
9343.000000;0.268843
9342.000000;0.268816
9341.000000;0.268683
9340.000000;0.268285
9339.000000;0.267759
9338.000000;0.267363
9337.000000;0.267185
9336.000000;0.267083
9335.000000;0.266875
9334.000000;0.266518
9333.000000;0.266107
9332.000000;0.265753
9331.000000;0.265493
9330.000000;0.265291
9329.000000;0.265086
9328.000000;0.264849
9327.000000;0.264585
9326.000000;0.264294
9325.000000;0.263938
9324.000000;0.263480
9323.000000;0.262954
9322.000000;0.262476
9321.000000;0.262157
9320.000000;0.262013
9319.000000;0.261952
9318.000000;0.261837
9317.000000;0.261572
9316.000000;0.261170
9315.000000;0.260765
9314.000000;0.260501
9313.000000;0.260362
9312.000000;0.260153
9311.000000;0.259721
9310.000000;0.259167
9309.000000;0.258736
9308.000000;0.258509
9307.000000;0.258326
9306.000000;0.258028
9305.000000;0.257672
9304.000000;0.257416
9303.000000;0.257293
9302.000000;0.257177
9301.000000;0.256958
9300.000000;0.256647
9299.000000;0.256335
9298.000000;0.256091
9297.000000;0.255899
9296.000000;0.255655
9295.000000;0.255267
9294.000000;0.254791
9293.000000;0.254404
9292.000000;0.254203
9291.000000;0.254093
9290.000000;0.253938
9289.000000;0.253722
9288.000000;0.253489
9287.000000;0.253215
9286.000000;0.252859
9285.000000;0.252495
9284.000000;0.252235
9283.000000;0.252048
9282.000000;0.251801
9281.000000;0.251442
9280.000000;0.251039
9279.000000;0.250645
9278.000000;0.250257
9277.000000;0.249930
9276.000000;0.249760
9275.000000;0.249720
9274.000000;0.249632
9273.000000;0.249357
9272.000000;0.248917
9271.000000;0.248397
9270.000000;0.247849
9269.000000;0.247335
9268.000000;0.246974
9267.000000;0.246818
9266.000000;0.246776
9265.000000;0.246707
9264.000000;0.246554
9263.000000;0.246305
9262.000000;0.245940
9261.000000;0.245485
9260.000000;0.245062
9259.000000;0.244795
9258.000000;0.244665
9257.000000;0.244535
9256.000000;0.244314
9255.000000;0.244037
9254.000000;0.243793
9253.000000;0.243614
9252.000000;0.243429
9251.000000;0.243124
9250.000000;0.242653
9249.000000;0.242103
9248.000000;0.241632
9247.000000;0.241334
9246.000000;0.241193
9245.000000;0.241146
9244.000000;0.241132
9243.000000;0.241082
9242.000000;0.240946
9241.000000;0.240741
9240.000000;0.240516
9239.000000;0.240243
9238.000000;0.239836
9237.000000;0.239312
9236.000000;0.238840
9235.000000;0.238569
9234.000000;0.238459
9233.000000;0.238334
9232.000000;0.238069
9231.000000;0.237677
9230.000000;0.237256
9229.000000;0.236909
9228.000000;0.236674
9227.000000;0.236495
9226.000000;0.236295
9225.000000;0.236079
9224.000000;0.235904
9223.000000;0.235753
9222.000000;0.235511
9221.000000;0.235141
9220.000000;0.234786
9219.000000;0.234590
9218.000000;0.234507
9217.000000;0.234358
9216.000000;0.234080
9215.000000;0.233788
9214.000000;0.233593
9213.000000;0.233465
9212.000000;0.233290
9211.000000;0.233020
9210.000000;0.232703
9209.000000;0.232410
9208.000000;0.232174
9207.000000;0.231987
9206.000000;0.231839
9205.000000;0.231710
9204.000000;0.231549
9203.000000;0.231287
9202.000000;0.230903
9201.000000;0.230469
9200.000000;0.230074
9199.000000;0.229729
9198.000000;0.229402
9197.000000;0.229105
9196.000000;0.228884
9195.000000;0.228714
9194.000000;0.228499
9193.000000;0.228210
9192.000000;0.227937
9191.000000;0.227763
9190.000000;0.227640
9189.000000;0.227456
9188.000000;0.227171
9187.000000;0.226846
9186.000000;0.226570
9185.000000;0.226410
9184.000000;0.226393
9183.000000;0.226457
9182.000000;0.226459
9181.000000;0.226290
9180.000000;0.225978
9179.000000;0.225645
9178.000000;0.225372
9177.000000;0.225140
9176.000000;0.224892
9175.000000;0.224587
9174.000000;0.224222
9173.000000;0.223822
9172.000000;0.223425
9171.000000;0.223061
9170.000000;0.222747
9169.000000;0.222511
9168.000000;0.222384
9167.000000;0.222352
9166.000000;0.222334
9165.000000;0.222246
9164.000000;0.222056
9163.000000;0.221787
9162.000000;0.221474
9161.000000;0.221157
9160.000000;0.220883
9159.000000;0.220686
9158.000000;0.220561
9157.000000;0.220449
9156.000000;0.220256
9155.000000;0.219914
9154.000000;0.219468
9153.000000;0.219078
9152.000000;0.218894
9151.000000;0.218919
9150.000000;0.219026
9149.000000;0.219084
9148.000000;0.219009
9147.000000;0.218744
9146.000000;0.218292
9145.000000;0.217790
9144.000000;0.217422
9143.000000;0.217209
9142.000000;0.216981
9141.000000;0.216617
9140.000000;0.216205
9139.000000;0.215903
9138.000000;0.215743
9137.000000;0.215644
9136.000000;0.215550
9135.000000;0.215444
9134.000000;0.215282
9133.000000;0.215028
9132.000000;0.214743
9131.000000;0.214537
9130.000000;0.214439
9129.000000;0.214385
9128.000000;0.214306
9127.000000;0.214155
9126.000000;0.213883
9125.000000;0.213496
9124.000000;0.213122
9123.000000;0.212924
9122.000000;0.212911
9121.000000;0.212912
9120.000000;0.212751
9119.000000;0.212402
9118.000000;0.211969
9117.000000;0.211570
9116.000000;0.211272
9115.000000;0.211076
9114.000000;0.210928
9113.000000;0.210768
9112.000000;0.210575
9111.000000;0.210360
9110.000000;0.210120
9109.000000;0.209848
9108.000000;0.209573
9107.000000;0.209341
9106.000000;0.209161
9105.000000;0.209013
9104.000000;0.208898
9103.000000;0.208810
9102.000000;0.208668
9101.000000;0.208359
9100.000000;0.207891
9099.000000;0.207440
9098.000000;0.207193
9097.000000;0.207170
9096.000000;0.207242
9095.000000;0.207278
9094.000000;0.207239
9093.000000;0.207144
9092.000000;0.207006
9091.000000;0.206807
9090.000000;0.206527
9089.000000;0.206180
9088.000000;0.205824
9087.000000;0.205533
9086.000000;0.205341
9085.000000;0.205233
9084.000000;0.205168
9083.000000;0.205101
9082.000000;0.204983
9081.000000;0.204787
9080.000000;0.204547
9079.000000;0.204332
9078.000000;0.204149
9077.000000;0.203913
9076.000000;0.203555
9075.000000;0.203135
9074.000000;0.202796
9073.000000;0.202613
9072.000000;0.202530
9071.000000;0.202446
9070.000000;0.202311
9069.000000;0.202132
9068.000000;0.201934
9067.000000;0.201741
9066.000000;0.201573
9065.000000;0.201415
9064.000000;0.201221
9063.000000;0.200981
9062.000000;0.200751
9061.000000;0.200595
9060.000000;0.200492
9059.000000;0.200361
9058.000000;0.200174
9057.000000;0.199991
9056.000000;0.199876
9055.000000;0.199815
9054.000000;0.199721
9053.000000;0.199514
