Criado como novo conjunto de dados;"e2410_daniel_v2.spp","67865.6 Secs"
cm-1;Abs
10000.000000;1.257042
9999.000000;1.255409
9998.000000;1.253476
9997.000000;1.251824
9996.000000;1.251023
9995.000000;1.251053
9994.000000;1.251462
9993.000000;1.251826
9992.000000;1.252239
9991.000000;1.252687
9990.000000;1.252628
9989.000000;1.251542
9988.000000;1.249717
9987.000000;1.247964
9986.000000;1.246801
9985.000000;1.246300
9984.000000;1.246394
9983.000000;1.246853
9982.000000;1.247159
9981.000000;1.246923
9980.000000;1.246299
9979.000000;1.245636
9978.000000;1.244939
9977.000000;1.244063
9976.000000;1.243180
9975.000000;1.242528
9974.000000;1.241904
9973.000000;1.240958
9972.000000;1.239893
9971.000000;1.239312
9970.000000;1.239369
9969.000000;1.239560
9968.000000;1.239406
9967.000000;1.238960
9966.000000;1.238518
9965.000000;1.238135
9964.000000;1.237537
9963.000000;1.236435
9962.000000;1.234919
9961.000000;1.233554
9960.000000;1.232876
9959.000000;1.232736
9958.000000;1.232435
9957.000000;1.231671
9956.000000;1.230962
9955.000000;1.230857
9954.000000;1.231128
9953.000000;1.231145
9952.000000;1.230754
9951.000000;1.230242
9950.000000;1.229668
9949.000000;1.228836
9948.000000;1.227814
9947.000000;1.226972
9946.000000;1.226540
9945.000000;1.226484
9944.000000;1.226715
9943.000000;1.227027
9942.000000;1.226923
9941.000000;1.225977
9940.000000;1.224374
9939.000000;1.222749
9938.000000;1.221502
9937.000000;1.220595
9936.000000;1.219878
9935.000000;1.219204
9934.000000;1.218305
9933.000000;1.217054
9932.000000;1.215879
9931.000000;1.215501
9930.000000;1.216116
9929.000000;1.217169
9928.000000;1.218066
9927.000000;1.218809
9926.000000;1.219674
9925.000000;1.220539
9924.000000;1.220781
9923.000000;1.219852
9922.000000;1.217850
9921.000000;1.215514
9920.000000;1.213642
9919.000000;1.212513
9918.000000;1.211914
9917.000000;1.211632
9916.000000;1.211669
9915.000000;1.211932
9914.000000;1.212071
9913.000000;1.211826
9912.000000;1.211274
9911.000000;1.210525
9910.000000;1.209493
9909.000000;1.208286
9908.000000;1.207462
9907.000000;1.207415
9906.000000;1.207701
9905.000000;1.207489
9904.000000;1.206608
9903.000000;1.205715
9902.000000;1.205401
9901.000000;1.205583
9900.000000;1.205788
9899.000000;1.205619
9898.000000;1.204887
9897.000000;1.203663
9896.000000;1.202350
9895.000000;1.201423
9894.000000;1.200925
9893.000000;1.200387
9892.000000;1.199350
9891.000000;1.197832
9890.000000;1.196256
9889.000000;1.195095
9888.000000;1.194610
9887.000000;1.194693
9886.000000;1.194864
9885.000000;1.194637
9884.000000;1.194027
9883.000000;1.193579
9882.000000;1.193763
9881.000000;1.194390
9880.000000;1.194699
9879.000000;1.194029
9878.000000;1.192396
9877.000000;1.190488
9876.000000;1.189115
9875.000000;1.188644
9874.000000;1.188883
9873.000000;1.189396
9872.000000;1.189816
9871.000000;1.189930
9870.000000;1.189678
9869.000000;1.189191
9868.000000;1.188688
9867.000000;1.188252
9866.000000;1.187781
9865.000000;1.187201
9864.000000;1.186598
9863.000000;1.186094
9862.000000;1.185709
9861.000000;1.185395
9860.000000;1.185074
9859.000000;1.184618
9858.000000;1.183959
9857.000000;1.183244
9856.000000;1.182683
9855.000000;1.182207
9854.000000;1.181525
9853.000000;1.180603
9852.000000;1.179797
9851.000000;1.179381
9850.000000;1.179215
9849.000000;1.179031
9848.000000;1.178776
9847.000000;1.178468
9846.000000;1.177967
9845.000000;1.177194
9844.000000;1.176376
9843.000000;1.175829
9842.000000;1.175585
9841.000000;1.175430
9840.000000;1.175183
9839.000000;1.174805
9838.000000;1.174347
9837.000000;1.173924
9836.000000;1.173577
9835.000000;1.173106
9834.000000;1.172254
9833.000000;1.171184
9832.000000;1.170409
9831.000000;1.170088
9830.000000;1.169722
9829.000000;1.168846
9828.000000;1.167708
9827.000000;1.166914
9826.000000;1.166651
9825.000000;1.166661
9824.000000;1.166722
9823.000000;1.166712
9822.000000;1.166346
9821.000000;1.165356
9820.000000;1.163953
9819.000000;1.162724
9818.000000;1.162011
9817.000000;1.161625
9816.000000;1.161188
9815.000000;1.160535
9814.000000;1.159831
9813.000000;1.159429
9812.000000;1.159548
9811.000000;1.159909
9810.000000;1.159881
9809.000000;1.159196
9808.000000;1.158366
9807.000000;1.158064
9806.000000;1.158288
9805.000000;1.158459
9804.000000;1.158189
9803.000000;1.157504
9802.000000;1.156472
9801.000000;1.155124
9800.000000;1.153785
9799.000000;1.152964
9798.000000;1.152750
9797.000000;1.152689
9796.000000;1.152432
9795.000000;1.152160
9794.000000;1.152144
9793.000000;1.152167
9792.000000;1.151704
9791.000000;1.150563
9790.000000;1.149125
9789.000000;1.147977
9788.000000;1.147463
9787.000000;1.147563
9786.000000;1.148049
9785.000000;1.148672
9784.000000;1.149202
9783.000000;1.149380
9782.000000;1.149002
9781.000000;1.148122
9780.000000;1.147057
9779.000000;1.146091
9778.000000;1.145262
9777.000000;1.144559
9776.000000;1.144144
9775.000000;1.144137
9774.000000;1.144254
9773.000000;1.143946
9772.000000;1.142960
9771.000000;1.141611
9770.000000;1.140481
9769.000000;1.139960
9768.000000;1.140036
9767.000000;1.140325
9766.000000;1.140283
9765.000000;1.139575
9764.000000;1.138335
9763.000000;1.137002
9762.000000;1.135957
9761.000000;1.135351
9760.000000;1.135164
9759.000000;1.135196
9758.000000;1.135074
9757.000000;1.134523
9756.000000;1.133721
9755.000000;1.133157
9754.000000;1.133088
9753.000000;1.133271
9752.000000;1.133298
9751.000000;1.133011
9750.000000;1.132489
9749.000000;1.131762
9748.000000;1.130772
9747.000000;1.129618
9746.000000;1.128685
9745.000000;1.128393
9744.000000;1.128811
9743.000000;1.129489
9742.000000;1.129720
9741.000000;1.129038
9740.000000;1.127541
9739.000000;1.125777
9738.000000;1.124294
9737.000000;1.123297
9736.000000;1.122668
9735.000000;1.122275
9734.000000;1.122199
9733.000000;1.122563
9732.000000;1.123191
9731.000000;1.123549
9730.000000;1.123183
9729.000000;1.122178
9728.000000;1.121094
9727.000000;1.120461
9726.000000;1.120381
9725.000000;1.120557
9724.000000;1.120568
9723.000000;1.120157
9722.000000;1.119387
9721.000000;1.118551
9720.000000;1.117858
9719.000000;1.117231
9718.000000;1.116507
9717.000000;1.115718
9716.000000;1.115007
9715.000000;1.114334
9714.000000;1.113536
9713.000000;1.112694
9712.000000;1.112168
9711.000000;1.112134
9710.000000;1.112268
9709.000000;1.112047
9708.000000;1.111300
9707.000000;1.110343
9706.000000;1.109625
9705.000000;1.109339
9704.000000;1.109332
9703.000000;1.109297
9702.000000;1.109032
9701.000000;1.108493
9700.000000;1.107627
9699.000000;1.106361
9698.000000;1.104913
9697.000000;1.103920
9696.000000;1.103932
9695.000000;1.104755
9694.000000;1.105592
9693.000000;1.105882
9692.000000;1.105759
9691.000000;1.105611
9690.000000;1.105489
9689.000000;1.105167
9688.000000;1.104538
9687.000000;1.103716
9686.000000;1.102849
9685.000000;1.102026
9684.000000;1.101302
9683.000000;1.100683
9682.000000;1.100116
9681.000000;1.099577
9680.000000;1.099123
9679.000000;1.098799
9678.000000;1.098547
9677.000000;1.098232
9676.000000;1.097713
9675.000000;1.096959
9674.000000;1.096178
9673.000000;1.095732
9672.000000;1.095757
9671.000000;1.095925
9670.000000;1.095791
9669.000000;1.095295
9668.000000;1.094708
9667.000000;1.094136
9666.000000;1.093430
9665.000000;1.092588
9664.000000;1.091882
9663.000000;1.091443
9662.000000;1.091046
9661.000000;1.090472
9660.000000;1.089880
9659.000000;1.089585
9658.000000;1.089594
9657.000000;1.089509
9656.000000;1.088889
9655.000000;1.087692
9654.000000;1.086446
9653.000000;1.085889
9652.000000;1.086230
9651.000000;1.086803
9650.000000;1.086694
9649.000000;1.085690
9648.000000;1.084343
9647.000000;1.083185
9646.000000;1.082311
9645.000000;1.081730
9644.000000;1.081588
9643.000000;1.081816
9642.000000;1.081975
9641.000000;1.081731
9640.000000;1.081219
9639.000000;1.080728
9638.000000;1.080321
9637.000000;1.079982
9636.000000;1.079808
9635.000000;1.079790
9634.000000;1.079656
9633.000000;1.079219
9632.000000;1.078638
9631.000000;1.078103
9630.000000;1.077526
9629.000000;1.076774
9628.000000;1.075953
9627.000000;1.075215
9626.000000;1.074542
9625.000000;1.073976
9624.000000;1.073768
9623.000000;1.073972
9622.000000;1.074151
9621.000000;1.073844
9620.000000;1.073115
9619.000000;1.072309
9618.000000;1.071527
9617.000000;1.070774
9616.000000;1.070373
9615.000000;1.070668
9614.000000;1.071330
9613.000000;1.071460
9612.000000;1.070510
9611.000000;1.068792
9610.000000;1.067064
9609.000000;1.065938
9608.000000;1.065706
9607.000000;1.066278
9606.000000;1.067124
9605.000000;1.067521
9604.000000;1.067094
9603.000000;1.066042
9602.000000;1.064865
9601.000000;1.064004
9600.000000;1.063682
9599.000000;1.063777
9598.000000;1.063822
9597.000000;1.063392
9596.000000;1.062586
9595.000000;1.061909
9594.000000;1.061592
9593.000000;1.061290
9592.000000;1.060553
9591.000000;1.059410
9590.000000;1.058318
9589.000000;1.057670
9588.000000;1.057505
9587.000000;1.057627
9586.000000;1.057814
9585.000000;1.057927
9584.000000;1.057911
9583.000000;1.057737
9582.000000;1.057360
9581.000000;1.056746
9580.000000;1.055917
9579.000000;1.054944
9578.000000;1.053929
9577.000000;1.053039
9576.000000;1.052473
9575.000000;1.052313
9574.000000;1.052413
9573.000000;1.052488
9572.000000;1.052316
9571.000000;1.051828
9570.000000;1.051105
9569.000000;1.050356
9568.000000;1.049826
9567.000000;1.049580
9566.000000;1.049399
9565.000000;1.048996
9564.000000;1.048340
9563.000000;1.047678
9562.000000;1.047227
9561.000000;1.046936
9560.000000;1.046596
9559.000000;1.046126
9558.000000;1.045700
9557.000000;1.045594
9556.000000;1.045914
9555.000000;1.046413
9554.000000;1.046591
9553.000000;1.046024
9552.000000;1.044726
9551.000000;1.043226
9550.000000;1.042253
9549.000000;1.042212
9548.000000;1.042867
9547.000000;1.043535
9546.000000;1.043636
9545.000000;1.043054
9544.000000;1.042058
9543.000000;1.041021
9542.000000;1.040268
9541.000000;1.039959
9540.000000;1.039914
9539.000000;1.039671
9538.000000;1.038950
9537.000000;1.037999
9536.000000;1.037320
9535.000000;1.037110
9534.000000;1.037145
9533.000000;1.037099
9532.000000;1.036744
9531.000000;1.035958
9530.000000;1.034839
9529.000000;1.033801
9528.000000;1.033243
9527.000000;1.033100
9526.000000;1.032953
9525.000000;1.032608
9524.000000;1.032269
9523.000000;1.032118
9522.000000;1.032031
9521.000000;1.031842
9520.000000;1.031560
9519.000000;1.031184
9518.000000;1.030588
9517.000000;1.029784
9516.000000;1.029058
9515.000000;1.028642
9514.000000;1.028453
9513.000000;1.028284
9512.000000;1.028060
9511.000000;1.027724
9510.000000;1.027116
9509.000000;1.026197
9508.000000;1.025247
9507.000000;1.024618
9506.000000;1.024368
9505.000000;1.024283
9504.000000;1.024162
9503.000000;1.023919
9502.000000;1.023581
9501.000000;1.023319
9500.000000;1.023306
9499.000000;1.023404
9498.000000;1.023183
9497.000000;1.022453
9496.000000;1.021597
9495.000000;1.021143
9494.000000;1.021128
9493.000000;1.021139
9492.000000;1.020894
9491.000000;1.020541
9490.000000;1.020373
9489.000000;1.020419
9488.000000;1.020365
9487.000000;1.019828
9486.000000;1.018761
9485.000000;1.017615
9484.000000;1.016981
9483.000000;1.016994
9482.000000;1.017201
9481.000000;1.017089
9480.000000;1.016582
9479.000000;1.015897
9478.000000;1.015154
9477.000000;1.014344
9476.000000;1.013565
9475.000000;1.013012
9474.000000;1.012762
9473.000000;1.012737
9472.000000;1.012848
9471.000000;1.013033
9470.000000;1.013173
9469.000000;1.013127
9468.000000;1.012840
9467.000000;1.012356
9466.000000;1.011773
9465.000000;1.011251
9464.000000;1.010931
9463.000000;1.010736
9462.000000;1.010371
9461.000000;1.009666
9460.000000;1.008821
9459.000000;1.008153
9458.000000;1.007720
9457.000000;1.007362
9456.000000;1.007014
9455.000000;1.006750
9454.000000;1.006559
9453.000000;1.006317
9452.000000;1.006014
9451.000000;1.005817
9450.000000;1.005800
9449.000000;1.005770
9448.000000;1.005449
9447.000000;1.004795
9446.000000;1.004043
9445.000000;1.003432
9444.000000;1.002947
9443.000000;1.002402
9442.000000;1.001771
9441.000000;1.001280
9440.000000;1.001089
9439.000000;1.000981
9438.000000;1.000571
9437.000000;0.999787
9436.000000;0.998952
9435.000000;0.998386
9434.000000;0.998139
9433.000000;0.998162
9432.000000;0.998477
9431.000000;0.999000
9430.000000;0.999396
9429.000000;0.999339
9428.000000;0.998838
9427.000000;0.998132
9426.000000;0.997352
9425.000000;0.996471
9424.000000;0.995535
9423.000000;0.994756
9422.000000;0.994313
9421.000000;0.994140
9420.000000;0.993971
9419.000000;0.993611
9418.000000;0.993165
9417.000000;0.992947
9416.000000;0.993082
9415.000000;0.993250
9414.000000;0.992978
9413.000000;0.992157
9412.000000;0.991115
9411.000000;0.990175
9410.000000;0.989362
9409.000000;0.988603
9408.000000;0.987991
9407.000000;0.987701
9406.000000;0.987769
9405.000000;0.988079
9404.000000;0.988463
9403.000000;0.988697
9402.000000;0.988550
9401.000000;0.987980
9400.000000;0.987253
9399.000000;0.986728
9398.000000;0.986531
9397.000000;0.986460
9396.000000;0.986175
9395.000000;0.985517
9394.000000;0.984735
9393.000000;0.984341
9392.000000;0.984562
9391.000000;0.984988
9390.000000;0.984987
9389.000000;0.984463
9388.000000;0.983905
9387.000000;0.983647
9386.000000;0.983441
9385.000000;0.982894
9384.000000;0.982025
9383.000000;0.981149
9382.000000;0.980459
9381.000000;0.979980
9380.000000;0.979730
9379.000000;0.979638
9378.000000;0.979462
9377.000000;0.979068
9376.000000;0.978666
9375.000000;0.978518
9374.000000;0.978493
9373.000000;0.978214
9372.000000;0.977614
9371.000000;0.977063
9370.000000;0.976901
9369.000000;0.977054
9368.000000;0.977132
9367.000000;0.976768
9366.000000;0.975861
9365.000000;0.974654
9364.000000;0.973587
9363.000000;0.972966
9362.000000;0.972752
9361.000000;0.972721
9360.000000;0.972728
9359.000000;0.972713
9358.000000;0.972572
9357.000000;0.972282
9356.000000;0.972097
9355.000000;0.972300
9354.000000;0.972689
9353.000000;0.972574
9352.000000;0.971534
9351.000000;0.970045
9350.000000;0.969122
9349.000000;0.969315
9348.000000;0.970165
9347.000000;0.970657
9346.000000;0.970149
9345.000000;0.968822
9344.000000;0.967352
9343.000000;0.966306
9342.000000;0.965867
9341.000000;0.965894
9340.000000;0.966050
9339.000000;0.965908
9338.000000;0.965209
9337.000000;0.964120
9336.000000;0.963165
9335.000000;0.962792
9334.000000;0.963064
9333.000000;0.963720
9332.000000;0.964413
9331.000000;0.964839
9330.000000;0.964781
9329.000000;0.964230
9328.000000;0.963451
9327.000000;0.962816
9326.000000;0.962527
9325.000000;0.962482
9324.000000;0.962399
9323.000000;0.962061
9322.000000;0.961509
9321.000000;0.961024
9320.000000;0.960880
9319.000000;0.961075
9318.000000;0.961309
9317.000000;0.961218
9316.000000;0.960623
9315.000000;0.959610
9314.000000;0.958463
9313.000000;0.957521
9312.000000;0.957006
9311.000000;0.956916
9310.000000;0.957053
9309.000000;0.957119
9308.000000;0.956822
9307.000000;0.956042
9306.000000;0.955018
9305.000000;0.954256
9304.000000;0.954087
9303.000000;0.954351
9302.000000;0.954605
9301.000000;0.954561
9300.000000;0.954183
9299.000000;0.953514
9298.000000;0.952678
9297.000000;0.951994
9296.000000;0.951763
9295.000000;0.951875
9294.000000;0.951900
9293.000000;0.951632
9292.000000;0.951334
9291.000000;0.951327
9290.000000;0.951565
9289.000000;0.951754
9288.000000;0.951698
9287.000000;0.951390
9286.000000;0.950894
9285.000000;0.950322
9284.000000;0.949809
9283.000000;0.949397
9282.000000;0.949001
9281.000000;0.948554
9280.000000;0.948086
9279.000000;0.947619
9278.000000;0.947136
9277.000000;0.946698
9276.000000;0.946443
9275.000000;0.946368
9274.000000;0.946265
9273.000000;0.945982
9272.000000;0.945607
9271.000000;0.945326
9270.000000;0.945180
9269.000000;0.945069
9268.000000;0.944882
9267.000000;0.944541
9266.000000;0.944011
9265.000000;0.943349
9264.000000;0.942679
9263.000000;0.942079
9262.000000;0.941598
9261.000000;0.941335
9260.000000;0.941365
9259.000000;0.941562
9258.000000;0.941697
9257.000000;0.941720
9256.000000;0.941726
9255.000000;0.941628
9254.000000;0.941163
9253.000000;0.940357
9252.000000;0.939674
9251.000000;0.939498
9250.000000;0.939650
9249.000000;0.939637
9248.000000;0.939246
9247.000000;0.938683
9246.000000;0.938270
9245.000000;0.938178
9244.000000;0.938351
9243.000000;0.938503
9242.000000;0.938273
9241.000000;0.937549
9240.000000;0.936613
9239.000000;0.935841
9238.000000;0.935348
9237.000000;0.935046
9236.000000;0.934875
9235.000000;0.934837
9234.000000;0.934874
9233.000000;0.934918
9232.000000;0.934975
9231.000000;0.935013
9230.000000;0.934848
9229.000000;0.934337
9228.000000;0.933635
9227.000000;0.933068
9226.000000;0.932752
9225.000000;0.932507
9224.000000;0.932156
9223.000000;0.931777
9222.000000;0.931629
9221.000000;0.931895
9220.000000;0.932468
9219.000000;0.932937
9218.000000;0.932834
9217.000000;0.932016
9216.000000;0.930787
9215.000000;0.929586
9214.000000;0.928642
9213.000000;0.927977
9212.000000;0.927602
9211.000000;0.927526
9210.000000;0.927605
9209.000000;0.927616
9208.000000;0.927511
9207.000000;0.927489
9206.000000;0.927722
9205.000000;0.928081
9204.000000;0.928188
9203.000000;0.927753
9202.000000;0.926827
9201.000000;0.925777
9200.000000;0.924981
9199.000000;0.924550
9198.000000;0.924311
9197.000000;0.924045
9196.000000;0.923701
9195.000000;0.923394
9194.000000;0.923259
9193.000000;0.923331
9192.000000;0.923499
9191.000000;0.923571
9190.000000;0.923401
9189.000000;0.922993
9188.000000;0.922466
9187.000000;0.921957
9186.000000;0.921582
9185.000000;0.921396
9184.000000;0.921317
9183.000000;0.921169
9182.000000;0.920903
9181.000000;0.920706
9180.000000;0.920723
9179.000000;0.920787
9178.000000;0.920635
9177.000000;0.920325
9176.000000;0.920118
9175.000000;0.919955
9174.000000;0.919439
9173.000000;0.918486
9172.000000;0.917668
9171.000000;0.917617
9170.000000;0.918250
9169.000000;0.918858
9168.000000;0.918881
9167.000000;0.918379
9166.000000;0.917781
9165.000000;0.917400
9164.000000;0.917210
9163.000000;0.916940
9162.000000;0.916366
9161.000000;0.915590
9160.000000;0.915004
9159.000000;0.914880
9158.000000;0.915054
9157.000000;0.915107
9156.000000;0.914848
9155.000000;0.914465
9154.000000;0.914210
9153.000000;0.914087
9152.000000;0.913929
9151.000000;0.913683
9150.000000;0.913459
9149.000000;0.913322
9148.000000;0.913148
9147.000000;0.912797
9146.000000;0.912351
9145.000000;0.912018
9144.000000;0.911781
9143.000000;0.911335
9142.000000;0.910495
9141.000000;0.909550
9140.000000;0.909035
9139.000000;0.909183
9138.000000;0.909731
9137.000000;0.910213
9136.000000;0.910309
9135.000000;0.909961
9134.000000;0.909337
9133.000000;0.908722
9132.000000;0.908296
9131.000000;0.908007
9130.000000;0.907756
9129.000000;0.907624
9128.000000;0.907741
9127.000000;0.907973
9126.000000;0.907956
9125.000000;0.907497
9124.000000;0.906767
9123.000000;0.906091
9122.000000;0.905706
9121.000000;0.905710
9120.000000;0.906023
9119.000000;0.906332
9118.000000;0.906305
9117.000000;0.905930
9116.000000;0.905490
9115.000000;0.905161
9114.000000;0.904829
9113.000000;0.904355
9112.000000;0.903807
9111.000000;0.903353
9110.000000;0.903101
9109.000000;0.903094
9108.000000;0.903282
9107.000000;0.903429
9106.000000;0.903252
9105.000000;0.902751
9104.000000;0.902204
9103.000000;0.901789
9102.000000;0.901432
9101.000000;0.901072
9100.000000;0.900813
9099.000000;0.900706
9098.000000;0.900618
9097.000000;0.900485
9096.000000;0.900437
9095.000000;0.900499
9094.000000;0.900425
9093.000000;0.900043
9092.000000;0.899583
9091.000000;0.899392
9090.000000;0.899488
9089.000000;0.899620
9088.000000;0.899620
9087.000000;0.899477
9086.000000;0.899170
9085.000000;0.898697
9084.000000;0.898191
9083.000000;0.897791
9082.000000;0.897448
9081.000000;0.897039
9080.000000;0.896636
9079.000000;0.896438
9078.000000;0.896506
9077.000000;0.896715
9076.000000;0.896944
9075.000000;0.897151
9074.000000;0.897287
9073.000000;0.897284
9072.000000;0.897128
9071.000000;0.896850
9070.000000;0.896510
9069.000000;0.896225
9068.000000;0.896100
9067.000000;0.895999
9066.000000;0.895542
9065.000000;0.894550
9064.000000;0.893391
9063.000000;0.892661
9062.000000;0.892556
9061.000000;0.892746
9060.000000;0.892816
9059.000000;0.892633
9058.000000;0.892283
9057.000000;0.891879
9056.000000;0.891514
9055.000000;0.891264
9054.000000;0.891121
9053.000000;0.891026
