Criado como novo conjunto de dados;"e2410_daniel_v2.spp","99907.2 Secs"
cm-1;Abs
10000.000000;0.125424
9999.000000;0.125842
9998.000000;0.126242
9997.000000;0.126680
9996.000000;0.126940
9995.000000;0.127051
9994.000000;0.127214
9993.000000;0.127437
9992.000000;0.127769
9991.000000;0.128267
9990.000000;0.128966
9989.000000;0.129789
9988.000000;0.130603
9987.000000;0.131322
9986.000000;0.131966
9985.000000;0.132640
9984.000000;0.133452
9983.000000;0.134393
9982.000000;0.135302
9981.000000;0.136024
9980.000000;0.136593
9979.000000;0.137192
9978.000000;0.137920
9977.000000;0.138684
9976.000000;0.139355
9975.000000;0.139947
9974.000000;0.140578
9973.000000;0.141318
9972.000000;0.142108
9971.000000;0.142812
9970.000000;0.143322
9969.000000;0.143650
9968.000000;0.143940
9967.000000;0.144343
9966.000000;0.144885
9965.000000;0.145477
9964.000000;0.146066
9963.000000;0.146678
9962.000000;0.147334
9961.000000;0.148015
9960.000000;0.148729
9959.000000;0.149538
9958.000000;0.150454
9957.000000;0.151412
9956.000000;0.152355
9955.000000;0.153235
9954.000000;0.153934
9953.000000;0.154332
9952.000000;0.154528
9951.000000;0.154866
9950.000000;0.155592
9949.000000;0.156577
9948.000000;0.157502
9947.000000;0.158225
9946.000000;0.158837
9945.000000;0.159429
9944.000000;0.159996
9943.000000;0.160560
9942.000000;0.161231
9941.000000;0.162085
9940.000000;0.163043
9939.000000;0.163938
9938.000000;0.164660
9937.000000;0.165231
9936.000000;0.165778
9935.000000;0.166414
9934.000000;0.167138
9933.000000;0.167869
9932.000000;0.168609
9931.000000;0.169483
9930.000000;0.170546
9929.000000;0.171622
9928.000000;0.172455
9927.000000;0.173020
9926.000000;0.173541
9925.000000;0.174213
9924.000000;0.174996
9923.000000;0.175720
9922.000000;0.176300
9921.000000;0.176777
9920.000000;0.177222
9919.000000;0.177693
9918.000000;0.178244
9917.000000;0.178939
9916.000000;0.179793
9915.000000;0.180723
9914.000000;0.181578
9913.000000;0.182268
9912.000000;0.182889
9911.000000;0.183661
9910.000000;0.184683
9909.000000;0.185798
9908.000000;0.186755
9907.000000;0.187484
9906.000000;0.188123
9905.000000;0.188797
9904.000000;0.189487
9903.000000;0.190130
9902.000000;0.190760
9901.000000;0.191475
9900.000000;0.192319
9899.000000;0.193251
9898.000000;0.194190
9897.000000;0.195053
9896.000000;0.195757
9895.000000;0.196286
9894.000000;0.196763
9893.000000;0.197405
9892.000000;0.198338
9891.000000;0.199469
9890.000000;0.200573
9889.000000;0.201503
9888.000000;0.202276
9887.000000;0.202959
9886.000000;0.203564
9885.000000;0.204089
9884.000000;0.204609
9883.000000;0.205239
9882.000000;0.206010
9881.000000;0.206865
9880.000000;0.207738
9879.000000;0.208602
9878.000000;0.209449
9877.000000;0.210282
9876.000000;0.211126
9875.000000;0.211974
9874.000000;0.212740
9873.000000;0.213351
9872.000000;0.213879
9871.000000;0.214483
9870.000000;0.215235
9869.000000;0.216087
9868.000000;0.217014
9867.000000;0.218037
9866.000000;0.219075
9865.000000;0.219928
9864.000000;0.220532
9863.000000;0.221108
9862.000000;0.221926
9861.000000;0.222980
9860.000000;0.223999
9859.000000;0.224755
9858.000000;0.225253
9857.000000;0.225657
9856.000000;0.226152
9855.000000;0.226875
9854.000000;0.227848
9853.000000;0.228970
9852.000000;0.230124
9851.000000;0.231305
9850.000000;0.232544
9849.000000;0.233736
9848.000000;0.234646
9847.000000;0.235175
9846.000000;0.235528
9845.000000;0.236036
9844.000000;0.236824
9843.000000;0.237680
9842.000000;0.238299
9841.000000;0.238637
9840.000000;0.239014
9839.000000;0.239810
9838.000000;0.241048
9837.000000;0.242324
9836.000000;0.243228
9835.000000;0.243785
9834.000000;0.244413
9833.000000;0.245462
9832.000000;0.246866
9831.000000;0.248236
9830.000000;0.249216
9829.000000;0.249715
9828.000000;0.249897
9827.000000;0.250048
9826.000000;0.250449
9825.000000;0.251290
9824.000000;0.252579
9823.000000;0.254101
9822.000000;0.255502
9821.000000;0.256510
9820.000000;0.257123
9819.000000;0.257592
9818.000000;0.258194
9817.000000;0.259035
9816.000000;0.260073
9815.000000;0.261253
9814.000000;0.262561
9813.000000;0.263933
9812.000000;0.265213
9811.000000;0.266236
9810.000000;0.266961
9809.000000;0.267492
9808.000000;0.267988
9807.000000;0.268543
9806.000000;0.269165
9805.000000;0.269843
9804.000000;0.270631
9803.000000;0.271631
9802.000000;0.272893
9801.000000;0.274309
9800.000000;0.275602
9799.000000;0.276490
9798.000000;0.276918
9797.000000;0.277151
9796.000000;0.277603
9795.000000;0.278506
9794.000000;0.279762
9793.000000;0.281092
9792.000000;0.282304
9791.000000;0.283406
9790.000000;0.284534
9789.000000;0.285799
9788.000000;0.287164
9787.000000;0.288403
9786.000000;0.289272
9785.000000;0.289776
9784.000000;0.290218
9783.000000;0.290877
9782.000000;0.291728
9781.000000;0.292559
9780.000000;0.293313
9779.000000;0.294138
9778.000000;0.295123
9777.000000;0.296154
9776.000000;0.297073
9775.000000;0.297869
9774.000000;0.298629
9773.000000;0.299420
9772.000000;0.300273
9771.000000;0.301197
9770.000000;0.302145
9769.000000;0.303007
9768.000000;0.303708
9767.000000;0.304274
9766.000000;0.304829
9765.000000;0.305590
9764.000000;0.306805
9763.000000;0.308535
9762.000000;0.310460
9761.000000;0.312071
9760.000000;0.313130
9759.000000;0.313852
9758.000000;0.314596
9757.000000;0.315512
9756.000000;0.316566
9755.000000;0.317689
9754.000000;0.318768
9753.000000;0.319640
9752.000000;0.320282
9751.000000;0.320921
9750.000000;0.321779
9749.000000;0.322779
9748.000000;0.323659
9747.000000;0.324341
9746.000000;0.325007
9745.000000;0.325834
9744.000000;0.326822
9743.000000;0.327898
9742.000000;0.329019
9741.000000;0.330121
9740.000000;0.331099
9739.000000;0.331916
9738.000000;0.332667
9737.000000;0.333449
9736.000000;0.334226
9735.000000;0.334903
9734.000000;0.335477
9733.000000;0.336095
9732.000000;0.336939
9731.000000;0.338099
9730.000000;0.339503
9729.000000;0.340950
9728.000000;0.342228
9727.000000;0.343262
9726.000000;0.344144
9725.000000;0.345042
9724.000000;0.346045
9723.000000;0.347116
9722.000000;0.348165
9721.000000;0.349155
9720.000000;0.350114
9719.000000;0.351041
9718.000000;0.351893
9717.000000;0.352686
9716.000000;0.353563
9715.000000;0.354650
9714.000000;0.355833
9713.000000;0.356810
9712.000000;0.357426
9711.000000;0.357913
9710.000000;0.358702
9709.000000;0.359988
9708.000000;0.361521
9707.000000;0.362839
9706.000000;0.363706
9705.000000;0.364338
9704.000000;0.365180
9703.000000;0.366448
9702.000000;0.367929
9701.000000;0.369238
9700.000000;0.370210
9699.000000;0.370961
9698.000000;0.371653
9697.000000;0.372366
9696.000000;0.373210
9695.000000;0.374353
9694.000000;0.375819
9693.000000;0.377340
9692.000000;0.378537
9691.000000;0.379259
9690.000000;0.379699
9689.000000;0.380194
9688.000000;0.380963
9687.000000;0.382004
9686.000000;0.383175
9685.000000;0.384356
9684.000000;0.385542
9683.000000;0.386789
9682.000000;0.388072
9681.000000;0.389249
9680.000000;0.390157
9679.000000;0.390739
9678.000000;0.391110
9677.000000;0.391537
9676.000000;0.392287
9675.000000;0.393416
9674.000000;0.394746
9673.000000;0.396101
9672.000000;0.397518
9671.000000;0.399089
9670.000000;0.400646
9669.000000;0.401803
9668.000000;0.402378
9667.000000;0.402679
9666.000000;0.403263
9665.000000;0.404434
9664.000000;0.405991
9663.000000;0.407418
9662.000000;0.408343
9661.000000;0.408882
9660.000000;0.409512
9659.000000;0.410534
9658.000000;0.411712
9657.000000;0.412590
9656.000000;0.413109
9655.000000;0.413702
9654.000000;0.414737
9653.000000;0.416050
9652.000000;0.417166
9651.000000;0.417885
9650.000000;0.418495
9649.000000;0.419449
9648.000000;0.420886
9647.000000;0.422498
9646.000000;0.423825
9645.000000;0.424688
9644.000000;0.425297
9643.000000;0.425925
9642.000000;0.426595
9641.000000;0.427234
9640.000000;0.427994
9639.000000;0.429157
9638.000000;0.430709
9637.000000;0.432223
9636.000000;0.433275
9635.000000;0.433835
9634.000000;0.434221
9633.000000;0.434798
9632.000000;0.435767
9631.000000;0.437053
9630.000000;0.438330
9629.000000;0.439309
9628.000000;0.440075
9627.000000;0.440995
9626.000000;0.442227
9625.000000;0.443538
9624.000000;0.444679
9623.000000;0.445719
9622.000000;0.446847
9621.000000;0.448015
9620.000000;0.448975
9619.000000;0.449572
9618.000000;0.449865
9617.000000;0.450049
9616.000000;0.450392
9615.000000;0.451119
9614.000000;0.452196
9613.000000;0.453312
9612.000000;0.454202
9611.000000;0.454965
9610.000000;0.455924
9609.000000;0.457228
9608.000000;0.458704
9607.000000;0.460029
9606.000000;0.461002
9605.000000;0.461683
9604.000000;0.462345
9603.000000;0.463253
9602.000000;0.464436
9601.000000;0.465728
9600.000000;0.466979
9599.000000;0.468102
9598.000000;0.468948
9597.000000;0.469401
9596.000000;0.469650
9595.000000;0.470120
9594.000000;0.471004
9593.000000;0.472087
9592.000000;0.473141
9591.000000;0.474251
9590.000000;0.475550
9589.000000;0.476889
9588.000000;0.478064
9587.000000;0.479152
9586.000000;0.480328
9585.000000;0.481447
9584.000000;0.482138
9583.000000;0.482281
9582.000000;0.482167
9581.000000;0.482199
9580.000000;0.482676
9579.000000;0.483758
9578.000000;0.485316
9577.000000;0.486807
9576.000000;0.487627
9575.000000;0.487749
9574.000000;0.487804
9573.000000;0.488449
9572.000000;0.489749
9571.000000;0.491243
9570.000000;0.492421
9569.000000;0.493081
9568.000000;0.493364
9567.000000;0.493567
9566.000000;0.493887
9565.000000;0.494317
9564.000000;0.494818
9563.000000;0.495514
9562.000000;0.496568
9561.000000;0.497840
9560.000000;0.498921
9559.000000;0.499619
9558.000000;0.500249
9557.000000;0.501221
9556.000000;0.502476
9555.000000;0.503532
9554.000000;0.504087
9553.000000;0.504363
9552.000000;0.504772
9551.000000;0.505429
9550.000000;0.506154
9549.000000;0.506844
9548.000000;0.507612
9547.000000;0.508540
9546.000000;0.509511
9545.000000;0.510394
9544.000000;0.511199
9543.000000;0.511890
9542.000000;0.512235
9541.000000;0.512088
9540.000000;0.511741
9539.000000;0.511698
9538.000000;0.512125
9537.000000;0.512770
9536.000000;0.513420
9535.000000;0.514143
9534.000000;0.515034
9533.000000;0.515995
9532.000000;0.516955
9531.000000;0.518026
9530.000000;0.519237
9529.000000;0.520290
9528.000000;0.520850
9527.000000;0.520957
9526.000000;0.520950
9525.000000;0.521085
9524.000000;0.521390
9523.000000;0.521820
9522.000000;0.522338
9521.000000;0.522873
9520.000000;0.523355
9519.000000;0.523767
9518.000000;0.524085
9517.000000;0.524229
9516.000000;0.524233
9515.000000;0.524396
9514.000000;0.525060
9513.000000;0.526272
9512.000000;0.527768
9511.000000;0.529227
9510.000000;0.530400
9509.000000;0.531095
9508.000000;0.531283
9507.000000;0.531207
9506.000000;0.531202
9505.000000;0.531386
9504.000000;0.531626
9503.000000;0.531786
9502.000000;0.531850
9501.000000;0.531826
9500.000000;0.531717
9499.000000;0.531607
9498.000000;0.531627
9497.000000;0.531773
9496.000000;0.531912
9495.000000;0.532015
9494.000000;0.532265
9493.000000;0.532858
9492.000000;0.533777
9491.000000;0.534823
9490.000000;0.535792
9489.000000;0.536528
9488.000000;0.536920
9487.000000;0.536925
9486.000000;0.536613
9485.000000;0.536125
9484.000000;0.535640
9483.000000;0.535399
9482.000000;0.535682
9481.000000;0.536605
9480.000000;0.537906
9479.000000;0.539009
9478.000000;0.539430
9477.000000;0.539149
9476.000000;0.538551
9475.000000;0.538011
9474.000000;0.537611
9473.000000;0.537287
9472.000000;0.537108
9471.000000;0.537275
9470.000000;0.537852
9469.000000;0.538610
9468.000000;0.539199
9467.000000;0.539432
9466.000000;0.539393
9465.000000;0.539295
9464.000000;0.539241
9463.000000;0.539140
9462.000000;0.538882
9461.000000;0.538585
9460.000000;0.538545
9459.000000;0.538883
9458.000000;0.539347
9457.000000;0.539585
9456.000000;0.539537
9455.000000;0.539435
9454.000000;0.539478
9453.000000;0.539626
9452.000000;0.539662
9451.000000;0.539356
9450.000000;0.538676
9449.000000;0.537985
9448.000000;0.537841
9447.000000;0.538366
9446.000000;0.538932
9445.000000;0.538807
9444.000000;0.538057
9443.000000;0.537408
9442.000000;0.537294
9441.000000;0.537493
9440.000000;0.537724
9439.000000;0.538089
9438.000000;0.538689
9437.000000;0.539262
9436.000000;0.539547
9435.000000;0.539657
9434.000000;0.539739
9433.000000;0.539551
9432.000000;0.538804
9431.000000;0.537714
9430.000000;0.536804
9429.000000;0.536281
9428.000000;0.535962
9427.000000;0.535720
9426.000000;0.535611
9425.000000;0.535605
9424.000000;0.535547
9423.000000;0.535391
9422.000000;0.535202
9421.000000;0.534939
9420.000000;0.534505
9419.000000;0.534033
9418.000000;0.533837
9417.000000;0.534026
9416.000000;0.534365
9415.000000;0.534544
9414.000000;0.534382
9413.000000;0.533802
9412.000000;0.532839
9411.000000;0.531733
9410.000000;0.530820
9409.000000;0.530255
9408.000000;0.529980
9407.000000;0.529922
9406.000000;0.530033
9405.000000;0.530142
9404.000000;0.529978
9403.000000;0.529425
9402.000000;0.528602
9401.000000;0.527699
9400.000000;0.526922
9399.000000;0.526526
9398.000000;0.526659
9397.000000;0.527124
9396.000000;0.527517
9395.000000;0.527629
9394.000000;0.527532
9393.000000;0.527262
9392.000000;0.526671
9391.000000;0.525697
9390.000000;0.524582
9389.000000;0.523678
9388.000000;0.523182
9387.000000;0.523111
9386.000000;0.523315
9385.000000;0.523480
9384.000000;0.523345
9383.000000;0.523063
9382.000000;0.523064
9381.000000;0.523433
9380.000000;0.523633
9379.000000;0.523033
9378.000000;0.521543
9377.000000;0.519621
9376.000000;0.517863
9375.000000;0.516752
9374.000000;0.516519
9373.000000;0.516963
9372.000000;0.517529
9371.000000;0.517819
9370.000000;0.517904
9369.000000;0.517942
9368.000000;0.517704
9367.000000;0.516834
9366.000000;0.515453
9365.000000;0.514139
9364.000000;0.513295
9363.000000;0.512809
9362.000000;0.512311
9361.000000;0.511518
9360.000000;0.510350
9359.000000;0.509011
9358.000000;0.507980
9357.000000;0.507651
9356.000000;0.507875
9355.000000;0.508063
9354.000000;0.507802
9353.000000;0.507179
9352.000000;0.506444
9351.000000;0.505629
9350.000000;0.504639
9349.000000;0.503498
9348.000000;0.502321
9347.000000;0.501213
9346.000000;0.500296
9345.000000;0.499655
9344.000000;0.499168
9343.000000;0.498558
9342.000000;0.497751
9341.000000;0.497017
9340.000000;0.496625
9339.000000;0.496508
9338.000000;0.496432
9337.000000;0.496294
9336.000000;0.496051
9335.000000;0.495516
9334.000000;0.494523
9333.000000;0.493252
9332.000000;0.492141
9331.000000;0.491424
9330.000000;0.490908
9329.000000;0.490222
9328.000000;0.489193
9327.000000;0.487998
9326.000000;0.487057
9325.000000;0.486734
9324.000000;0.487014
9323.000000;0.487481
9322.000000;0.487674
9321.000000;0.487433
9320.000000;0.486799
9319.000000;0.485776
9318.000000;0.484406
9317.000000;0.482996
9316.000000;0.481941
9315.000000;0.481306
9314.000000;0.480808
9313.000000;0.480245
9312.000000;0.479690
9311.000000;0.479186
9310.000000;0.478519
9309.000000;0.477488
9308.000000;0.476205
9307.000000;0.474964
9306.000000;0.473949
9305.000000;0.473226
9304.000000;0.472842
9303.000000;0.472742
9302.000000;0.472640
9301.000000;0.472202
9300.000000;0.471371
9299.000000;0.470396
9298.000000;0.469563
9297.000000;0.468995
9296.000000;0.468653
9295.000000;0.468366
9294.000000;0.467895
9293.000000;0.467145
9292.000000;0.466338
9291.000000;0.465813
9290.000000;0.465605
9289.000000;0.465349
9288.000000;0.464648
9287.000000;0.463458
9286.000000;0.462053
9285.000000;0.460721
9284.000000;0.459571
9283.000000;0.458579
9282.000000;0.457654
9281.000000;0.456690
9280.000000;0.455650
9279.000000;0.454664
9278.000000;0.453991
9277.000000;0.453810
9276.000000;0.454030
9275.000000;0.454338
9274.000000;0.454411
9273.000000;0.454068
9272.000000;0.453271
9271.000000;0.452067
9270.000000;0.450593
9269.000000;0.449087
9268.000000;0.447810
9267.000000;0.446916
9266.000000;0.446360
9265.000000;0.445927
9264.000000;0.445359
9263.000000;0.444537
9262.000000;0.443614
9261.000000;0.442919
9260.000000;0.442631
9259.000000;0.442551
9258.000000;0.442249
9257.000000;0.441488
9256.000000;0.440463
9255.000000;0.439606
9254.000000;0.439183
9253.000000;0.439110
9252.000000;0.439078
9251.000000;0.438808
9250.000000;0.438176
9249.000000;0.437157
9248.000000;0.435783
9247.000000;0.434228
9246.000000;0.432843
9245.000000;0.431913
9244.000000;0.431328
9243.000000;0.430661
9242.000000;0.429672
9241.000000;0.428603
9240.000000;0.427832
9239.000000;0.427383
9238.000000;0.426958
9237.000000;0.426370
9236.000000;0.425684
9235.000000;0.424955
9234.000000;0.424085
9233.000000;0.423050
9232.000000;0.422079
9231.000000;0.421478
9230.000000;0.421361
9229.000000;0.421595
9228.000000;0.421876
9227.000000;0.421845
9226.000000;0.421259
9225.000000;0.420157
9224.000000;0.418797
9223.000000;0.417441
9222.000000;0.416301
9221.000000;0.415576
9220.000000;0.415287
9219.000000;0.415069
9218.000000;0.414446
9217.000000;0.413438
9216.000000;0.412622
9215.000000;0.412412
9214.000000;0.412530
9213.000000;0.412393
9212.000000;0.411823
9211.000000;0.411060
9210.000000;0.410263
9209.000000;0.409363
9208.000000;0.408401
9207.000000;0.407635
9206.000000;0.407201
9205.000000;0.406884
9204.000000;0.406351
9203.000000;0.405497
9202.000000;0.404494
9201.000000;0.403583
9200.000000;0.402873
9199.000000;0.402274
9198.000000;0.401630
9197.000000;0.400923
9196.000000;0.400284
9195.000000;0.399707
9194.000000;0.398897
9193.000000;0.397603
9192.000000;0.396057
9191.000000;0.394847
9190.000000;0.394295
9189.000000;0.394137
9188.000000;0.393863
9187.000000;0.393221
9186.000000;0.392338
9185.000000;0.391494
9184.000000;0.390889
9183.000000;0.390542
9182.000000;0.390311
9181.000000;0.390032
9180.000000;0.389655
9179.000000;0.389220
9178.000000;0.388728
9177.000000;0.388128
9176.000000;0.387438
9175.000000;0.386786
9174.000000;0.386296
9173.000000;0.385984
9172.000000;0.385753
9171.000000;0.385408
9170.000000;0.384686
9169.000000;0.383431
9168.000000;0.381819
9167.000000;0.380348
9166.000000;0.379521
9165.000000;0.379516
9164.000000;0.380055
9163.000000;0.380522
9162.000000;0.380272
9161.000000;0.379070
9160.000000;0.377281
9159.000000;0.375581
9158.000000;0.374414
9157.000000;0.373769
9156.000000;0.373370
9155.000000;0.372950
9154.000000;0.372345
9153.000000;0.371557
9152.000000;0.370819
9151.000000;0.370430
9150.000000;0.370404
9149.000000;0.370366
9148.000000;0.369929
9147.000000;0.369119
9146.000000;0.368337
9145.000000;0.367917
9144.000000;0.367818
9143.000000;0.367698
9142.000000;0.367210
9141.000000;0.366240
9140.000000;0.364951
9139.000000;0.363640
9138.000000;0.362548
9137.000000;0.361742
9136.000000;0.361115
9135.000000;0.360470
9134.000000;0.359668
9133.000000;0.358797
9132.000000;0.358140
9131.000000;0.357883
9130.000000;0.357852
9129.000000;0.357675
9128.000000;0.357185
9127.000000;0.356525
9126.000000;0.355850
9125.000000;0.355123
9124.000000;0.354309
9123.000000;0.353581
9122.000000;0.353153
9121.000000;0.352978
9120.000000;0.352797
9119.000000;0.352465
9118.000000;0.352070
9117.000000;0.351733
9116.000000;0.351430
9115.000000;0.351059
9114.000000;0.350583
9113.000000;0.350003
9112.000000;0.349259
9111.000000;0.348254
9110.000000;0.347042
9109.000000;0.345932
9108.000000;0.345315
9107.000000;0.345331
9106.000000;0.345723
9105.000000;0.346051
9104.000000;0.345996
9103.000000;0.345470
9102.000000;0.344523
9101.000000;0.343284
9100.000000;0.341972
9099.000000;0.340801
9098.000000;0.339809
9097.000000;0.338892
9096.000000;0.338045
9095.000000;0.337434
9094.000000;0.337157
9093.000000;0.337075
9092.000000;0.336984
9091.000000;0.336856
9090.000000;0.336749
9089.000000;0.336564
9088.000000;0.336070
9087.000000;0.335201
9086.000000;0.334200
9085.000000;0.333398
9084.000000;0.332895
9083.000000;0.332499
9082.000000;0.331937
9081.000000;0.331123
9080.000000;0.330255
9079.000000;0.329647
9078.000000;0.329441
9077.000000;0.329487
9076.000000;0.329501
9075.000000;0.329295
9074.000000;0.328835
9073.000000;0.328172
9072.000000;0.327445
9071.000000;0.326867
9070.000000;0.326564
9069.000000;0.326363
9068.000000;0.325886
9067.000000;0.324957
9066.000000;0.323841
9065.000000;0.323002
9064.000000;0.322649
9063.000000;0.322561
9062.000000;0.322363
9061.000000;0.321870
9060.000000;0.321153
9059.000000;0.320348
9058.000000;0.319508
9057.000000;0.318638
9056.000000;0.317791
9055.000000;0.317079
9054.000000;0.316587
9053.000000;0.316320
