Criado como novo conjunto de dados;"e2410_daniel_v2.spp","27183.2 Secs"
cm-1;Abs
10000.000000;0.513046
9999.000000;0.512802
9998.000000;0.512556
9997.000000;0.512312
9996.000000;0.512066
9995.000000;0.511826
9994.000000;0.511555
9993.000000;0.510962
9992.000000;0.509907
9991.000000;0.508861
9990.000000;0.508372
9989.000000;0.508450
9988.000000;0.508658
9987.000000;0.508605
9986.000000;0.508115
9985.000000;0.507185
9984.000000;0.506040
9983.000000;0.505061
9982.000000;0.504397
9981.000000;0.503853
9980.000000;0.503304
9979.000000;0.502981
9978.000000;0.503090
9977.000000;0.503386
9976.000000;0.503419
9975.000000;0.503034
9974.000000;0.502396
9973.000000;0.501681
9972.000000;0.500981
9971.000000;0.500354
9970.000000;0.499746
9969.000000;0.499001
9968.000000;0.498104
9967.000000;0.497260
9966.000000;0.496574
9965.000000;0.495885
9964.000000;0.495086
9963.000000;0.494397
9962.000000;0.494094
9961.000000;0.494138
9960.000000;0.494261
9959.000000;0.494259
9958.000000;0.494043
9957.000000;0.493570
9956.000000;0.492932
9955.000000;0.492336
9954.000000;0.491854
9953.000000;0.491337
9952.000000;0.490714
9951.000000;0.490153
9950.000000;0.489787
9949.000000;0.489484
9948.000000;0.489078
9947.000000;0.488597
9946.000000;0.488091
9945.000000;0.487423
9944.000000;0.486454
9943.000000;0.485298
9942.000000;0.484235
9941.000000;0.483491
9940.000000;0.483176
9939.000000;0.483233
9938.000000;0.483340
9937.000000;0.483081
9936.000000;0.482381
9935.000000;0.481575
9934.000000;0.480939
9933.000000;0.480405
9932.000000;0.479843
9931.000000;0.479349
9930.000000;0.479054
9929.000000;0.478896
9928.000000;0.478754
9927.000000;0.478601
9926.000000;0.478351
9925.000000;0.477802
9924.000000;0.476942
9923.000000;0.476116
9922.000000;0.475657
9921.000000;0.475524
9920.000000;0.475436
9919.000000;0.475179
9918.000000;0.474634
9917.000000;0.473741
9916.000000;0.472680
9915.000000;0.471872
9914.000000;0.471590
9913.000000;0.471653
9912.000000;0.471670
9911.000000;0.471451
9910.000000;0.471041
9909.000000;0.470512
9908.000000;0.469903
9907.000000;0.469262
9906.000000;0.468608
9905.000000;0.467923
9904.000000;0.467250
9903.000000;0.466677
9902.000000;0.466191
9901.000000;0.465702
9900.000000;0.465231
9899.000000;0.464852
9898.000000;0.464450
9897.000000;0.463802
9896.000000;0.462950
9895.000000;0.462211
9894.000000;0.461739
9893.000000;0.461356
9892.000000;0.460904
9891.000000;0.460479
9890.000000;0.460188
9889.000000;0.459961
9888.000000;0.459699
9887.000000;0.459375
9886.000000;0.458895
9885.000000;0.458157
9884.000000;0.457350
9883.000000;0.456842
9882.000000;0.456651
9881.000000;0.456365
9880.000000;0.455759
9879.000000;0.455130
9878.000000;0.454792
9877.000000;0.454588
9876.000000;0.454176
9875.000000;0.453528
9874.000000;0.452860
9873.000000;0.452272
9872.000000;0.451741
9871.000000;0.451302
9870.000000;0.450968
9869.000000;0.450624
9868.000000;0.450180
9867.000000;0.449691
9866.000000;0.449210
9865.000000;0.448677
9864.000000;0.448107
9863.000000;0.447659
9862.000000;0.447372
9861.000000;0.447057
9860.000000;0.446576
9859.000000;0.446019
9858.000000;0.445469
9857.000000;0.444830
9856.000000;0.444074
9855.000000;0.443387
9854.000000;0.442885
9853.000000;0.442434
9852.000000;0.441921
9851.000000;0.441469
9850.000000;0.441176
9849.000000;0.440880
9848.000000;0.440402
9847.000000;0.439835
9846.000000;0.439365
9845.000000;0.438984
9844.000000;0.438580
9843.000000;0.438140
9842.000000;0.437675
9841.000000;0.437122
9840.000000;0.436527
9839.000000;0.436122
9838.000000;0.436022
9837.000000;0.436003
9836.000000;0.435782
9835.000000;0.435356
9834.000000;0.434874
9833.000000;0.434337
9832.000000;0.433654
9831.000000;0.432878
9830.000000;0.432184
9829.000000;0.431663
9828.000000;0.431277
9827.000000;0.430948
9826.000000;0.430592
9825.000000;0.430161
9824.000000;0.429703
9823.000000;0.429286
9822.000000;0.428830
9821.000000;0.428210
9820.000000;0.427516
9819.000000;0.426997
9818.000000;0.426674
9817.000000;0.426272
9816.000000;0.425634
9815.000000;0.424936
9814.000000;0.424377
9813.000000;0.423920
9812.000000;0.423468
9811.000000;0.423079
9810.000000;0.422803
9809.000000;0.422545
9808.000000;0.422230
9807.000000;0.421923
9806.000000;0.421626
9805.000000;0.421153
9804.000000;0.420383
9803.000000;0.419477
9802.000000;0.418684
9801.000000;0.418095
9800.000000;0.417684
9799.000000;0.417404
9798.000000;0.417131
9797.000000;0.416690
9796.000000;0.416095
9795.000000;0.415559
9794.000000;0.415192
9793.000000;0.414878
9792.000000;0.414533
9791.000000;0.414240
9790.000000;0.414013
9789.000000;0.413665
9788.000000;0.413083
9787.000000;0.412413
9786.000000;0.411825
9785.000000;0.411296
9784.000000;0.410777
9783.000000;0.410348
9782.000000;0.410051
9781.000000;0.409744
9780.000000;0.409294
9779.000000;0.408750
9778.000000;0.408194
9777.000000;0.407600
9776.000000;0.406969
9775.000000;0.406426
9774.000000;0.406023
9773.000000;0.405605
9772.000000;0.405019
9771.000000;0.404302
9770.000000;0.403573
9769.000000;0.402900
9768.000000;0.402341
9767.000000;0.401962
9766.000000;0.401711
9765.000000;0.401449
9764.000000;0.401168
9763.000000;0.400990
9762.000000;0.400879
9761.000000;0.400595
9760.000000;0.400023
9759.000000;0.399314
9758.000000;0.398628
9757.000000;0.397957
9756.000000;0.397302
9755.000000;0.396784
9754.000000;0.396445
9753.000000;0.396162
9752.000000;0.395847
9751.000000;0.395524
9750.000000;0.395155
9749.000000;0.394628
9748.000000;0.394034
9747.000000;0.393647
9746.000000;0.393520
9745.000000;0.393341
9744.000000;0.392844
9743.000000;0.392108
9742.000000;0.391351
9741.000000;0.390698
9740.000000;0.390256
9739.000000;0.390128
9738.000000;0.390179
9737.000000;0.390049
9736.000000;0.389572
9735.000000;0.388951
9734.000000;0.388380
9733.000000;0.387777
9732.000000;0.387058
9731.000000;0.386368
9730.000000;0.385862
9729.000000;0.385479
9728.000000;0.385140
9727.000000;0.384906
9726.000000;0.384756
9725.000000;0.384464
9724.000000;0.383929
9723.000000;0.383382
9722.000000;0.383039
9721.000000;0.382768
9720.000000;0.382348
9719.000000;0.381836
9718.000000;0.381415
9717.000000;0.381069
9716.000000;0.380683
9715.000000;0.380301
9714.000000;0.380021
9713.000000;0.379723
9712.000000;0.379187
9711.000000;0.378414
9710.000000;0.377638
9709.000000;0.377067
9708.000000;0.376724
9707.000000;0.376472
9706.000000;0.376085
9705.000000;0.375395
9704.000000;0.374489
9703.000000;0.373671
9702.000000;0.373153
9701.000000;0.372895
9700.000000;0.372752
9699.000000;0.372625
9698.000000;0.372388
9697.000000;0.371894
9696.000000;0.371175
9695.000000;0.370465
9694.000000;0.369929
9693.000000;0.369542
9692.000000;0.369262
9691.000000;0.369115
9690.000000;0.369016
9689.000000;0.368751
9688.000000;0.368267
9687.000000;0.367750
9686.000000;0.367312
9685.000000;0.366839
9684.000000;0.366270
9683.000000;0.365781
9682.000000;0.365511
9681.000000;0.365349
9680.000000;0.365143
9679.000000;0.364905
9678.000000;0.364628
9677.000000;0.364130
9676.000000;0.363310
9675.000000;0.362383
9674.000000;0.361657
9673.000000;0.361212
9672.000000;0.360941
9671.000000;0.360747
9670.000000;0.360534
9669.000000;0.360162
9668.000000;0.359611
9667.000000;0.359059
9666.000000;0.358661
9665.000000;0.358369
9664.000000;0.358082
9663.000000;0.357791
9662.000000;0.357471
9661.000000;0.356994
9660.000000;0.356322
9659.000000;0.355617
9658.000000;0.355034
9657.000000;0.354548
9656.000000;0.354103
9655.000000;0.353730
9654.000000;0.353397
9653.000000;0.352922
9652.000000;0.352245
9651.000000;0.351596
9650.000000;0.351223
9649.000000;0.351070
9648.000000;0.350912
9647.000000;0.350672
9646.000000;0.350437
9645.000000;0.350242
9644.000000;0.350025
9643.000000;0.349711
9642.000000;0.349247
9641.000000;0.348616
9640.000000;0.347905
9639.000000;0.347260
9638.000000;0.346723
9637.000000;0.346211
9636.000000;0.345719
9635.000000;0.345376
9634.000000;0.345229
9633.000000;0.345127
9632.000000;0.344918
9631.000000;0.344596
9630.000000;0.344177
9629.000000;0.343597
9628.000000;0.342853
9627.000000;0.342098
9626.000000;0.341482
9625.000000;0.341026
9624.000000;0.340719
9623.000000;0.340570
9622.000000;0.340492
9621.000000;0.340301
9620.000000;0.339941
9619.000000;0.339554
9618.000000;0.339229
9617.000000;0.338844
9616.000000;0.338263
9615.000000;0.337555
9614.000000;0.336892
9613.000000;0.336375
9612.000000;0.336021
9611.000000;0.335798
9610.000000;0.335583
9609.000000;0.335203
9608.000000;0.334623
9607.000000;0.333981
9606.000000;0.333403
9605.000000;0.332905
9604.000000;0.332492
9603.000000;0.332180
9602.000000;0.331901
9601.000000;0.331551
9600.000000;0.331159
9599.000000;0.330849
9598.000000;0.330603
9597.000000;0.330267
9596.000000;0.329817
9595.000000;0.329382
9594.000000;0.328975
9593.000000;0.328443
9592.000000;0.327768
9591.000000;0.327171
9590.000000;0.326811
9589.000000;0.326584
9588.000000;0.326325
9587.000000;0.326008
9586.000000;0.325638
9585.000000;0.325150
9584.000000;0.324553
9583.000000;0.323988
9582.000000;0.323526
9581.000000;0.323079
9580.000000;0.322615
9579.000000;0.322278
9578.000000;0.322171
9577.000000;0.322154
9576.000000;0.321987
9575.000000;0.321562
9574.000000;0.320936
9573.000000;0.320247
9572.000000;0.319665
9571.000000;0.319271
9570.000000;0.318953
9569.000000;0.318547
9568.000000;0.318075
9567.000000;0.317700
9566.000000;0.317456
9565.000000;0.317218
9564.000000;0.316925
9563.000000;0.316611
9562.000000;0.316229
9561.000000;0.315700
9560.000000;0.315157
9559.000000;0.314833
9558.000000;0.314681
9557.000000;0.314370
9556.000000;0.313740
9555.000000;0.312982
9554.000000;0.312311
9553.000000;0.311741
9552.000000;0.311286
9551.000000;0.311058
9550.000000;0.311015
9549.000000;0.310886
9548.000000;0.310485
9547.000000;0.309913
9546.000000;0.309323
9545.000000;0.308739
9544.000000;0.308213
9543.000000;0.307895
9542.000000;0.307783
9541.000000;0.307640
9540.000000;0.307317
9539.000000;0.306925
9538.000000;0.306568
9537.000000;0.306151
9536.000000;0.305622
9535.000000;0.305143
9534.000000;0.304819
9533.000000;0.304503
9532.000000;0.304050
9531.000000;0.303588
9530.000000;0.303317
9529.000000;0.303200
9528.000000;0.303036
9527.000000;0.302715
9526.000000;0.302248
9525.000000;0.301676
9524.000000;0.301122
9523.000000;0.300751
9522.000000;0.300552
9521.000000;0.300291
9520.000000;0.299817
9519.000000;0.299276
9518.000000;0.298884
9517.000000;0.298647
9516.000000;0.298431
9515.000000;0.298160
9514.000000;0.297809
9513.000000;0.297351
9512.000000;0.296835
9511.000000;0.296413
9510.000000;0.296154
9509.000000;0.295942
9508.000000;0.295645
9507.000000;0.295268
9506.000000;0.294861
9505.000000;0.294408
9504.000000;0.293916
9503.000000;0.293466
9502.000000;0.293100
9501.000000;0.292773
9500.000000;0.292472
9499.000000;0.292254
9498.000000;0.292099
9497.000000;0.291859
9496.000000;0.291423
9495.000000;0.290814
9494.000000;0.290116
9493.000000;0.289434
9492.000000;0.288930
9491.000000;0.288708
9490.000000;0.288634
9489.000000;0.288463
9488.000000;0.288154
9487.000000;0.287846
9486.000000;0.287541
9485.000000;0.287086
9484.000000;0.286501
9483.000000;0.286029
9482.000000;0.285767
9481.000000;0.285524
9480.000000;0.285151
9479.000000;0.284771
9478.000000;0.284527
9477.000000;0.284343
9476.000000;0.284086
9475.000000;0.283763
9474.000000;0.283412
9473.000000;0.282996
9472.000000;0.282523
9471.000000;0.282115
9470.000000;0.281809
9469.000000;0.281490
9468.000000;0.281086
9467.000000;0.280677
9466.000000;0.280299
9465.000000;0.279865
9464.000000;0.279363
9463.000000;0.278934
9462.000000;0.278635
9461.000000;0.278330
9460.000000;0.277923
9459.000000;0.277496
9458.000000;0.277128
9457.000000;0.276763
9456.000000;0.276385
9455.000000;0.276108
9454.000000;0.275974
9453.000000;0.275852
9452.000000;0.275648
9451.000000;0.275433
9450.000000;0.275253
9449.000000;0.275006
9448.000000;0.274630
9447.000000;0.274214
9446.000000;0.273811
9445.000000;0.273339
9444.000000;0.272780
9443.000000;0.272289
9442.000000;0.271971
9441.000000;0.271747
9440.000000;0.271525
9439.000000;0.271326
9438.000000;0.271126
9437.000000;0.270794
9436.000000;0.270294
9435.000000;0.269774
9434.000000;0.269329
9433.000000;0.268894
9432.000000;0.268462
9431.000000;0.268171
9430.000000;0.268041
9429.000000;0.267845
9428.000000;0.267411
9427.000000;0.266874
9426.000000;0.266462
9425.000000;0.266214
9424.000000;0.266046
9423.000000;0.265922
9422.000000;0.265793
9421.000000;0.265541
9420.000000;0.265137
9419.000000;0.264725
9418.000000;0.264401
9417.000000;0.264054
9416.000000;0.263559
9415.000000;0.262974
9414.000000;0.262437
9413.000000;0.261990
9412.000000;0.261618
9411.000000;0.261307
9410.000000;0.260986
9409.000000;0.260545
9408.000000;0.260016
9407.000000;0.259566
9406.000000;0.259247
9405.000000;0.258944
9404.000000;0.258616
9403.000000;0.258391
9402.000000;0.258305
9401.000000;0.258181
9400.000000;0.257884
9399.000000;0.257498
9398.000000;0.257121
9397.000000;0.256699
9396.000000;0.256212
9395.000000;0.255802
9394.000000;0.255541
9393.000000;0.255270
9392.000000;0.254843
9391.000000;0.254372
9390.000000;0.254051
9389.000000;0.253869
9388.000000;0.253681
9387.000000;0.253441
9386.000000;0.253191
9385.000000;0.252924
9384.000000;0.252612
9383.000000;0.252299
9382.000000;0.252036
9381.000000;0.251802
9380.000000;0.251554
9379.000000;0.251261
9378.000000;0.250854
9377.000000;0.250291
9376.000000;0.249712
9375.000000;0.249371
9374.000000;0.249318
9373.000000;0.249315
9372.000000;0.249132
9371.000000;0.248780
9370.000000;0.248369
9369.000000;0.247940
9368.000000;0.247530
9367.000000;0.247210
9366.000000;0.246938
9365.000000;0.246545
9364.000000;0.246015
9363.000000;0.245596
9362.000000;0.245493
9361.000000;0.245582
9360.000000;0.245563
9359.000000;0.245272
9358.000000;0.244749
9357.000000;0.244122
9356.000000;0.243542
9355.000000;0.243117
9354.000000;0.242811
9353.000000;0.242503
9352.000000;0.242201
9351.000000;0.242033
9350.000000;0.241979
9349.000000;0.241834
9348.000000;0.241497
9347.000000;0.241123
9346.000000;0.240854
9345.000000;0.240600
9344.000000;0.240227
9343.000000;0.239793
9342.000000;0.239453
9341.000000;0.239225
9340.000000;0.239014
9339.000000;0.238759
9338.000000;0.238455
9337.000000;0.238123
9336.000000;0.237824
9335.000000;0.237609
9334.000000;0.237416
9333.000000;0.237122
9332.000000;0.236737
9331.000000;0.236388
9330.000000;0.236089
9329.000000;0.235727
9328.000000;0.235298
9327.000000;0.234940
9326.000000;0.234683
9325.000000;0.234390
9324.000000;0.234032
9323.000000;0.233786
9322.000000;0.233739
9321.000000;0.233702
9320.000000;0.233458
9319.000000;0.233015
9318.000000;0.232487
9317.000000;0.231924
9316.000000;0.231397
9315.000000;0.231047
9314.000000;0.230911
9313.000000;0.230811
9312.000000;0.230585
9311.000000;0.230287
9310.000000;0.230037
9309.000000;0.229830
9308.000000;0.229602
9307.000000;0.229345
9306.000000;0.229050
9305.000000;0.228667
9304.000000;0.228218
9303.000000;0.227831
9302.000000;0.227564
9301.000000;0.227344
9300.000000;0.227140
9299.000000;0.227023
9298.000000;0.226950
9297.000000;0.226715
9296.000000;0.226240
9295.000000;0.225743
9294.000000;0.225459
9293.000000;0.225354
9292.000000;0.225230
9291.000000;0.224981
9290.000000;0.224609
9289.000000;0.224137
9288.000000;0.223657
9287.000000;0.223334
9286.000000;0.223229
9285.000000;0.223194
9284.000000;0.223055
9283.000000;0.222796
9282.000000;0.222478
9281.000000;0.222115
9280.000000;0.221713
9279.000000;0.221331
9278.000000;0.221000
9277.000000;0.220691
9276.000000;0.220423
9275.000000;0.220271
9274.000000;0.220199
9273.000000;0.220030
9272.000000;0.219667
9271.000000;0.219222
9270.000000;0.218853
9269.000000;0.218601
9268.000000;0.218441
9267.000000;0.218339
9266.000000;0.218195
9265.000000;0.217889
9264.000000;0.217468
9263.000000;0.217106
9262.000000;0.216847
9261.000000;0.216548
9260.000000;0.216150
9259.000000;0.215790
9258.000000;0.215544
9257.000000;0.215283
9256.000000;0.214892
9255.000000;0.214466
9254.000000;0.214143
9253.000000;0.213934
9252.000000;0.213828
9251.000000;0.213871
9250.000000;0.214006
9249.000000;0.213991
9248.000000;0.213651
9247.000000;0.213100
9246.000000;0.212578
9245.000000;0.212193
9244.000000;0.211931
9243.000000;0.211775
9242.000000;0.211666
9241.000000;0.211486
9240.000000;0.211195
9239.000000;0.210898
9238.000000;0.210677
9237.000000;0.210455
9236.000000;0.210147
9235.000000;0.209807
9234.000000;0.209541
9233.000000;0.209356
9232.000000;0.209198
9231.000000;0.209028
9230.000000;0.208794
9229.000000;0.208440
9228.000000;0.208018
9227.000000;0.207659
9226.000000;0.207378
9225.000000;0.207061
9224.000000;0.206691
9223.000000;0.206409
9222.000000;0.206273
9221.000000;0.206114
9220.000000;0.205776
9219.000000;0.205345
9218.000000;0.205019
9217.000000;0.204876
9216.000000;0.204861
9215.000000;0.204866
9214.000000;0.204752
9213.000000;0.204423
9212.000000;0.203961
9211.000000;0.203571
9210.000000;0.203320
9209.000000;0.203064
9208.000000;0.202699
9207.000000;0.202314
9206.000000;0.202029
9205.000000;0.201833
9204.000000;0.201681
9203.000000;0.201587
9202.000000;0.201516
9201.000000;0.201355
9200.000000;0.201079
9199.000000;0.200810
9198.000000;0.200606
9197.000000;0.200360
9196.000000;0.200005
9195.000000;0.199643
9194.000000;0.199375
9193.000000;0.199153
9192.000000;0.198926
9191.000000;0.198775
9190.000000;0.198766
9189.000000;0.198804
9188.000000;0.198751
9187.000000;0.198582
9186.000000;0.198312
9185.000000;0.197913
9184.000000;0.197425
9183.000000;0.197015
9182.000000;0.196799
9181.000000;0.196702
9180.000000;0.196591
9179.000000;0.196431
9178.000000;0.196219
9177.000000;0.195913
9176.000000;0.195523
9175.000000;0.195162
9174.000000;0.194897
9173.000000;0.194659
9172.000000;0.194389
9171.000000;0.194156
9170.000000;0.194028
9169.000000;0.193939
9168.000000;0.193800
9167.000000;0.193609
9166.000000;0.193394
9165.000000;0.193143
9164.000000;0.192889
9163.000000;0.192724
9162.000000;0.192627
9161.000000;0.192427
9160.000000;0.192029
9159.000000;0.191590
9158.000000;0.191317
9157.000000;0.191219
9156.000000;0.191141
9155.000000;0.190973
9154.000000;0.190721
9153.000000;0.190448
9152.000000;0.190244
9151.000000;0.190171
9150.000000;0.190167
9149.000000;0.190078
9148.000000;0.189841
9147.000000;0.189539
9146.000000;0.189245
9145.000000;0.188922
9144.000000;0.188532
9143.000000;0.188125
9142.000000;0.187756
9141.000000;0.187433
9140.000000;0.187163
9139.000000;0.186959
9138.000000;0.186752
9137.000000;0.186445
9136.000000;0.186094
9135.000000;0.185880
9134.000000;0.185858
9133.000000;0.185878
9132.000000;0.185809
9131.000000;0.185670
9130.000000;0.185517
9129.000000;0.185342
9128.000000;0.185174
9127.000000;0.185092
9126.000000;0.185036
9125.000000;0.184799
9124.000000;0.184311
9123.000000;0.183785
9122.000000;0.183455
9121.000000;0.183300
9120.000000;0.183141
9119.000000;0.182898
9118.000000;0.182618
9117.000000;0.182362
9116.000000;0.182173
9115.000000;0.182071
9114.000000;0.181982
9113.000000;0.181759
9112.000000;0.181355
9111.000000;0.180912
9110.000000;0.180608
9109.000000;0.180491
9108.000000;0.180493
9107.000000;0.180513
9106.000000;0.180440
9105.000000;0.180206
9104.000000;0.179874
9103.000000;0.179583
9102.000000;0.179375
9101.000000;0.179173
9100.000000;0.178939
9099.000000;0.178726
9098.000000;0.178568
9097.000000;0.178432
9096.000000;0.178308
9095.000000;0.178195
9094.000000;0.178000
9093.000000;0.177628
9092.000000;0.177184
9091.000000;0.176911
9090.000000;0.176878
9089.000000;0.176902
9088.000000;0.176817
9087.000000;0.176650
9086.000000;0.176474
9085.000000;0.176286
9084.000000;0.176101
9083.000000;0.175981
9082.000000;0.175877
9081.000000;0.175619
9080.000000;0.175152
9079.000000;0.174635
9078.000000;0.174231
9077.000000;0.173938
9076.000000;0.173708
9075.000000;0.173572
9074.000000;0.173539
9073.000000;0.173523
9072.000000;0.173448
9071.000000;0.173323
9070.000000;0.173146
9069.000000;0.172883
9068.000000;0.172582
9067.000000;0.172362
9066.000000;0.172226
9065.000000;0.172051
9064.000000;0.171829
9063.000000;0.171720
9062.000000;0.171786
9061.000000;0.171848
9060.000000;0.171715
9059.000000;0.171411
9058.000000;0.171067
9057.000000;0.170753
9056.000000;0.170501
9055.000000;0.170349
9054.000000;0.170252
9053.000000;0.170077
