Criado como novo conjunto de dados;"e2410_daniel_v2.spp","81726.3 Secs"
cm-1;Abs
10000.000000;1.153702
9999.000000;1.154221
9998.000000;1.154743
9997.000000;1.155261
9996.000000;1.155787
9995.000000;1.156301
9994.000000;1.156842
9993.000000;1.157313
9992.000000;1.157347
9991.000000;1.156787
9990.000000;1.155709
9989.000000;1.154502
9988.000000;1.153576
9987.000000;1.152991
9986.000000;1.152407
9985.000000;1.151486
9984.000000;1.150306
9983.000000;1.149329
9982.000000;1.148944
9981.000000;1.149028
9980.000000;1.149001
9979.000000;1.148359
9978.000000;1.147170
9977.000000;1.145982
9976.000000;1.145254
9975.000000;1.144971
9974.000000;1.144781
9973.000000;1.144396
9972.000000;1.143841
9971.000000;1.143369
9970.000000;1.143157
9969.000000;1.143063
9968.000000;1.142762
9967.000000;1.142180
9966.000000;1.141643
9965.000000;1.141422
9964.000000;1.141294
9963.000000;1.140800
9962.000000;1.139882
9961.000000;1.138934
9960.000000;1.138207
9959.000000;1.137509
9958.000000;1.136561
9957.000000;1.135367
9956.000000;1.134093
9955.000000;1.132876
9954.000000;1.131925
9953.000000;1.131545
9952.000000;1.131790
9951.000000;1.132205
9950.000000;1.132221
9949.000000;1.131779
9948.000000;1.131352
9947.000000;1.131301
9946.000000;1.131398
9945.000000;1.131075
9944.000000;1.130092
9943.000000;1.128825
9942.000000;1.127873
9941.000000;1.127450
9940.000000;1.127293
9939.000000;1.127086
9938.000000;1.126763
9937.000000;1.126326
9936.000000;1.125643
9935.000000;1.124680
9934.000000;1.123747
9933.000000;1.123217
9932.000000;1.123034
9931.000000;1.122773
9930.000000;1.122136
9929.000000;1.121180
9928.000000;1.120130
9927.000000;1.119234
9926.000000;1.118743
9925.000000;1.118683
9924.000000;1.118668
9923.000000;1.118241
9922.000000;1.117449
9921.000000;1.116779
9920.000000;1.116485
9919.000000;1.116328
9918.000000;1.116023
9917.000000;1.115620
9916.000000;1.115265
9915.000000;1.114906
9914.000000;1.114446
9913.000000;1.113966
9912.000000;1.113601
9911.000000;1.113345
9910.000000;1.113087
9909.000000;1.112703
9908.000000;1.112050
9907.000000;1.111077
9906.000000;1.110041
9905.000000;1.109403
9904.000000;1.109377
9903.000000;1.109685
9902.000000;1.109772
9901.000000;1.109155
9900.000000;1.107680
9899.000000;1.105698
9898.000000;1.103979
9897.000000;1.103125
9896.000000;1.103017
9895.000000;1.103084
9894.000000;1.103079
9893.000000;1.103195
9892.000000;1.103360
9891.000000;1.102964
9890.000000;1.101589
9889.000000;1.099662
9888.000000;1.098048
9887.000000;1.097207
9886.000000;1.097029
9885.000000;1.097235
9884.000000;1.097636
9883.000000;1.098057
9882.000000;1.098266
9881.000000;1.098024
9880.000000;1.097228
9879.000000;1.096089
9878.000000;1.095135
9877.000000;1.094720
9876.000000;1.094519
9875.000000;1.093851
9874.000000;1.092624
9873.000000;1.091557
9872.000000;1.091260
9871.000000;1.091465
9870.000000;1.091481
9869.000000;1.091074
9868.000000;1.090486
9867.000000;1.089846
9866.000000;1.089075
9865.000000;1.088301
9864.000000;1.087876
9863.000000;1.087864
9862.000000;1.087790
9861.000000;1.087121
9860.000000;1.085884
9859.000000;1.084730
9858.000000;1.084378
9857.000000;1.084952
9856.000000;1.085770
9855.000000;1.085896
9854.000000;1.085020
9853.000000;1.083700
9852.000000;1.082679
9851.000000;1.082127
9850.000000;1.081670
9849.000000;1.080970
9848.000000;1.080020
9847.000000;1.078981
9846.000000;1.077992
9845.000000;1.077140
9844.000000;1.076449
9843.000000;1.075859
9842.000000;1.075312
9841.000000;1.074877
9840.000000;1.074686
9839.000000;1.074751
9838.000000;1.074906
9837.000000;1.074935
9836.000000;1.074735
9835.000000;1.074340
9834.000000;1.073808
9833.000000;1.073100
9832.000000;1.072172
9831.000000;1.071198
9830.000000;1.070533
9829.000000;1.070260
9828.000000;1.069929
9827.000000;1.069050
9826.000000;1.067761
9825.000000;1.066667
9824.000000;1.066042
9823.000000;1.065593
9822.000000;1.065108
9821.000000;1.064876
9820.000000;1.065146
9819.000000;1.065533
9818.000000;1.065343
9817.000000;1.064371
9816.000000;1.063073
9815.000000;1.062032
9814.000000;1.061541
9813.000000;1.061600
9812.000000;1.061979
9811.000000;1.062198
9810.000000;1.061727
9809.000000;1.060393
9808.000000;1.058595
9807.000000;1.057077
9806.000000;1.056422
9805.000000;1.056639
9804.000000;1.057184
9803.000000;1.057425
9802.000000;1.057169
9801.000000;1.056658
9800.000000;1.056119
9799.000000;1.055551
9798.000000;1.054985
9797.000000;1.054652
9796.000000;1.054664
9795.000000;1.054712
9794.000000;1.054331
9793.000000;1.053399
9792.000000;1.052209
9791.000000;1.051098
9790.000000;1.050175
9789.000000;1.049398
9788.000000;1.048771
9787.000000;1.048346
9786.000000;1.048069
9785.000000;1.047693
9784.000000;1.046977
9783.000000;1.046069
9782.000000;1.045514
9781.000000;1.045684
9780.000000;1.046214
9779.000000;1.046264
9778.000000;1.045393
9777.000000;1.043986
9776.000000;1.042767
9775.000000;1.042159
9774.000000;1.042152
9773.000000;1.042447
9772.000000;1.042535
9771.000000;1.041904
9770.000000;1.040496
9769.000000;1.038857
9768.000000;1.037663
9767.000000;1.037198
9766.000000;1.037361
9765.000000;1.037924
9764.000000;1.038535
9763.000000;1.038702
9762.000000;1.038138
9761.000000;1.037099
9760.000000;1.036097
9759.000000;1.035322
9758.000000;1.034603
9757.000000;1.033870
9756.000000;1.033292
9755.000000;1.032896
9754.000000;1.032396
9753.000000;1.031641
9752.000000;1.031003
9751.000000;1.030994
9750.000000;1.031573
9749.000000;1.032088
9748.000000;1.031987
9747.000000;1.031346
9746.000000;1.030593
9745.000000;1.029923
9744.000000;1.029251
9743.000000;1.028599
9742.000000;1.028169
9741.000000;1.027982
9740.000000;1.027778
9739.000000;1.027409
9738.000000;1.027024
9737.000000;1.026648
9736.000000;1.025881
9735.000000;1.024433
9734.000000;1.022774
9733.000000;1.021788
9732.000000;1.021751
9731.000000;1.022037
9730.000000;1.021942
9729.000000;1.021433
9728.000000;1.020932
9727.000000;1.020661
9726.000000;1.020458
9725.000000;1.020091
9724.000000;1.019494
9723.000000;1.018743
9722.000000;1.017960
9721.000000;1.017248
9720.000000;1.016657
9719.000000;1.016191
9718.000000;1.015815
9717.000000;1.015415
9716.000000;1.014847
9715.000000;1.014128
9714.000000;1.013491
9713.000000;1.013082
9712.000000;1.012681
9711.000000;1.011961
9710.000000;1.010980
9709.000000;1.010145
9708.000000;1.009721
9707.000000;1.009618
9706.000000;1.009646
9705.000000;1.009647
9704.000000;1.009353
9703.000000;1.008510
9702.000000;1.007328
9701.000000;1.006462
9700.000000;1.006304
9699.000000;1.006497
9698.000000;1.006384
9697.000000;1.005762
9696.000000;1.004979
9695.000000;1.004429
9694.000000;1.004190
9693.000000;1.004066
9692.000000;1.003793
9691.000000;1.003261
9690.000000;1.002647
9689.000000;1.002291
9688.000000;1.002323
9687.000000;1.002472
9686.000000;1.002357
9685.000000;1.001844
9684.000000;1.001077
9683.000000;1.000276
9682.000000;0.999626
9681.000000;0.999201
9680.000000;0.998820
9679.000000;0.998112
9678.000000;0.996919
9677.000000;0.995581
9676.000000;0.994684
9675.000000;0.994535
9674.000000;0.994966
9673.000000;0.995562
9672.000000;0.995932
9671.000000;0.995822
9670.000000;0.995150
9669.000000;0.994010
9668.000000;0.992626
9667.000000;0.991251
9666.000000;0.990112
9665.000000;0.989359
9664.000000;0.989026
9663.000000;0.989046
9662.000000;0.989278
9661.000000;0.989481
9660.000000;0.989338
9659.000000;0.988655
9658.000000;0.987567
9657.000000;0.986426
9656.000000;0.985462
9655.000000;0.984672
9654.000000;0.984038
9653.000000;0.983673
9652.000000;0.983654
9651.000000;0.983820
9650.000000;0.983871
9649.000000;0.983647
9648.000000;0.983254
9647.000000;0.982937
9646.000000;0.982884
9645.000000;0.983094
9644.000000;0.983374
9643.000000;0.983437
9642.000000;0.983042
9641.000000;0.982109
9640.000000;0.980810
9639.000000;0.979558
9638.000000;0.978747
9637.000000;0.978432
9636.000000;0.978339
9635.000000;0.978213
9634.000000;0.977998
9633.000000;0.977625
9632.000000;0.976918
9631.000000;0.975895
9630.000000;0.974941
9629.000000;0.974385
9628.000000;0.974086
9627.000000;0.973712
9626.000000;0.973249
9625.000000;0.972910
9624.000000;0.972682
9623.000000;0.972358
9622.000000;0.971969
9621.000000;0.971771
9620.000000;0.971805
9619.000000;0.971853
9618.000000;0.971804
9617.000000;0.971683
9616.000000;0.971305
9615.000000;0.970389
9614.000000;0.969118
9613.000000;0.968121
9612.000000;0.967698
9611.000000;0.967470
9610.000000;0.967006
9609.000000;0.966400
9608.000000;0.965961
9607.000000;0.965660
9606.000000;0.965218
9605.000000;0.964534
9604.000000;0.963729
9603.000000;0.962960
9602.000000;0.962425
9601.000000;0.962328
9600.000000;0.962556
9599.000000;0.962567
9598.000000;0.961894
9597.000000;0.960691
9596.000000;0.959552
9595.000000;0.958929
9594.000000;0.958857
9593.000000;0.959086
9592.000000;0.959258
9591.000000;0.959084
9590.000000;0.958589
9589.000000;0.958076
9588.000000;0.957734
9587.000000;0.957435
9586.000000;0.957074
9585.000000;0.956853
9584.000000;0.956942
9583.000000;0.957071
9582.000000;0.956814
9581.000000;0.956156
9580.000000;0.955430
9579.000000;0.954756
9578.000000;0.953940
9577.000000;0.952939
9576.000000;0.952033
9575.000000;0.951380
9574.000000;0.950722
9573.000000;0.949766
9572.000000;0.948679
9571.000000;0.947947
9570.000000;0.947806
9569.000000;0.948019
9568.000000;0.948199
9567.000000;0.948172
9566.000000;0.947960
9565.000000;0.947538
9564.000000;0.946801
9563.000000;0.945784
9562.000000;0.944776
9561.000000;0.944100
9560.000000;0.943814
9559.000000;0.943738
9558.000000;0.943694
9557.000000;0.943583
9556.000000;0.943268
9555.000000;0.942567
9554.000000;0.941474
9553.000000;0.940285
9552.000000;0.939436
9551.000000;0.939229
9550.000000;0.939658
9549.000000;0.940387
9548.000000;0.940880
9547.000000;0.940736
9546.000000;0.939997
9545.000000;0.939062
9544.000000;0.938298
9543.000000;0.937810
9542.000000;0.937559
9541.000000;0.937500
9540.000000;0.937514
9539.000000;0.937367
9538.000000;0.936885
9537.000000;0.936142
9536.000000;0.935388
9535.000000;0.934794
9534.000000;0.934318
9533.000000;0.933792
9532.000000;0.933128
9531.000000;0.932436
9530.000000;0.931898
9529.000000;0.931510
9528.000000;0.931068
9527.000000;0.930488
9526.000000;0.930016
9525.000000;0.929938
9524.000000;0.930147
9523.000000;0.930190
9522.000000;0.929736
9521.000000;0.928843
9520.000000;0.927790
9519.000000;0.926871
9518.000000;0.926313
9517.000000;0.926177
9516.000000;0.926240
9515.000000;0.926138
9514.000000;0.925675
9513.000000;0.924907
9512.000000;0.923983
9511.000000;0.923086
9510.000000;0.922426
9509.000000;0.922043
9508.000000;0.921652
9507.000000;0.920990
9506.000000;0.920278
9505.000000;0.920018
9504.000000;0.920284
9503.000000;0.920605
9502.000000;0.920625
9501.000000;0.920493
9500.000000;0.920401
9499.000000;0.920134
9498.000000;0.919427
9497.000000;0.918484
9496.000000;0.917759
9495.000000;0.917337
9494.000000;0.916880
9493.000000;0.916181
9492.000000;0.915504
9491.000000;0.915336
9490.000000;0.915888
9489.000000;0.916824
9488.000000;0.917399
9487.000000;0.917010
9486.000000;0.915769
9485.000000;0.914443
9484.000000;0.913729
9483.000000;0.913664
9482.000000;0.913808
9481.000000;0.913796
9480.000000;0.913521
9479.000000;0.912967
9478.000000;0.912165
9477.000000;0.911322
9476.000000;0.910746
9475.000000;0.910534
9474.000000;0.910448
9473.000000;0.910161
9472.000000;0.909556
9471.000000;0.908765
9470.000000;0.907984
9469.000000;0.907303
9468.000000;0.906685
9467.000000;0.906080
9466.000000;0.905482
9465.000000;0.904883
9464.000000;0.904266
9463.000000;0.903735
9462.000000;0.903536
9461.000000;0.903752
9460.000000;0.904024
9459.000000;0.903832
9458.000000;0.903123
9457.000000;0.902412
9456.000000;0.902153
9455.000000;0.902227
9454.000000;0.902193
9453.000000;0.901863
9452.000000;0.901398
9451.000000;0.900959
9450.000000;0.900529
9449.000000;0.900088
9448.000000;0.899737
9447.000000;0.899536
9446.000000;0.899359
9445.000000;0.899013
9444.000000;0.898488
9443.000000;0.897996
9442.000000;0.897698
9441.000000;0.897469
9440.000000;0.897029
9439.000000;0.896310
9438.000000;0.895545
9437.000000;0.894924
9436.000000;0.894371
9435.000000;0.893794
9434.000000;0.893387
9433.000000;0.893404
9432.000000;0.893723
9431.000000;0.893908
9430.000000;0.893705
9429.000000;0.893238
9428.000000;0.892697
9427.000000;0.892134
9426.000000;0.891616
9425.000000;0.891298
9424.000000;0.891178
9423.000000;0.890996
9422.000000;0.890550
9421.000000;0.889944
9420.000000;0.889410
9419.000000;0.889028
9418.000000;0.888730
9417.000000;0.888407
9416.000000;0.887902
9415.000000;0.887098
9414.000000;0.886175
9413.000000;0.885595
9412.000000;0.885628
9411.000000;0.885991
9410.000000;0.886116
9409.000000;0.885711
9408.000000;0.884910
9407.000000;0.883966
9406.000000;0.883033
9405.000000;0.882222
9404.000000;0.881674
9403.000000;0.881457
9402.000000;0.881463
9401.000000;0.881472
9400.000000;0.881351
9399.000000;0.881172
9398.000000;0.881114
9397.000000;0.881208
9396.000000;0.881235
9395.000000;0.880901
9394.000000;0.880090
9393.000000;0.878924
9392.000000;0.877663
9391.000000;0.876657
9390.000000;0.876223
9389.000000;0.876370
9388.000000;0.876692
9387.000000;0.876722
9386.000000;0.876375
9385.000000;0.875858
9384.000000;0.875269
9383.000000;0.874558
9382.000000;0.873833
9381.000000;0.873371
9380.000000;0.873246
9379.000000;0.873213
9378.000000;0.873062
9377.000000;0.872816
9376.000000;0.872503
9375.000000;0.872015
9374.000000;0.871356
9373.000000;0.870784
9372.000000;0.870545
9371.000000;0.870617
9370.000000;0.870845
9369.000000;0.871129
9368.000000;0.871323
9367.000000;0.871189
9366.000000;0.870662
9365.000000;0.870001
9364.000000;0.869494
9363.000000;0.869130
9362.000000;0.868736
9361.000000;0.868281
9360.000000;0.867864
9359.000000;0.867497
9358.000000;0.867101
9357.000000;0.866649
9356.000000;0.866182
9355.000000;0.865726
9354.000000;0.865287
9353.000000;0.864881
9352.000000;0.864474
9351.000000;0.863988
9350.000000;0.863446
9349.000000;0.863045
9348.000000;0.862976
9347.000000;0.863205
9346.000000;0.863445
9345.000000;0.863273
9344.000000;0.862400
9343.000000;0.861044
9342.000000;0.859976
9341.000000;0.859859
9340.000000;0.860459
9339.000000;0.860805
9338.000000;0.860295
9337.000000;0.859345
9336.000000;0.858707
9335.000000;0.858487
9334.000000;0.858192
9333.000000;0.857532
9332.000000;0.856748
9331.000000;0.856198
9330.000000;0.855960
9329.000000;0.855907
9328.000000;0.855907
9327.000000;0.855863
9326.000000;0.855734
9325.000000;0.855569
9324.000000;0.855440
9323.000000;0.855338
9322.000000;0.855224
9321.000000;0.855131
9320.000000;0.855071
9319.000000;0.854918
9318.000000;0.854556
9317.000000;0.854103
9316.000000;0.853789
9315.000000;0.853609
9314.000000;0.853264
9313.000000;0.852493
9312.000000;0.851358
9311.000000;0.850171
9310.000000;0.849252
9309.000000;0.848777
9308.000000;0.848752
9307.000000;0.849039
9306.000000;0.849414
9305.000000;0.849629
9304.000000;0.849485
9303.000000;0.848949
9302.000000;0.848270
9301.000000;0.847852
9300.000000;0.847889
9299.000000;0.848117
9298.000000;0.848046
9297.000000;0.847438
9296.000000;0.846487
9295.000000;0.845561
9294.000000;0.844856
9293.000000;0.844349
9292.000000;0.843975
9291.000000;0.843750
9290.000000;0.843694
9289.000000;0.843678
9288.000000;0.843461
9287.000000;0.842924
9286.000000;0.842225
9285.000000;0.841641
9284.000000;0.841325
9283.000000;0.841274
9282.000000;0.841464
9281.000000;0.841845
9280.000000;0.842228
9279.000000;0.842367
9278.000000;0.842189
9277.000000;0.841835
9276.000000;0.841423
9275.000000;0.840898
9274.000000;0.840183
9273.000000;0.839340
9272.000000;0.838521
9271.000000;0.837824
9270.000000;0.837262
9269.000000;0.836794
9268.000000;0.836370
9267.000000;0.836027
9266.000000;0.835902
9265.000000;0.836037
9264.000000;0.836168
9263.000000;0.835918
9262.000000;0.835245
9261.000000;0.834536
9260.000000;0.834161
9259.000000;0.834101
9258.000000;0.834063
9257.000000;0.833823
9256.000000;0.833346
9255.000000;0.832749
9254.000000;0.832255
9253.000000;0.832077
9252.000000;0.832219
9251.000000;0.832462
9250.000000;0.832598
9249.000000;0.832584
9248.000000;0.832408
9247.000000;0.831993
9246.000000;0.831346
9245.000000;0.830672
9244.000000;0.830194
9243.000000;0.829938
9242.000000;0.829789
9241.000000;0.829658
9240.000000;0.829485
9239.000000;0.829192
9238.000000;0.828749
9237.000000;0.828260
9236.000000;0.827868
9235.000000;0.827625
9234.000000;0.827492
9233.000000;0.827369
9232.000000;0.827122
9231.000000;0.826664
9230.000000;0.826087
9229.000000;0.825578
9228.000000;0.825198
9227.000000;0.824873
9226.000000;0.824610
9225.000000;0.824505
9224.000000;0.824502
9223.000000;0.824367
9222.000000;0.824041
9221.000000;0.823758
9220.000000;0.823668
9219.000000;0.823573
9218.000000;0.823258
9217.000000;0.822891
9216.000000;0.822768
9215.000000;0.822816
9214.000000;0.822667
9213.000000;0.822196
9212.000000;0.821659
9211.000000;0.821262
9210.000000;0.820875
9209.000000;0.820287
9208.000000;0.819557
9207.000000;0.818965
9206.000000;0.818705
9205.000000;0.818736
9204.000000;0.818883
9203.000000;0.818975
9202.000000;0.818897
9201.000000;0.818576
9200.000000;0.818011
9199.000000;0.817354
9198.000000;0.816891
9197.000000;0.816808
9196.000000;0.816955
9195.000000;0.816960
9194.000000;0.816650
9193.000000;0.816217
9192.000000;0.815915
9191.000000;0.815724
9190.000000;0.815449
9189.000000;0.815054
9188.000000;0.814704
9187.000000;0.814518
9186.000000;0.814416
9185.000000;0.814235
9184.000000;0.813906
9183.000000;0.813504
9182.000000;0.813181
9181.000000;0.813048
9180.000000;0.813064
9179.000000;0.813064
9178.000000;0.812895
9177.000000;0.812501
9176.000000;0.811892
9175.000000;0.811153
9174.000000;0.810506
9173.000000;0.810225
9172.000000;0.810354
9171.000000;0.810582
9170.000000;0.810517
9169.000000;0.810055
9168.000000;0.809417
9167.000000;0.808887
9166.000000;0.808589
9165.000000;0.808454
9164.000000;0.808300
9163.000000;0.807990
9162.000000;0.807571
9161.000000;0.807225
9160.000000;0.807028
9159.000000;0.806838
9158.000000;0.806505
9157.000000;0.806094
9156.000000;0.805793
9155.000000;0.805640
9154.000000;0.805477
9153.000000;0.805163
9152.000000;0.804717
9151.000000;0.804246
9150.000000;0.803828
9149.000000;0.803519
9148.000000;0.803411
9147.000000;0.803578
9146.000000;0.803924
9145.000000;0.804134
9144.000000;0.803894
9143.000000;0.803223
9142.000000;0.802506
9141.000000;0.802093
9140.000000;0.801947
9139.000000;0.801783
9138.000000;0.801463
9137.000000;0.801052
9136.000000;0.800576
9135.000000;0.799995
9134.000000;0.799442
9133.000000;0.799210
9132.000000;0.799363
9131.000000;0.799561
9130.000000;0.799422
9129.000000;0.798942
9128.000000;0.798446
9127.000000;0.798245
9126.000000;0.798415
9125.000000;0.798747
9124.000000;0.798821
9123.000000;0.798324
9122.000000;0.797445
9121.000000;0.796779
9120.000000;0.796693
9119.000000;0.796948
9118.000000;0.797079
9117.000000;0.796957
9116.000000;0.796775
9115.000000;0.796622
9114.000000;0.796393
9113.000000;0.796027
9112.000000;0.795563
9111.000000;0.794984
9110.000000;0.794246
9109.000000;0.793488
9108.000000;0.792996
9107.000000;0.792890
9106.000000;0.792981
9105.000000;0.792990
9104.000000;0.792802
9103.000000;0.792504
9102.000000;0.792261
9101.000000;0.792153
9100.000000;0.792089
9099.000000;0.791890
9098.000000;0.791541
9097.000000;0.791265
9096.000000;0.791228
9095.000000;0.791266
9094.000000;0.791069
9093.000000;0.790568
9092.000000;0.789968
9091.000000;0.789445
9090.000000;0.789029
9089.000000;0.788753
9088.000000;0.788690
9087.000000;0.788786
9086.000000;0.788871
9085.000000;0.788906
9084.000000;0.789014
9083.000000;0.789197
9082.000000;0.789216
9081.000000;0.788905
9080.000000;0.788470
9079.000000;0.788245
9078.000000;0.788236
9077.000000;0.788081
9076.000000;0.787482
9075.000000;0.786545
9074.000000;0.785626
9073.000000;0.784959
9072.000000;0.784513
9071.000000;0.784160
9070.000000;0.783850
9069.000000;0.783620
9068.000000;0.783488
9067.000000;0.783428
9066.000000;0.783418
9065.000000;0.783450
9064.000000;0.783480
9063.000000;0.783432
9062.000000;0.783273
9061.000000;0.783049
9060.000000;0.782850
9059.000000;0.782760
9058.000000;0.782828
9057.000000;0.783002
9056.000000;0.783088
9055.000000;0.782886
9054.000000;0.782401
9053.000000;0.781838
