Criado como novo conjunto de dados;"e2410_daniel_v2.spp","67325.6 Secs"
cm-1;Abs
10000.000000;1.315087
9999.000000;1.314894
9998.000000;1.314463
9997.000000;1.314001
9996.000000;1.313587
9995.000000;1.313078
9994.000000;1.312447
9993.000000;1.311736
9992.000000;1.310993
9991.000000;1.310221
9990.000000;1.309456
9989.000000;1.308771
9988.000000;1.308302
9987.000000;1.308239
9986.000000;1.308632
9985.000000;1.309133
9984.000000;1.309112
9983.000000;1.308199
9982.000000;1.306697
9981.000000;1.305319
9980.000000;1.304589
9979.000000;1.304518
9978.000000;1.304713
9977.000000;1.304704
9976.000000;1.304253
9975.000000;1.303490
9974.000000;1.302737
9973.000000;1.302168
9972.000000;1.301679
9971.000000;1.301103
9970.000000;1.300417
9969.000000;1.299651
9968.000000;1.298765
9967.000000;1.297767
9966.000000;1.296907
9965.000000;1.296591
9964.000000;1.297054
9963.000000;1.298123
9962.000000;1.299235
9961.000000;1.299681
9960.000000;1.299001
9959.000000;1.297310
9958.000000;1.295237
9957.000000;1.293469
9956.000000;1.292351
9955.000000;1.291892
9954.000000;1.291949
9953.000000;1.292287
9952.000000;1.292538
9951.000000;1.292349
9950.000000;1.291695
9949.000000;1.290985
9948.000000;1.290744
9947.000000;1.291085
9946.000000;1.291476
9945.000000;1.291142
9944.000000;1.289815
9943.000000;1.288008
9942.000000;1.286463
9941.000000;1.285436
9940.000000;1.284707
9939.000000;1.284137
9938.000000;1.283861
9937.000000;1.283913
9936.000000;1.283980
9935.000000;1.283708
9934.000000;1.283058
9933.000000;1.282240
9932.000000;1.281500
9931.000000;1.281034
9930.000000;1.280889
9929.000000;1.280804
9928.000000;1.280420
9927.000000;1.279780
9926.000000;1.279337
9925.000000;1.279276
9924.000000;1.279124
9923.000000;1.278363
9922.000000;1.277200
9921.000000;1.276308
9920.000000;1.275973
9919.000000;1.275873
9918.000000;1.275657
9917.000000;1.275336
9916.000000;1.275060
9915.000000;1.274842
9914.000000;1.274631
9913.000000;1.274408
9912.000000;1.274105
9911.000000;1.273555
9910.000000;1.272626
9909.000000;1.271325
9908.000000;1.269833
9907.000000;1.268537
9906.000000;1.267910
9905.000000;1.268099
9904.000000;1.268662
9903.000000;1.268971
9902.000000;1.268849
9901.000000;1.268552
9900.000000;1.268181
9899.000000;1.267536
9898.000000;1.266642
9897.000000;1.265997
9896.000000;1.266004
9895.000000;1.266338
9894.000000;1.266140
9893.000000;1.264785
9892.000000;1.262397
9891.000000;1.259803
9890.000000;1.258092
9889.000000;1.257913
9888.000000;1.258891
9887.000000;1.259797
9886.000000;1.259611
9885.000000;1.258452
9884.000000;1.257272
9883.000000;1.256690
9882.000000;1.256398
9881.000000;1.255670
9880.000000;1.254226
9879.000000;1.252516
9878.000000;1.251332
9877.000000;1.251230
9876.000000;1.252138
9875.000000;1.253348
9874.000000;1.253956
9873.000000;1.253456
9872.000000;1.251966
9871.000000;1.249989
9870.000000;1.248143
9869.000000;1.247073
9868.000000;1.247226
9867.000000;1.248369
9866.000000;1.249536
9865.000000;1.249812
9864.000000;1.249163
9863.000000;1.248255
9862.000000;1.247576
9861.000000;1.247076
9860.000000;1.246643
9859.000000;1.246452
9858.000000;1.246554
9857.000000;1.246508
9856.000000;1.245808
9855.000000;1.244551
9854.000000;1.243274
9853.000000;1.242246
9852.000000;1.241285
9851.000000;1.240270
9850.000000;1.239397
9849.000000;1.238821
9848.000000;1.238392
9847.000000;1.237980
9846.000000;1.237773
9845.000000;1.237990
9844.000000;1.238458
9843.000000;1.238724
9842.000000;1.238540
9841.000000;1.238019
9840.000000;1.237364
9839.000000;1.236660
9838.000000;1.235919
9837.000000;1.235142
9836.000000;1.234328
9835.000000;1.233542
9834.000000;1.232966
9833.000000;1.232746
9832.000000;1.232769
9831.000000;1.232668
9830.000000;1.232099
9829.000000;1.231022
9828.000000;1.229746
9827.000000;1.228741
9826.000000;1.228342
9825.000000;1.228534
9824.000000;1.228984
9823.000000;1.229292
9822.000000;1.229189
9821.000000;1.228571
9820.000000;1.227531
9819.000000;1.226389
9818.000000;1.225508
9817.000000;1.224931
9816.000000;1.224297
9815.000000;1.223245
9814.000000;1.221860
9813.000000;1.220601
9812.000000;1.219891
9811.000000;1.219892
9810.000000;1.220498
9809.000000;1.221311
9808.000000;1.221713
9807.000000;1.221251
9806.000000;1.220061
9805.000000;1.218734
9804.000000;1.217774
9803.000000;1.217329
9802.000000;1.217353
9801.000000;1.217719
9800.000000;1.218067
9799.000000;1.217885
9798.000000;1.217038
9797.000000;1.216063
9796.000000;1.215618
9795.000000;1.215655
9794.000000;1.215441
9793.000000;1.214506
9792.000000;1.213285
9791.000000;1.212613
9790.000000;1.212722
9789.000000;1.212971
9788.000000;1.212554
9787.000000;1.211276
9786.000000;1.209637
9785.000000;1.208326
9784.000000;1.207728
9783.000000;1.207740
9782.000000;1.207876
9781.000000;1.207615
9780.000000;1.206809
9779.000000;1.205763
9778.000000;1.204872
9777.000000;1.204231
9776.000000;1.203680
9775.000000;1.203137
9774.000000;1.202679
9773.000000;1.202328
9772.000000;1.201978
9771.000000;1.201551
9770.000000;1.201064
9769.000000;1.200473
9768.000000;1.199632
9767.000000;1.198547
9766.000000;1.197572
9765.000000;1.197200
9764.000000;1.197616
9763.000000;1.198477
9762.000000;1.199131
9761.000000;1.199102
9760.000000;1.198474
9759.000000;1.197784
9758.000000;1.197503
9757.000000;1.197629
9756.000000;1.197805
9755.000000;1.197740
9754.000000;1.197384
9753.000000;1.196776
9752.000000;1.195989
9751.000000;1.195236
9750.000000;1.194757
9749.000000;1.194453
9748.000000;1.193843
9747.000000;1.192631
9746.000000;1.191168
9745.000000;1.190164
9744.000000;1.189977
9743.000000;1.190355
9742.000000;1.190791
9741.000000;1.190938
9740.000000;1.190672
9739.000000;1.189925
9738.000000;1.188616
9737.000000;1.186787
9736.000000;1.184824
9735.000000;1.183412
9734.000000;1.183090
9733.000000;1.183744
9732.000000;1.184617
9731.000000;1.184904
9730.000000;1.184355
9729.000000;1.183336
9728.000000;1.182472
9727.000000;1.182220
9726.000000;1.182549
9725.000000;1.182868
9724.000000;1.182475
9723.000000;1.181248
9722.000000;1.179769
9721.000000;1.178656
9720.000000;1.177986
9719.000000;1.177517
9718.000000;1.177183
9717.000000;1.177014
9716.000000;1.176756
9715.000000;1.176049
9714.000000;1.175021
9713.000000;1.174322
9712.000000;1.174408
9711.000000;1.175027
9710.000000;1.175525
9709.000000;1.175477
9708.000000;1.174910
9707.000000;1.174093
9706.000000;1.173260
9705.000000;1.172421
9704.000000;1.171390
9703.000000;1.170096
9702.000000;1.168915
9701.000000;1.168464
9700.000000;1.168933
9699.000000;1.169776
9698.000000;1.170216
9697.000000;1.169952
9696.000000;1.169229
9695.000000;1.168380
9694.000000;1.167614
9693.000000;1.167148
9692.000000;1.167170
9691.000000;1.167512
9690.000000;1.167574
9689.000000;1.166829
9688.000000;1.165396
9687.000000;1.163946
9686.000000;1.163021
9685.000000;1.162565
9684.000000;1.162174
9683.000000;1.161665
9682.000000;1.161236
9681.000000;1.161076
9680.000000;1.161001
9679.000000;1.160627
9678.000000;1.159824
9677.000000;1.158856
9676.000000;1.158087
9675.000000;1.157664
9674.000000;1.157507
9673.000000;1.157441
9672.000000;1.157248
9671.000000;1.156720
9670.000000;1.155839
9669.000000;1.154896
9668.000000;1.154281
9667.000000;1.154104
9666.000000;1.154104
9665.000000;1.153965
9664.000000;1.153661
9663.000000;1.153402
9662.000000;1.153283
9661.000000;1.153105
9660.000000;1.152589
9659.000000;1.151718
9658.000000;1.150805
9657.000000;1.150241
9656.000000;1.150189
9655.000000;1.150449
9654.000000;1.150574
9653.000000;1.150184
9652.000000;1.149272
9651.000000;1.148235
9650.000000;1.147535
9649.000000;1.147275
9648.000000;1.147140
9647.000000;1.146758
9646.000000;1.146089
9645.000000;1.145455
9644.000000;1.145237
9643.000000;1.145559
9642.000000;1.146160
9641.000000;1.146518
9640.000000;1.146157
9639.000000;1.144978
9638.000000;1.143307
9637.000000;1.141632
9636.000000;1.140350
9635.000000;1.139706
9634.000000;1.139738
9633.000000;1.140093
9632.000000;1.140066
9631.000000;1.139188
9630.000000;1.137846
9629.000000;1.137071
9628.000000;1.137512
9627.000000;1.138740
9626.000000;1.139688
9625.000000;1.139703
9624.000000;1.139018
9623.000000;1.138273
9622.000000;1.137847
9621.000000;1.137665
9620.000000;1.137409
9619.000000;1.136801
9618.000000;1.135820
9617.000000;1.134737
9616.000000;1.133797
9615.000000;1.132857
9614.000000;1.131560
9613.000000;1.130011
9612.000000;1.129007
9611.000000;1.129255
9610.000000;1.130450
9609.000000;1.131431
9608.000000;1.131317
9607.000000;1.130259
9606.000000;1.129053
9605.000000;1.128318
9604.000000;1.128193
9603.000000;1.128482
9602.000000;1.128796
9601.000000;1.128687
9600.000000;1.127989
9599.000000;1.126994
9598.000000;1.126162
9597.000000;1.125668
9596.000000;1.125364
9595.000000;1.125071
9594.000000;1.124734
9593.000000;1.124376
9592.000000;1.124098
9591.000000;1.124056
9590.000000;1.124241
9589.000000;1.124310
9588.000000;1.123916
9587.000000;1.123213
9586.000000;1.122744
9585.000000;1.122739
9584.000000;1.122767
9583.000000;1.122225
9582.000000;1.121025
9581.000000;1.119613
9580.000000;1.118478
9579.000000;1.117808
9578.000000;1.117525
9577.000000;1.117403
9576.000000;1.117143
9575.000000;1.116500
9574.000000;1.115473
9573.000000;1.114365
9572.000000;1.113592
9571.000000;1.113401
9570.000000;1.113726
9569.000000;1.114255
9568.000000;1.114658
9567.000000;1.114740
9566.000000;1.114415
9565.000000;1.113652
9564.000000;1.112548
9563.000000;1.111385
9562.000000;1.110420
9561.000000;1.109657
9560.000000;1.108973
9559.000000;1.108484
9558.000000;1.108521
9557.000000;1.109114
9556.000000;1.109703
9555.000000;1.109613
9554.000000;1.108753
9553.000000;1.107632
9552.000000;1.106677
9551.000000;1.105796
9550.000000;1.104689
9549.000000;1.103416
9548.000000;1.102441
9547.000000;1.102133
9546.000000;1.102373
9545.000000;1.102709
9544.000000;1.102796
9543.000000;1.102587
9542.000000;1.102167
9541.000000;1.101602
9540.000000;1.101000
9539.000000;1.100539
9538.000000;1.100278
9537.000000;1.100049
9536.000000;1.099706
9535.000000;1.099381
9534.000000;1.099331
9533.000000;1.099551
9532.000000;1.099768
9531.000000;1.099770
9530.000000;1.099533
9529.000000;1.099019
9528.000000;1.098160
9527.000000;1.097123
9526.000000;1.096292
9525.000000;1.095810
9524.000000;1.095365
9523.000000;1.094642
9522.000000;1.093792
9521.000000;1.093224
9520.000000;1.093063
9519.000000;1.093085
9518.000000;1.093102
9517.000000;1.093127
9516.000000;1.093164
9515.000000;1.093083
9514.000000;1.092770
9513.000000;1.092241
9512.000000;1.091572
9511.000000;1.090856
9510.000000;1.090247
9509.000000;1.089868
9508.000000;1.089629
9507.000000;1.089286
9506.000000;1.088746
9505.000000;1.088210
9504.000000;1.087917
9503.000000;1.087844
9502.000000;1.087707
9501.000000;1.087213
9500.000000;1.086273
9499.000000;1.085101
9498.000000;1.084136
9497.000000;1.083743
9496.000000;1.083866
9495.000000;1.084024
9494.000000;1.083778
9493.000000;1.083164
9492.000000;1.082539
9491.000000;1.082102
9490.000000;1.081759
9489.000000;1.081479
9488.000000;1.081486
9487.000000;1.081898
9486.000000;1.082297
9485.000000;1.081968
9484.000000;1.080653
9483.000000;1.078911
9482.000000;1.077630
9481.000000;1.077288
9480.000000;1.077720
9479.000000;1.078400
9478.000000;1.078770
9477.000000;1.078476
9476.000000;1.077562
9475.000000;1.076487
9474.000000;1.075773
9473.000000;1.075562
9472.000000;1.075594
9471.000000;1.075585
9470.000000;1.075422
9469.000000;1.074968
9468.000000;1.073978
9467.000000;1.072436
9466.000000;1.070862
9465.000000;1.070042
9464.000000;1.070368
9463.000000;1.071481
9462.000000;1.072529
9461.000000;1.072796
9460.000000;1.072239
9459.000000;1.071506
9458.000000;1.071333
9457.000000;1.071790
9456.000000;1.072194
9455.000000;1.071838
9454.000000;1.070724
9453.000000;1.069465
9452.000000;1.068574
9451.000000;1.068059
9450.000000;1.067685
9449.000000;1.067355
9448.000000;1.067145
9447.000000;1.067098
9446.000000;1.067096
9445.000000;1.066893
9444.000000;1.066263
9443.000000;1.065198
9442.000000;1.063985
9441.000000;1.063022
9440.000000;1.062521
9439.000000;1.062379
9438.000000;1.062295
9437.000000;1.061965
9436.000000;1.061281
9435.000000;1.060486
9434.000000;1.060078
9433.000000;1.060367
9432.000000;1.061081
9431.000000;1.061546
9430.000000;1.061319
9429.000000;1.060540
9428.000000;1.059624
9427.000000;1.058802
9426.000000;1.058072
9425.000000;1.057419
9424.000000;1.056872
9423.000000;1.056391
9422.000000;1.055863
9421.000000;1.055271
9420.000000;1.054800
9419.000000;1.054710
9418.000000;1.055076
9417.000000;1.055622
9416.000000;1.055842
9415.000000;1.055412
9414.000000;1.054509
9413.000000;1.053663
9412.000000;1.053238
9411.000000;1.053126
9410.000000;1.052959
9409.000000;1.052507
9408.000000;1.051794
9407.000000;1.050963
9406.000000;1.050189
9405.000000;1.049665
9404.000000;1.049505
9403.000000;1.049650
9402.000000;1.049940
9401.000000;1.050231
9400.000000;1.050357
9399.000000;1.050099
9398.000000;1.049410
9397.000000;1.048630
9396.000000;1.048226
9395.000000;1.048263
9394.000000;1.048326
9393.000000;1.048023
9392.000000;1.047380
9391.000000;1.046643
9390.000000;1.045914
9389.000000;1.045194
9388.000000;1.044621
9387.000000;1.044386
9386.000000;1.044442
9385.000000;1.044496
9384.000000;1.044344
9383.000000;1.044064
9382.000000;1.043835
9381.000000;1.043700
9380.000000;1.043563
9379.000000;1.043308
9378.000000;1.042850
9377.000000;1.042172
9376.000000;1.041380
9375.000000;1.040657
9374.000000;1.040102
9373.000000;1.039684
9372.000000;1.039400
9371.000000;1.039365
9370.000000;1.039622
9369.000000;1.039918
9368.000000;1.039838
9367.000000;1.039233
9366.000000;1.038404
9365.000000;1.037769
9364.000000;1.037407
9363.000000;1.037064
9362.000000;1.036573
9361.000000;1.036111
9360.000000;1.035968
9359.000000;1.036130
9358.000000;1.036215
9357.000000;1.035813
9356.000000;1.034868
9355.000000;1.033750
9354.000000;1.032989
9353.000000;1.032885
9352.000000;1.033252
9351.000000;1.033560
9350.000000;1.033410
9349.000000;1.032879
9348.000000;1.032327
9347.000000;1.031979
9346.000000;1.031797
9345.000000;1.031695
9344.000000;1.031635
9343.000000;1.031485
9342.000000;1.031052
9341.000000;1.030381
9340.000000;1.029819
9339.000000;1.029637
9338.000000;1.029742
9337.000000;1.029898
9336.000000;1.030029
9335.000000;1.030104
9334.000000;1.029899
9333.000000;1.029202
9332.000000;1.028205
9331.000000;1.027363
9330.000000;1.026843
9329.000000;1.026408
9328.000000;1.025891
9327.000000;1.025488
9326.000000;1.025399
9325.000000;1.025385
9324.000000;1.024932
9323.000000;1.023844
9322.000000;1.022541
9321.000000;1.021718
9320.000000;1.021749
9319.000000;1.022392
9318.000000;1.023026
9317.000000;1.023209
9316.000000;1.022971
9315.000000;1.022587
9314.000000;1.022207
9313.000000;1.021842
9312.000000;1.021566
9311.000000;1.021480
9310.000000;1.021471
9309.000000;1.021241
9308.000000;1.020650
9307.000000;1.019851
9306.000000;1.019057
9305.000000;1.018358
9304.000000;1.017832
9303.000000;1.017579
9302.000000;1.017529
9301.000000;1.017405
9300.000000;1.017034
9299.000000;1.016537
9298.000000;1.016074
9297.000000;1.015564
9296.000000;1.014872
9295.000000;1.014186
9294.000000;1.013929
9293.000000;1.014252
9292.000000;1.014778
9291.000000;1.014911
9290.000000;1.014369
9289.000000;1.013393
9288.000000;1.012484
9287.000000;1.011946
9286.000000;1.011708
9285.000000;1.011554
9284.000000;1.011451
9283.000000;1.011515
9282.000000;1.011730
9281.000000;1.011906
9280.000000;1.011921
9279.000000;1.011847
9278.000000;1.011729
9277.000000;1.011438
9276.000000;1.010854
9275.000000;1.010062
9274.000000;1.009249
9273.000000;1.008534
9272.000000;1.007977
9271.000000;1.007622
9270.000000;1.007398
9269.000000;1.007119
9268.000000;1.006713
9267.000000;1.006360
9266.000000;1.006255
9265.000000;1.006348
9264.000000;1.006431
9263.000000;1.006410
9262.000000;1.006321
9261.000000;1.006170
9260.000000;1.005917
9259.000000;1.005603
9258.000000;1.005364
9257.000000;1.005321
9256.000000;1.005479
9255.000000;1.005717
9254.000000;1.005832
9253.000000;1.005682
9252.000000;1.005313
9251.000000;1.004832
9250.000000;1.004170
9249.000000;1.003182
9248.000000;1.002030
9247.000000;1.001173
9246.000000;1.000847
9245.000000;1.000771
9244.000000;1.000586
9243.000000;1.000340
9242.000000;1.000295
9241.000000;1.000426
9240.000000;1.000457
9239.000000;1.000282
9238.000000;1.000045
9237.000000;0.999839
9236.000000;0.999593
9235.000000;0.999259
9234.000000;0.998868
9233.000000;0.998398
9232.000000;0.997791
9231.000000;0.997096
9230.000000;0.996434
9229.000000;0.995835
9228.000000;0.995275
9227.000000;0.994806
9226.000000;0.994459
9225.000000;0.994085
9224.000000;0.993529
9223.000000;0.992956
9222.000000;0.992782
9221.000000;0.993234
9220.000000;0.994126
9219.000000;0.995022
9218.000000;0.995445
9217.000000;0.995051
9216.000000;0.993887
9215.000000;0.992508
9214.000000;0.991576
9213.000000;0.991280
9212.000000;0.991303
9211.000000;0.991310
9210.000000;0.991225
9209.000000;0.991066
9208.000000;0.990784
9207.000000;0.990385
9206.000000;0.990008
9205.000000;0.989818
9204.000000;0.989912
9203.000000;0.990310
9202.000000;0.990823
9201.000000;0.991007
9200.000000;0.990530
9199.000000;0.989633
9198.000000;0.988880
9197.000000;0.988449
9196.000000;0.988008
9195.000000;0.987378
9194.000000;0.986889
9193.000000;0.986856
9192.000000;0.987038
9191.000000;0.986954
9190.000000;0.986540
9189.000000;0.986140
9188.000000;0.985963
9187.000000;0.985869
9186.000000;0.985631
9185.000000;0.985175
9184.000000;0.984567
9183.000000;0.983953
9182.000000;0.983505
9181.000000;0.983282
9180.000000;0.983137
9179.000000;0.982880
9178.000000;0.982501
9177.000000;0.982164
9176.000000;0.982020
9175.000000;0.982132
9174.000000;0.982503
9173.000000;0.983041
9172.000000;0.983531
9171.000000;0.983763
9170.000000;0.983692
9169.000000;0.983394
9168.000000;0.982906
9167.000000;0.982217
9166.000000;0.981409
9165.000000;0.980687
9164.000000;0.980229
9163.000000;0.980037
9162.000000;0.979926
9161.000000;0.979686
9160.000000;0.979303
9159.000000;0.979009
9158.000000;0.979009
9157.000000;0.979172
9156.000000;0.979144
9155.000000;0.978805
9154.000000;0.978450
9153.000000;0.978390
9152.000000;0.978531
9151.000000;0.978505
9150.000000;0.978098
9149.000000;0.977389
9148.000000;0.976544
9147.000000;0.975714
9146.000000;0.975111
9145.000000;0.974952
9144.000000;0.975208
9143.000000;0.975531
9142.000000;0.975520
9141.000000;0.975028
9140.000000;0.974219
9139.000000;0.973415
9138.000000;0.972925
9137.000000;0.972890
9136.000000;0.973194
9135.000000;0.973536
9134.000000;0.973669
9133.000000;0.973525
9132.000000;0.973123
9131.000000;0.972441
9130.000000;0.971514
9129.000000;0.970599
9128.000000;0.970080
9127.000000;0.970093
9126.000000;0.970340
9125.000000;0.970391
9124.000000;0.970167
9123.000000;0.969986
9122.000000;0.970112
9121.000000;0.970417
9120.000000;0.970574
9119.000000;0.970459
9118.000000;0.970192
9117.000000;0.969854
9116.000000;0.969393
9115.000000;0.968819
9114.000000;0.968296
9113.000000;0.967955
9112.000000;0.967748
9111.000000;0.967568
9110.000000;0.967401
9109.000000;0.967264
9108.000000;0.967096
9107.000000;0.966839
9106.000000;0.966559
9105.000000;0.966357
9104.000000;0.966182
9103.000000;0.965881
9102.000000;0.965416
9101.000000;0.964951
9100.000000;0.964676
9099.000000;0.964644
9098.000000;0.964766
9097.000000;0.964885
9096.000000;0.964797
9095.000000;0.964330
9094.000000;0.963536
9093.000000;0.962784
9092.000000;0.962510
9091.000000;0.962805
9090.000000;0.963294
9089.000000;0.963468
9088.000000;0.963100
9087.000000;0.962335
9086.000000;0.961448
9085.000000;0.960651
9084.000000;0.960067
9083.000000;0.959774
9082.000000;0.959776
9081.000000;0.959999
9080.000000;0.960338
9079.000000;0.960674
9078.000000;0.960881
9077.000000;0.960916
9076.000000;0.960885
9075.000000;0.960900
9074.000000;0.960845
9073.000000;0.960441
9072.000000;0.959632
9071.000000;0.958743
9070.000000;0.958113
9069.000000;0.957706
9068.000000;0.957260
9067.000000;0.956739
9066.000000;0.956418
9065.000000;0.956504
9064.000000;0.956882
9063.000000;0.957264
9062.000000;0.957458
9061.000000;0.957408
9060.000000;0.957133
9059.000000;0.956746
9058.000000;0.956454
9057.000000;0.956428
9056.000000;0.956633
9055.000000;0.956820
9054.000000;0.956704
9053.000000;0.956191
