Criado como novo conjunto de dados;"e2410_daniel_v2.spp","17282.6 Secs"
cm-1;Abs
10000.000000;0.271684
9999.000000;0.270944
9998.000000;0.270296
9997.000000;0.269724
9996.000000;0.269250
9995.000000;0.268893
9994.000000;0.268590
9993.000000;0.268241
9992.000000;0.267821
9991.000000;0.267371
9990.000000;0.266889
9989.000000;0.266306
9988.000000;0.265592
9987.000000;0.264822
9986.000000;0.264115
9985.000000;0.263549
9984.000000;0.263136
9983.000000;0.262822
9982.000000;0.262480
9981.000000;0.261985
9980.000000;0.261331
9979.000000;0.260659
9978.000000;0.260115
9977.000000;0.259702
9976.000000;0.259311
9975.000000;0.258869
9974.000000;0.258405
9973.000000;0.257968
9972.000000;0.257534
9971.000000;0.257035
9970.000000;0.256431
9969.000000;0.255756
9968.000000;0.255095
9967.000000;0.254530
9966.000000;0.254090
9965.000000;0.253738
9964.000000;0.253416
9963.000000;0.253090
9962.000000;0.252741
9961.000000;0.252329
9960.000000;0.251816
9959.000000;0.251238
9958.000000;0.250702
9957.000000;0.250275
9956.000000;0.249901
9955.000000;0.249464
9954.000000;0.248929
9953.000000;0.248365
9952.000000;0.247854
9951.000000;0.247413
9950.000000;0.247024
9949.000000;0.246678
9948.000000;0.246345
9947.000000;0.245938
9946.000000;0.245380
9945.000000;0.244708
9944.000000;0.244067
9943.000000;0.243573
9942.000000;0.243204
9941.000000;0.242845
9940.000000;0.242408
9939.000000;0.241891
9938.000000;0.241340
9937.000000;0.240809
9936.000000;0.240344
9935.000000;0.239970
9934.000000;0.239657
9933.000000;0.239325
9932.000000;0.238907
9931.000000;0.238407
9930.000000;0.237885
9929.000000;0.237376
9928.000000;0.236834
9927.000000;0.236169
9926.000000;0.235362
9925.000000;0.234544
9924.000000;0.233923
9923.000000;0.233588
9922.000000;0.233397
9921.000000;0.233101
9920.000000;0.232602
9919.000000;0.232037
9918.000000;0.231598
9917.000000;0.231324
9916.000000;0.231109
9915.000000;0.230860
9914.000000;0.230572
9913.000000;0.230232
9912.000000;0.229766
9911.000000;0.229114
9910.000000;0.228316
9909.000000;0.227473
9908.000000;0.226649
9907.000000;0.225879
9906.000000;0.225250
9905.000000;0.224874
9904.000000;0.224749
9903.000000;0.224683
9902.000000;0.224433
9901.000000;0.223930
9900.000000;0.223314
9899.000000;0.222768
9898.000000;0.222351
9897.000000;0.221992
9896.000000;0.221578
9895.000000;0.221016
9894.000000;0.220269
9893.000000;0.219404
9892.000000;0.218602
9891.000000;0.218040
9890.000000;0.217736
9889.000000;0.217545
9888.000000;0.217302
9887.000000;0.216946
9886.000000;0.216488
9885.000000;0.215943
9884.000000;0.215358
9883.000000;0.214865
9882.000000;0.214593
9881.000000;0.214488
9880.000000;0.214294
9879.000000;0.213780
9878.000000;0.212986
9877.000000;0.212175
9876.000000;0.211554
9875.000000;0.211089
9874.000000;0.210632
9873.000000;0.210156
9872.000000;0.209788
9871.000000;0.209607
9870.000000;0.209492
9869.000000;0.209233
9868.000000;0.208761
9867.000000;0.208190
9866.000000;0.207652
9865.000000;0.207159
9864.000000;0.206661
9863.000000;0.206147
9862.000000;0.205642
9861.000000;0.205138
9860.000000;0.204613
9859.000000;0.204098
9858.000000;0.203659
9857.000000;0.203294
9856.000000;0.202916
9855.000000;0.202452
9854.000000;0.201930
9853.000000;0.201437
9852.000000;0.201027
9851.000000;0.200696
9850.000000;0.200402
9849.000000;0.200065
9848.000000;0.199580
9847.000000;0.198906
9846.000000;0.198127
9845.000000;0.197394
9844.000000;0.196793
9843.000000;0.196296
9842.000000;0.195820
9841.000000;0.195303
9840.000000;0.194732
9839.000000;0.194150
9838.000000;0.193648
9837.000000;0.193288
9836.000000;0.192998
9835.000000;0.192596
9834.000000;0.191983
9833.000000;0.191253
9832.000000;0.190599
9831.000000;0.190136
9830.000000;0.189858
9829.000000;0.189699
9828.000000;0.189548
9827.000000;0.189242
9826.000000;0.188666
9825.000000;0.187909
9824.000000;0.187208
9823.000000;0.186708
9822.000000;0.186346
9821.000000;0.185973
9820.000000;0.185529
9819.000000;0.185035
9818.000000;0.184508
9817.000000;0.183965
9816.000000;0.183458
9815.000000;0.183016
9814.000000;0.182599
9813.000000;0.182176
9812.000000;0.181804
9811.000000;0.181536
9810.000000;0.181297
9809.000000;0.180951
9808.000000;0.180488
9807.000000;0.180019
9806.000000;0.179596
9805.000000;0.179132
9804.000000;0.178556
9803.000000;0.177940
9802.000000;0.177417
9801.000000;0.177036
9800.000000;0.176767
9799.000000;0.176549
9798.000000;0.176283
9797.000000;0.175844
9796.000000;0.175185
9795.000000;0.174425
9794.000000;0.173767
9793.000000;0.173320
9792.000000;0.173042
9791.000000;0.172805
9790.000000;0.172482
9789.000000;0.172002
9788.000000;0.171389
9787.000000;0.170768
9786.000000;0.170268
9785.000000;0.169914
9784.000000;0.169629
9783.000000;0.169318
9782.000000;0.168929
9781.000000;0.168446
9780.000000;0.167872
9779.000000;0.167237
9778.000000;0.166587
9777.000000;0.165989
9776.000000;0.165515
9775.000000;0.165185
9774.000000;0.164916
9773.000000;0.164565
9772.000000;0.164084
9771.000000;0.163574
9770.000000;0.163146
9769.000000;0.162771
9768.000000;0.162340
9767.000000;0.161819
9766.000000;0.161274
9765.000000;0.160750
9764.000000;0.160219
9763.000000;0.159674
9762.000000;0.159165
9761.000000;0.158739
9760.000000;0.158374
9759.000000;0.158029
9758.000000;0.157685
9757.000000;0.157311
9756.000000;0.156866
9755.000000;0.156357
9754.000000;0.155850
9753.000000;0.155368
9752.000000;0.154844
9751.000000;0.154222
9750.000000;0.153583
9749.000000;0.153085
9748.000000;0.152788
9747.000000;0.152576
9746.000000;0.152284
9745.000000;0.151853
9744.000000;0.151350
9743.000000;0.150849
9742.000000;0.150352
9741.000000;0.149836
9740.000000;0.149346
9739.000000;0.148982
9738.000000;0.148760
9737.000000;0.148556
9736.000000;0.148220
9735.000000;0.147748
9734.000000;0.147262
9733.000000;0.146829
9732.000000;0.146365
9731.000000;0.145765
9730.000000;0.145083
9729.000000;0.144504
9728.000000;0.144142
9727.000000;0.143915
9726.000000;0.143638
9725.000000;0.143213
9724.000000;0.142702
9723.000000;0.142227
9722.000000;0.141831
9721.000000;0.141447
9720.000000;0.140998
9719.000000;0.140472
9718.000000;0.139915
9717.000000;0.139376
9716.000000;0.138889
9715.000000;0.138466
9714.000000;0.138081
9713.000000;0.137680
9712.000000;0.137235
9711.000000;0.136786
9710.000000;0.136380
9709.000000;0.136002
9708.000000;0.135617
9707.000000;0.135256
9706.000000;0.134980
9705.000000;0.134756
9704.000000;0.134453
9703.000000;0.133995
9702.000000;0.133461
9701.000000;0.132989
9700.000000;0.132626
9699.000000;0.132311
9698.000000;0.131960
9697.000000;0.131521
9696.000000;0.130991
9695.000000;0.130438
9694.000000;0.129972
9693.000000;0.129644
9692.000000;0.129385
9691.000000;0.129073
9690.000000;0.128672
9689.000000;0.128244
9688.000000;0.127828
9687.000000;0.127373
9686.000000;0.126807
9685.000000;0.126146
9684.000000;0.125510
9683.000000;0.125031
9682.000000;0.124727
9681.000000;0.124478
9680.000000;0.124135
9679.000000;0.123663
9678.000000;0.123158
9677.000000;0.122717
9676.000000;0.122325
9675.000000;0.121896
9674.000000;0.121390
9673.000000;0.120851
9672.000000;0.120342
9671.000000;0.119881
9670.000000;0.119444
9669.000000;0.118990
9668.000000;0.118493
9667.000000;0.117975
9666.000000;0.117515
9665.000000;0.117177
9664.000000;0.116937
9663.000000;0.116687
9662.000000;0.116340
9661.000000;0.115913
9660.000000;0.115485
9659.000000;0.115093
9658.000000;0.114679
9657.000000;0.114165
9656.000000;0.113562
9655.000000;0.113011
9654.000000;0.112670
9653.000000;0.112554
9652.000000;0.112504
9651.000000;0.112315
9650.000000;0.111897
9649.000000;0.111296
9648.000000;0.110612
9647.000000;0.109942
9646.000000;0.109374
9645.000000;0.108969
9644.000000;0.108712
9643.000000;0.108514
9642.000000;0.108270
9641.000000;0.107927
9640.000000;0.107480
9639.000000;0.106952
9638.000000;0.106388
9637.000000;0.105854
9636.000000;0.105403
9635.000000;0.105041
9634.000000;0.104730
9633.000000;0.104411
9632.000000;0.104030
9631.000000;0.103555
9630.000000;0.102998
9629.000000;0.102436
9628.000000;0.101971
9627.000000;0.101655
9626.000000;0.101430
9625.000000;0.101166
9624.000000;0.100772
9623.000000;0.100283
9622.000000;0.099820
9621.000000;0.099467
9620.000000;0.099195
9619.000000;0.098891
9618.000000;0.098465
9617.000000;0.097915
9616.000000;0.097343
9615.000000;0.096878
9614.000000;0.096576
9613.000000;0.096373
9612.000000;0.096135
9611.000000;0.095785
9610.000000;0.095344
9609.000000;0.094876
9608.000000;0.094423
9607.000000;0.093993
9606.000000;0.093577
9605.000000;0.093145
9604.000000;0.092664
9603.000000;0.092170
9602.000000;0.091758
9601.000000;0.091483
9600.000000;0.091258
9599.000000;0.090920
9598.000000;0.090385
9597.000000;0.089715
9596.000000;0.089062
9595.000000;0.088565
9594.000000;0.088273
9593.000000;0.088110
9592.000000;0.087923
9591.000000;0.087612
9590.000000;0.087209
9589.000000;0.086812
9588.000000;0.086445
9587.000000;0.086059
9586.000000;0.085647
9585.000000;0.085272
9584.000000;0.084961
9583.000000;0.084644
9582.000000;0.084240
9581.000000;0.083759
9580.000000;0.083261
9579.000000;0.082771
9578.000000;0.082275
9577.000000;0.081787
9576.000000;0.081353
9575.000000;0.080978
9574.000000;0.080599
9573.000000;0.080157
9572.000000;0.079663
9571.000000;0.079194
9570.000000;0.078823
9569.000000;0.078559
9568.000000;0.078339
9567.000000;0.078085
9566.000000;0.077775
9565.000000;0.077433
9564.000000;0.077059
9563.000000;0.076609
9562.000000;0.076074
9561.000000;0.075547
9560.000000;0.075140
9559.000000;0.074860
9558.000000;0.074605
9557.000000;0.074283
9556.000000;0.073887
9555.000000;0.073452
9554.000000;0.073004
9553.000000;0.072581
9552.000000;0.072256
9551.000000;0.072052
9550.000000;0.071864
9549.000000;0.071531
9548.000000;0.071012
9547.000000;0.070442
9546.000000;0.069997
9545.000000;0.069740
9544.000000;0.069607
9543.000000;0.069503
9542.000000;0.069352
9541.000000;0.069089
9540.000000;0.068670
9539.000000;0.068122
9538.000000;0.067541
9537.000000;0.067017
9536.000000;0.066560
9535.000000;0.066122
9534.000000;0.065661
9533.000000;0.065168
9532.000000;0.064672
9531.000000;0.064218
9530.000000;0.063846
9529.000000;0.063547
9528.000000;0.063270
9527.000000;0.062971
9526.000000;0.062657
9525.000000;0.062349
9524.000000;0.062029
9523.000000;0.061663
9522.000000;0.061250
9521.000000;0.060823
9520.000000;0.060403
9519.000000;0.060003
9518.000000;0.059636
9517.000000;0.059306
9516.000000;0.058973
9515.000000;0.058596
9514.000000;0.058204
9513.000000;0.057882
9512.000000;0.057660
9511.000000;0.057479
9510.000000;0.057255
9509.000000;0.056958
9508.000000;0.056595
9507.000000;0.056170
9506.000000;0.055692
9505.000000;0.055180
9504.000000;0.054645
9503.000000;0.054082
9502.000000;0.053507
9501.000000;0.052979
9500.000000;0.052546
9499.000000;0.052212
9498.000000;0.051956
9497.000000;0.051759
9496.000000;0.051584
9495.000000;0.051370
9494.000000;0.051097
9493.000000;0.050818
9492.000000;0.050584
9491.000000;0.050358
9490.000000;0.050043
9489.000000;0.049593
9488.000000;0.049033
9487.000000;0.048433
9486.000000;0.047876
9485.000000;0.047451
9484.000000;0.047183
9483.000000;0.046989
9482.000000;0.046749
9481.000000;0.046425
9480.000000;0.046059
9479.000000;0.045674
9478.000000;0.045263
9477.000000;0.044862
9476.000000;0.044538
9475.000000;0.044283
9474.000000;0.044003
9473.000000;0.043658
9472.000000;0.043328
9471.000000;0.043096
9470.000000;0.042903
9469.000000;0.042615
9468.000000;0.042170
9467.000000;0.041624
9466.000000;0.041068
9465.000000;0.040585
9464.000000;0.040238
9463.000000;0.040021
9462.000000;0.039823
9461.000000;0.039515
9460.000000;0.039089
9459.000000;0.038644
9458.000000;0.038242
9457.000000;0.037842
9456.000000;0.037405
9455.000000;0.036981
9454.000000;0.036642
9453.000000;0.036381
9452.000000;0.036114
9451.000000;0.035783
9450.000000;0.035396
9449.000000;0.034985
9448.000000;0.034575
9447.000000;0.034177
9446.000000;0.033795
9445.000000;0.033429
9444.000000;0.033095
9443.000000;0.032837
9442.000000;0.032685
9441.000000;0.032601
9440.000000;0.032496
9439.000000;0.032296
9438.000000;0.031993
9437.000000;0.031620
9436.000000;0.031205
9435.000000;0.030773
9434.000000;0.030362
9433.000000;0.029993
9432.000000;0.029631
9431.000000;0.029215
9430.000000;0.028746
9429.000000;0.028303
9428.000000;0.027947
9427.000000;0.027649
9426.000000;0.027341
9425.000000;0.027028
9424.000000;0.026779
9423.000000;0.026593
9422.000000;0.026368
9421.000000;0.026017
9420.000000;0.025588
9419.000000;0.025190
9418.000000;0.024865
9417.000000;0.024584
9416.000000;0.024338
9415.000000;0.024154
9414.000000;0.024007
9413.000000;0.023814
9412.000000;0.023524
9411.000000;0.023173
9410.000000;0.022816
9409.000000;0.022460
9408.000000;0.022099
9407.000000;0.021759
9406.000000;0.021444
9405.000000;0.021080
9404.000000;0.020585
9403.000000;0.020002
9402.000000;0.019494
9401.000000;0.019195
9400.000000;0.019083
9399.000000;0.019017
9398.000000;0.018866
9397.000000;0.018584
9396.000000;0.018203
9395.000000;0.017793
9394.000000;0.017411
9393.000000;0.017072
9392.000000;0.016746
9391.000000;0.016398
9390.000000;0.016009
9389.000000;0.015590
9388.000000;0.015169
9387.000000;0.014802
9386.000000;0.014542
9385.000000;0.014388
9384.000000;0.014254
9383.000000;0.014044
9382.000000;0.013739
9381.000000;0.013410
9380.000000;0.013116
9379.000000;0.012827
9378.000000;0.012474
9377.000000;0.012054
9376.000000;0.011650
9375.000000;0.011332
9374.000000;0.011089
9373.000000;0.010862
9372.000000;0.010627
9371.000000;0.010391
9370.000000;0.010139
9369.000000;0.009835
9368.000000;0.009481
9367.000000;0.009125
9366.000000;0.008788
9365.000000;0.008437
9364.000000;0.008042
9363.000000;0.007634
9362.000000;0.007266
9361.000000;0.006936
9360.000000;0.006610
9359.000000;0.006286
9358.000000;0.006001
9357.000000;0.005756
9356.000000;0.005503
9355.000000;0.005213
9354.000000;0.004910
9353.000000;0.004611
9352.000000;0.004275
9351.000000;0.003869
9350.000000;0.003442
9349.000000;0.003081
9348.000000;0.002810
9347.000000;0.002569
9346.000000;0.002305
9345.000000;0.002019
9344.000000;0.001722
9343.000000;0.001408
9342.000000;0.001090
9341.000000;0.000821
9340.000000;0.000620
9339.000000;0.000435
9338.000000;0.000209
9337.000000;-0.000037
9336.000000;-0.000258
9335.000000;-0.000498
9334.000000;-0.000851
9333.000000;-0.001291
9332.000000;-0.001642
9331.000000;-0.001773
9330.000000;-0.001774
9329.000000;-0.001883
9328.000000;-0.002247
9327.000000;-0.002819
9326.000000;-0.003433
9325.000000;-0.003933
9324.000000;-0.004249
9323.000000;-0.004409
9322.000000;-0.004524
9321.000000;-0.004697
9320.000000;-0.004935
9319.000000;-0.005174
9318.000000;-0.005387
9317.000000;-0.005638
9316.000000;-0.005999
9315.000000;-0.006457
9314.000000;-0.006916
9313.000000;-0.007278
9312.000000;-0.007505
9311.000000;-0.007641
9310.000000;-0.007794
9309.000000;-0.008053
9308.000000;-0.008413
9307.000000;-0.008779
9306.000000;-0.009076
9305.000000;-0.009328
9304.000000;-0.009599
9303.000000;-0.009900
9302.000000;-0.010184
9301.000000;-0.010420
9300.000000;-0.010635
9299.000000;-0.010874
9298.000000;-0.011146
9297.000000;-0.011422
9296.000000;-0.011670
9295.000000;-0.011892
9294.000000;-0.012129
9293.000000;-0.012414
9292.000000;-0.012732
9291.000000;-0.013016
9290.000000;-0.013231
9289.000000;-0.013424
9288.000000;-0.013676
9287.000000;-0.014010
9286.000000;-0.014368
9285.000000;-0.014691
9284.000000;-0.014977
9283.000000;-0.015262
9282.000000;-0.015563
9281.000000;-0.015874
9280.000000;-0.016187
9279.000000;-0.016500
9278.000000;-0.016791
9277.000000;-0.017020
9276.000000;-0.017175
9275.000000;-0.017316
9274.000000;-0.017531
9273.000000;-0.017848
9272.000000;-0.018204
9271.000000;-0.018526
9270.000000;-0.018802
9269.000000;-0.019062
9268.000000;-0.019294
9267.000000;-0.019455
9266.000000;-0.019570
9265.000000;-0.019750
9264.000000;-0.020078
9263.000000;-0.020496
9262.000000;-0.020876
9261.000000;-0.021164
9260.000000;-0.021417
9259.000000;-0.021709
9258.000000;-0.022065
9257.000000;-0.022469
9256.000000;-0.022885
9255.000000;-0.023257
9254.000000;-0.023531
9253.000000;-0.023708
9252.000000;-0.023860
9251.000000;-0.024063
9250.000000;-0.024334
9249.000000;-0.024629
9248.000000;-0.024886
9247.000000;-0.025058
9246.000000;-0.025142
9245.000000;-0.025203
9244.000000;-0.025338
9243.000000;-0.025591
9242.000000;-0.025911
9241.000000;-0.026208
9240.000000;-0.026432
9239.000000;-0.026594
9238.000000;-0.026741
9237.000000;-0.026928
9236.000000;-0.027203
9235.000000;-0.027571
9234.000000;-0.027978
9233.000000;-0.028351
9232.000000;-0.028653
9231.000000;-0.028901
9230.000000;-0.029126
9229.000000;-0.029340
9228.000000;-0.029542
9227.000000;-0.029734
9226.000000;-0.029928
9225.000000;-0.030133
9224.000000;-0.030344
9223.000000;-0.030554
9222.000000;-0.030773
9221.000000;-0.031018
9220.000000;-0.031291
9219.000000;-0.031564
9218.000000;-0.031820
9217.000000;-0.032084
9216.000000;-0.032387
9215.000000;-0.032703
9214.000000;-0.032965
9213.000000;-0.033140
9212.000000;-0.033280
9211.000000;-0.033472
9210.000000;-0.033765
9209.000000;-0.034148
9208.000000;-0.034557
9207.000000;-0.034892
9206.000000;-0.035067
9205.000000;-0.035106
9204.000000;-0.035143
9203.000000;-0.035299
9202.000000;-0.035557
9201.000000;-0.035812
9200.000000;-0.036030
9199.000000;-0.036278
9198.000000;-0.036603
9197.000000;-0.036946
9196.000000;-0.037234
9195.000000;-0.037495
9194.000000;-0.037814
9193.000000;-0.038192
9192.000000;-0.038528
9191.000000;-0.038744
9190.000000;-0.038887
9189.000000;-0.039060
9188.000000;-0.039299
9187.000000;-0.039555
9186.000000;-0.039778
9185.000000;-0.039970
9184.000000;-0.040149
9183.000000;-0.040300
9182.000000;-0.040386
9181.000000;-0.040416
9180.000000;-0.040469
9179.000000;-0.040639
9178.000000;-0.040957
9177.000000;-0.041355
9176.000000;-0.041725
9175.000000;-0.042004
9174.000000;-0.042197
9173.000000;-0.042334
9172.000000;-0.042427
9171.000000;-0.042487
9170.000000;-0.042561
9169.000000;-0.042718
9168.000000;-0.042980
9167.000000;-0.043280
9166.000000;-0.043522
9165.000000;-0.043679
9164.000000;-0.043821
9163.000000;-0.044052
9162.000000;-0.044416
9161.000000;-0.044865
9160.000000;-0.045295
9159.000000;-0.045630
9158.000000;-0.045868
9157.000000;-0.046063
9156.000000;-0.046277
9155.000000;-0.046540
9154.000000;-0.046841
9153.000000;-0.047128
9152.000000;-0.047337
9151.000000;-0.047440
9150.000000;-0.047491
9149.000000;-0.047595
9148.000000;-0.047815
9147.000000;-0.048127
9146.000000;-0.048469
9145.000000;-0.048802
9144.000000;-0.049100
9143.000000;-0.049306
9142.000000;-0.049372
9141.000000;-0.049346
9140.000000;-0.049361
9139.000000;-0.049520
9138.000000;-0.049817
9137.000000;-0.050179
9136.000000;-0.050549
9135.000000;-0.050893
9134.000000;-0.051176
9133.000000;-0.051366
9132.000000;-0.051481
9131.000000;-0.051581
9130.000000;-0.051716
9129.000000;-0.051881
9128.000000;-0.052034
9127.000000;-0.052155
9126.000000;-0.052271
9125.000000;-0.052444
9124.000000;-0.052715
9123.000000;-0.053045
9122.000000;-0.053344
9121.000000;-0.053560
9120.000000;-0.053744
9119.000000;-0.053991
9118.000000;-0.054333
9117.000000;-0.054691
9116.000000;-0.054958
9115.000000;-0.055092
9114.000000;-0.055133
9113.000000;-0.055159
9112.000000;-0.055230
9111.000000;-0.055356
9110.000000;-0.055521
9109.000000;-0.055712
9108.000000;-0.055945
9107.000000;-0.056231
9106.000000;-0.056533
9105.000000;-0.056789
9104.000000;-0.056975
9103.000000;-0.057136
9102.000000;-0.057334
9101.000000;-0.057584
9100.000000;-0.057857
9099.000000;-0.058112
9098.000000;-0.058296
9097.000000;-0.058354
9096.000000;-0.058293
9095.000000;-0.058240
9094.000000;-0.058371
9093.000000;-0.058745
9092.000000;-0.059229
9091.000000;-0.059624
9090.000000;-0.059842
9089.000000;-0.059959
9088.000000;-0.060099
9087.000000;-0.060311
9086.000000;-0.060555
9085.000000;-0.060761
9084.000000;-0.060894
9083.000000;-0.060974
9082.000000;-0.061069
9081.000000;-0.061232
9080.000000;-0.061449
9079.000000;-0.061645
9078.000000;-0.061784
9077.000000;-0.061924
9076.000000;-0.062161
9075.000000;-0.062512
9074.000000;-0.062882
9073.000000;-0.063167
9072.000000;-0.063348
9071.000000;-0.063481
9070.000000;-0.063622
9069.000000;-0.063791
9068.000000;-0.063983
9067.000000;-0.064172
9066.000000;-0.064315
