Criado como novo conjunto de dados;"e2410_daniel_v2.spp","75245.9 Secs"
cm-1;Abs
10000.000000;1.341796
9999.000000;1.340957
9998.000000;1.340119
9997.000000;1.339284
9996.000000;1.338450
9995.000000;1.337616
9994.000000;1.336788
9993.000000;1.335953
9992.000000;1.335135
9991.000000;1.334291
9990.000000;1.333505
9989.000000;1.332499
9988.000000;1.331339
9987.000000;1.330278
9986.000000;1.329465
9985.000000;1.329283
9984.000000;1.329385
9983.000000;1.328836
9982.000000;1.327566
9981.000000;1.326854
9980.000000;1.327547
9979.000000;1.328737
9978.000000;1.328947
9977.000000;1.327848
9976.000000;1.326061
9975.000000;1.324072
9974.000000;1.322210
9973.000000;1.320971
9972.000000;1.320485
9971.000000;1.320203
9970.000000;1.319757
9969.000000;1.319513
9968.000000;1.319738
9967.000000;1.319985
9966.000000;1.319925
9965.000000;1.319955
9964.000000;1.320253
9963.000000;1.320044
9962.000000;1.318749
9961.000000;1.317111
9960.000000;1.316271
9959.000000;1.316340
9958.000000;1.316623
9957.000000;1.316631
9956.000000;1.316175
9955.000000;1.315057
9954.000000;1.313459
9953.000000;1.312114
9952.000000;1.311399
9951.000000;1.310758
9950.000000;1.309589
9949.000000;1.308162
9948.000000;1.307182
9947.000000;1.306994
9946.000000;1.307601
9945.000000;1.308798
9944.000000;1.309877
9943.000000;1.309976
9942.000000;1.309180
9941.000000;1.308444
9940.000000;1.308048
9939.000000;1.307142
9938.000000;1.305278
9937.000000;1.303308
9936.000000;1.302152
9935.000000;1.301689
9934.000000;1.301509
9933.000000;1.301707
9932.000000;1.302201
9931.000000;1.302307
9930.000000;1.301773
9929.000000;1.301313
9928.000000;1.301355
9927.000000;1.301226
9926.000000;1.300367
9925.000000;1.299356
9924.000000;1.298877
9923.000000;1.298642
9922.000000;1.298182
9921.000000;1.297755
9920.000000;1.297552
9919.000000;1.297018
9918.000000;1.295950
9917.000000;1.295282
9916.000000;1.295699
9915.000000;1.296368
9914.000000;1.296176
9913.000000;1.295389
9912.000000;1.294886
9911.000000;1.294539
9910.000000;1.293623
9909.000000;1.292209
9908.000000;1.290924
9907.000000;1.289812
9906.000000;1.288581
9905.000000;1.287548
9904.000000;1.287261
9903.000000;1.287498
9902.000000;1.287547
9901.000000;1.287168
9900.000000;1.286505
9899.000000;1.285512
9898.000000;1.284277
9897.000000;1.283434
9896.000000;1.283453
9895.000000;1.283943
9894.000000;1.284331
9893.000000;1.284710
9892.000000;1.285237
9891.000000;1.285327
9890.000000;1.284428
9889.000000;1.283065
9888.000000;1.282137
9887.000000;1.281604
9886.000000;1.280787
9885.000000;1.279610
9884.000000;1.278636
9883.000000;1.278133
9882.000000;1.277863
9881.000000;1.277586
9880.000000;1.277155
9879.000000;1.276404
9878.000000;1.275524
9877.000000;1.275115
9876.000000;1.275307
9875.000000;1.275302
9874.000000;1.274398
9873.000000;1.272993
9872.000000;1.271910
9871.000000;1.271237
9870.000000;1.270515
9869.000000;1.269626
9868.000000;1.268815
9867.000000;1.268226
9866.000000;1.267998
9865.000000;1.268378
9864.000000;1.269178
9863.000000;1.269577
9862.000000;1.269054
9861.000000;1.268095
9860.000000;1.267445
9859.000000;1.267106
9858.000000;1.266597
9857.000000;1.265743
9856.000000;1.264709
9855.000000;1.263656
9854.000000;1.262819
9853.000000;1.262456
9852.000000;1.262397
9851.000000;1.262158
9850.000000;1.261771
9849.000000;1.261812
9848.000000;1.262247
9847.000000;1.262154
9846.000000;1.261052
9845.000000;1.259575
9844.000000;1.258278
9843.000000;1.256765
9842.000000;1.254710
9841.000000;1.252855
9840.000000;1.252101
9839.000000;1.252321
9838.000000;1.252822
9837.000000;1.253311
9836.000000;1.253662
9835.000000;1.253376
9834.000000;1.252220
9833.000000;1.250900
9832.000000;1.250281
9831.000000;1.250373
9830.000000;1.250690
9829.000000;1.251092
9828.000000;1.251616
9827.000000;1.251985
9826.000000;1.251956
9825.000000;1.251687
9824.000000;1.251174
9823.000000;1.249911
9822.000000;1.247732
9821.000000;1.245419
9820.000000;1.243826
9819.000000;1.242979
9818.000000;1.242589
9817.000000;1.242747
9816.000000;1.243412
9815.000000;1.243825
9814.000000;1.243275
9813.000000;1.242035
9812.000000;1.240913
9811.000000;1.240323
9810.000000;1.240304
9809.000000;1.240892
9808.000000;1.241826
9807.000000;1.242381
9806.000000;1.242139
9805.000000;1.241450
9804.000000;1.240649
9803.000000;1.239488
9802.000000;1.237923
9801.000000;1.236743
9800.000000;1.236620
9799.000000;1.237093
9798.000000;1.237194
9797.000000;1.236649
9796.000000;1.235849
9795.000000;1.235120
9794.000000;1.234662
9793.000000;1.234716
9792.000000;1.235154
9791.000000;1.235315
9790.000000;1.234773
9789.000000;1.233863
9788.000000;1.233031
9787.000000;1.232265
9786.000000;1.231577
9785.000000;1.231292
9784.000000;1.231336
9783.000000;1.230933
9782.000000;1.229625
9781.000000;1.227990
9780.000000;1.226726
9779.000000;1.225716
9778.000000;1.224635
9777.000000;1.223746
9776.000000;1.223366
9775.000000;1.223162
9774.000000;1.222712
9773.000000;1.222236
9772.000000;1.222120
9771.000000;1.222227
9770.000000;1.222220
9769.000000;1.222014
9768.000000;1.221407
9767.000000;1.220040
9766.000000;1.218300
9765.000000;1.217434
9764.000000;1.218030
9763.000000;1.219126
9762.000000;1.219525
9761.000000;1.219283
9760.000000;1.219021
9759.000000;1.218563
9758.000000;1.217351
9757.000000;1.215666
9756.000000;1.214341
9755.000000;1.213598
9754.000000;1.213094
9753.000000;1.212802
9752.000000;1.212942
9751.000000;1.213261
9750.000000;1.213219
9749.000000;1.212768
9748.000000;1.212325
9747.000000;1.212136
9746.000000;1.212179
9745.000000;1.212367
9744.000000;1.212379
9743.000000;1.211651
9742.000000;1.210077
9741.000000;1.208363
9740.000000;1.207240
9739.000000;1.206725
9738.000000;1.206525
9737.000000;1.206595
9736.000000;1.206759
9735.000000;1.206392
9734.000000;1.205192
9733.000000;1.203858
9732.000000;1.203343
9731.000000;1.203730
9730.000000;1.204362
9729.000000;1.204699
9728.000000;1.204529
9727.000000;1.203755
9726.000000;1.202571
9725.000000;1.201542
9724.000000;1.201054
9723.000000;1.200967
9722.000000;1.201073
9721.000000;1.201387
9720.000000;1.201656
9719.000000;1.201223
9718.000000;1.199893
9717.000000;1.198360
9716.000000;1.197266
9715.000000;1.196428
9714.000000;1.195509
9713.000000;1.194774
9712.000000;1.194541
9711.000000;1.194459
9710.000000;1.194014
9709.000000;1.193357
9708.000000;1.192991
9707.000000;1.192991
9706.000000;1.193024
9705.000000;1.192791
9704.000000;1.192069
9703.000000;1.190805
9702.000000;1.189521
9701.000000;1.189017
9700.000000;1.189237
9699.000000;1.189080
9698.000000;1.187844
9697.000000;1.186243
9696.000000;1.185417
9695.000000;1.185576
9694.000000;1.186189
9693.000000;1.186821
9692.000000;1.187077
9691.000000;1.186374
9690.000000;1.184645
9689.000000;1.182889
9688.000000;1.182222
9687.000000;1.182675
9686.000000;1.183431
9685.000000;1.183858
9684.000000;1.183768
9683.000000;1.183109
9682.000000;1.182097
9681.000000;1.181290
9680.000000;1.180919
9679.000000;1.180452
9678.000000;1.179398
9677.000000;1.178181
9676.000000;1.177598
9675.000000;1.177723
9674.000000;1.177896
9673.000000;1.177558
9672.000000;1.176639
9671.000000;1.175397
9670.000000;1.174317
9669.000000;1.173930
9668.000000;1.174288
9667.000000;1.174821
9666.000000;1.174971
9665.000000;1.174695
9664.000000;1.174181
9663.000000;1.173489
9662.000000;1.172763
9661.000000;1.172296
9660.000000;1.172071
9659.000000;1.171679
9658.000000;1.170974
9657.000000;1.170305
9656.000000;1.169896
9655.000000;1.169550
9654.000000;1.169164
9653.000000;1.168909
9652.000000;1.168605
9651.000000;1.167659
9650.000000;1.166032
9649.000000;1.164600
9648.000000;1.164119
9647.000000;1.164409
9646.000000;1.164888
9645.000000;1.165269
9644.000000;1.165344
9643.000000;1.164789
9642.000000;1.163702
9641.000000;1.162752
9640.000000;1.162364
9639.000000;1.162305
9638.000000;1.162366
9637.000000;1.162671
9636.000000;1.162950
9635.000000;1.162376
9634.000000;1.160787
9633.000000;1.159287
9632.000000;1.158905
9631.000000;1.159334
9630.000000;1.159627
9629.000000;1.159508
9628.000000;1.159262
9627.000000;1.158852
9626.000000;1.157987
9625.000000;1.156816
9624.000000;1.155887
9623.000000;1.155569
9622.000000;1.155891
9621.000000;1.156596
9620.000000;1.157036
9619.000000;1.156459
9618.000000;1.154761
9617.000000;1.152598
9616.000000;1.150540
9615.000000;1.148722
9614.000000;1.147479
9613.000000;1.147479
9612.000000;1.148746
9611.000000;1.150218
9610.000000;1.150859
9609.000000;1.150736
9608.000000;1.150474
9607.000000;1.150244
9606.000000;1.149840
9605.000000;1.149290
9604.000000;1.148795
9603.000000;1.148367
9602.000000;1.147918
9601.000000;1.147358
9600.000000;1.146432
9599.000000;1.144997
9598.000000;1.143639
9597.000000;1.143275
9596.000000;1.143854
9595.000000;1.144165
9594.000000;1.143306
9593.000000;1.141690
9592.000000;1.140191
9591.000000;1.139093
9590.000000;1.138352
9589.000000;1.138084
9588.000000;1.138195
9587.000000;1.138158
9586.000000;1.137792
9585.000000;1.137661
9584.000000;1.138154
9583.000000;1.138734
9582.000000;1.138672
9581.000000;1.137989
9580.000000;1.137106
9579.000000;1.136109
9578.000000;1.134989
9577.000000;1.134113
9576.000000;1.133848
9575.000000;1.134074
9574.000000;1.134486
9573.000000;1.134991
9572.000000;1.135463
9571.000000;1.135516
9570.000000;1.134944
9569.000000;1.133997
9568.000000;1.132972
9567.000000;1.131950
9566.000000;1.131102
9565.000000;1.130636
9564.000000;1.130258
9563.000000;1.129356
9562.000000;1.127963
9561.000000;1.126862
9560.000000;1.126510
9559.000000;1.126595
9558.000000;1.126856
9557.000000;1.127427
9556.000000;1.127984
9555.000000;1.127520
9554.000000;1.125619
9553.000000;1.123244
9552.000000;1.121697
9551.000000;1.121359
9550.000000;1.121825
9549.000000;1.122524
9548.000000;1.122806
9547.000000;1.122203
9546.000000;1.121110
9545.000000;1.120505
9544.000000;1.120628
9543.000000;1.120664
9542.000000;1.120039
9541.000000;1.119165
9540.000000;1.118513
9539.000000;1.117926
9538.000000;1.117358
9537.000000;1.117263
9536.000000;1.117638
9535.000000;1.117653
9534.000000;1.116930
9533.000000;1.116295
9532.000000;1.116518
9531.000000;1.117214
9530.000000;1.117692
9529.000000;1.118008
9528.000000;1.118345
9527.000000;1.118237
9526.000000;1.117387
9525.000000;1.116462
9524.000000;1.116076
9523.000000;1.115656
9522.000000;1.114341
9521.000000;1.112421
9520.000000;1.110875
9519.000000;1.109975
9518.000000;1.109346
9517.000000;1.108956
9516.000000;1.109063
9515.000000;1.109453
9514.000000;1.109583
9513.000000;1.109324
9512.000000;1.108896
9511.000000;1.108295
9510.000000;1.107405
9509.000000;1.106360
9508.000000;1.105312
9507.000000;1.104223
9506.000000;1.103343
9505.000000;1.103305
9504.000000;1.104140
9503.000000;1.104767
9502.000000;1.104211
9501.000000;1.102884
9500.000000;1.101928
9499.000000;1.101759
9498.000000;1.101969
9497.000000;1.102177
9496.000000;1.102210
9495.000000;1.101804
9494.000000;1.100927
9493.000000;1.100141
9492.000000;1.099975
9491.000000;1.100133
9490.000000;1.099913
9489.000000;1.099166
9488.000000;1.098283
9487.000000;1.097520
9486.000000;1.096876
9485.000000;1.096358
9484.000000;1.095912
9483.000000;1.095375
9482.000000;1.094874
9481.000000;1.094872
9480.000000;1.095418
9479.000000;1.095849
9478.000000;1.095685
9477.000000;1.095316
9476.000000;1.095266
9475.000000;1.095307
9474.000000;1.094905
9473.000000;1.094088
9472.000000;1.093239
9471.000000;1.092461
9470.000000;1.091805
9469.000000;1.091667
9468.000000;1.092256
9467.000000;1.092953
9466.000000;1.092860
9465.000000;1.091845
9464.000000;1.090525
9463.000000;1.089432
9462.000000;1.088689
9461.000000;1.088253
9460.000000;1.087999
9459.000000;1.087727
9458.000000;1.087440
9457.000000;1.087386
9456.000000;1.087548
9455.000000;1.087461
9454.000000;1.086857
9453.000000;1.086101
9452.000000;1.085657
9451.000000;1.085512
9450.000000;1.085424
9449.000000;1.085307
9448.000000;1.085060
9447.000000;1.084502
9446.000000;1.083762
9445.000000;1.083249
9444.000000;1.082937
9443.000000;1.082260
9442.000000;1.081053
9441.000000;1.079993
9440.000000;1.079680
9439.000000;1.079855
9438.000000;1.079952
9437.000000;1.079849
9436.000000;1.079608
9435.000000;1.079025
9434.000000;1.078012
9433.000000;1.076986
9432.000000;1.076392
9431.000000;1.076208
9430.000000;1.076276
9429.000000;1.076611
9428.000000;1.077018
9427.000000;1.076994
9426.000000;1.076442
9425.000000;1.075928
9424.000000;1.075799
9423.000000;1.075638
9422.000000;1.075068
9421.000000;1.074463
9420.000000;1.074311
9419.000000;1.074470
9418.000000;1.074589
9417.000000;1.074685
9416.000000;1.074722
9415.000000;1.074215
9414.000000;1.072945
9413.000000;1.071582
9412.000000;1.070908
9411.000000;1.070825
9410.000000;1.070733
9409.000000;1.070482
9408.000000;1.070331
9407.000000;1.070309
9406.000000;1.070197
9405.000000;1.069903
9404.000000;1.069377
9403.000000;1.068511
9402.000000;1.067492
9401.000000;1.066875
9400.000000;1.066874
9399.000000;1.067022
9398.000000;1.066921
9397.000000;1.066826
9396.000000;1.067036
9395.000000;1.067246
9394.000000;1.067068
9393.000000;1.066711
9392.000000;1.066545
9391.000000;1.066388
9390.000000;1.065840
9389.000000;1.064982
9388.000000;1.064225
9387.000000;1.063750
9386.000000;1.063502
9385.000000;1.063376
9384.000000;1.063055
9383.000000;1.062091
9382.000000;1.060611
9381.000000;1.059453
9380.000000;1.059149
9379.000000;1.059228
9378.000000;1.058970
9377.000000;1.058402
9376.000000;1.057998
9375.000000;1.057860
9374.000000;1.057778
9373.000000;1.057751
9372.000000;1.057921
9371.000000;1.058200
9370.000000;1.058402
9369.000000;1.058448
9368.000000;1.058169
9367.000000;1.057302
9366.000000;1.056035
9365.000000;1.055079
9364.000000;1.054817
9363.000000;1.054812
9362.000000;1.054514
9361.000000;1.053968
9360.000000;1.053445
9359.000000;1.052915
9358.000000;1.052373
9357.000000;1.052149
9356.000000;1.052349
9355.000000;1.052426
9354.000000;1.051850
9353.000000;1.050843
9352.000000;1.049952
9351.000000;1.049283
9350.000000;1.048652
9349.000000;1.048095
9348.000000;1.047728
9347.000000;1.047436
9346.000000;1.047102
9345.000000;1.046856
9344.000000;1.046740
9343.000000;1.046510
9342.000000;1.046129
9341.000000;1.045991
9340.000000;1.046276
9339.000000;1.046520
9338.000000;1.046247
9337.000000;1.045625
9336.000000;1.045074
9335.000000;1.044683
9334.000000;1.044411
9333.000000;1.044427
9332.000000;1.044758
9331.000000;1.044996
9330.000000;1.044777
9329.000000;1.044239
9328.000000;1.043649
9327.000000;1.042968
9326.000000;1.042132
9325.000000;1.041331
9324.000000;1.040698
9323.000000;1.040149
9322.000000;1.039773
9321.000000;1.039843
9320.000000;1.040182
9319.000000;1.040106
9318.000000;1.039393
9317.000000;1.038686
9316.000000;1.038496
9315.000000;1.038434
9314.000000;1.037946
9313.000000;1.037237
9312.000000;1.036873
9311.000000;1.036922
9310.000000;1.037043
9309.000000;1.037012
9308.000000;1.036719
9307.000000;1.036036
9306.000000;1.035169
9305.000000;1.034703
9304.000000;1.034849
9303.000000;1.035053
9302.000000;1.034749
9301.000000;1.034062
9300.000000;1.033426
9299.000000;1.032974
9298.000000;1.032719
9297.000000;1.032803
9296.000000;1.033123
9295.000000;1.033208
9294.000000;1.032863
9293.000000;1.032441
9292.000000;1.032109
9291.000000;1.031495
9290.000000;1.030493
9289.000000;1.029738
9288.000000;1.029730
9287.000000;1.030066
9286.000000;1.030117
9285.000000;1.029889
9284.000000;1.029627
9283.000000;1.029132
9282.000000;1.028208
9281.000000;1.027304
9280.000000;1.026995
9279.000000;1.027155
9278.000000;1.027238
9277.000000;1.027080
9276.000000;1.026824
9275.000000;1.026403
9274.000000;1.025673
9273.000000;1.024829
9272.000000;1.024182
9271.000000;1.023780
9270.000000;1.023575
9269.000000;1.023622
9268.000000;1.023757
9267.000000;1.023544
9266.000000;1.022940
9265.000000;1.022559
9264.000000;1.022817
9263.000000;1.023289
9262.000000;1.023368
9261.000000;1.023074
9260.000000;1.022694
9259.000000;1.022136
9258.000000;1.021254
9257.000000;1.020411
9256.000000;1.020061
9255.000000;1.020082
9254.000000;1.020030
9253.000000;1.019771
9252.000000;1.019407
9251.000000;1.018911
9250.000000;1.018309
9249.000000;1.017903
9248.000000;1.017864
9247.000000;1.017955
9246.000000;1.017973
9245.000000;1.018062
9244.000000;1.018206
9243.000000;1.017947
9242.000000;1.017072
9241.000000;1.016128
9240.000000;1.015722
9239.000000;1.015797
9238.000000;1.016032
9237.000000;1.016457
9236.000000;1.017060
9235.000000;1.017264
9234.000000;1.016509
9233.000000;1.015066
9232.000000;1.013696
9231.000000;1.012779
9230.000000;1.012279
9229.000000;1.012194
9228.000000;1.012485
9227.000000;1.012807
9226.000000;1.012825
9225.000000;1.012584
9224.000000;1.012212
9223.000000;1.011587
9222.000000;1.010684
9221.000000;1.009855
9220.000000;1.009350
9219.000000;1.008985
9218.000000;1.008657
9217.000000;1.008684
9216.000000;1.009141
9215.000000;1.009409
9214.000000;1.008972
9213.000000;1.008222
9212.000000;1.007813
9211.000000;1.007616
9210.000000;1.007018
9209.000000;1.005999
9208.000000;1.005210
9207.000000;1.005083
9206.000000;1.005408
9205.000000;1.005699
9204.000000;1.005576
9203.000000;1.004963
9202.000000;1.004252
9201.000000;1.004041
9200.000000;1.004395
9199.000000;1.004651
9198.000000;1.004280
9197.000000;1.003571
9196.000000;1.003110
9195.000000;1.002970
9194.000000;1.002860
9193.000000;1.002713
9192.000000;1.002642
9191.000000;1.002587
9190.000000;1.002431
9189.000000;1.002258
9188.000000;1.002144
9187.000000;1.001986
9186.000000;1.001777
9185.000000;1.001683
9184.000000;1.001600
9183.000000;1.001108
9182.000000;1.000196
9181.000000;0.999499
9180.000000;0.999420
9179.000000;0.999574
9178.000000;0.999523
9177.000000;0.999474
9176.000000;0.999683
9175.000000;0.999748
9174.000000;0.999208
9173.000000;0.998434
9172.000000;0.998167
9171.000000;0.998413
9170.000000;0.998520
9169.000000;0.998168
9168.000000;0.997688
9167.000000;0.997454
9166.000000;0.997503
9165.000000;0.997666
9164.000000;0.997666
9163.000000;0.997188
9162.000000;0.996215
9161.000000;0.995179
9160.000000;0.994532
9159.000000;0.994317
9158.000000;0.994358
9157.000000;0.994576
9156.000000;0.994837
9155.000000;0.994836
9154.000000;0.994442
9153.000000;0.993888
9152.000000;0.993370
9151.000000;0.992761
9150.000000;0.991947
9149.000000;0.991092
9148.000000;0.990344
9147.000000;0.989677
9146.000000;0.989239
9145.000000;0.989360
9144.000000;0.989937
9143.000000;0.990293
9142.000000;0.990003
9141.000000;0.989401
9140.000000;0.988969
9139.000000;0.988735
9138.000000;0.988622
9137.000000;0.988792
9136.000000;0.989190
9135.000000;0.989290
9134.000000;0.988789
9133.000000;0.988093
9132.000000;0.987642
9131.000000;0.987259
9130.000000;0.986650
9129.000000;0.986040
9128.000000;0.985747
9127.000000;0.985560
9126.000000;0.985130
9125.000000;0.984596
9124.000000;0.984269
9123.000000;0.984029
9122.000000;0.983592
9121.000000;0.983092
9120.000000;0.982881
9119.000000;0.982988
9118.000000;0.983214
9117.000000;0.983467
9116.000000;0.983636
9115.000000;0.983491
9114.000000;0.983089
9113.000000;0.982906
9112.000000;0.983160
9111.000000;0.983403
9110.000000;0.983211
9109.000000;0.982850
9108.000000;0.982772
9107.000000;0.982898
9106.000000;0.982900
9105.000000;0.982788
9104.000000;0.982677
9103.000000;0.982369
9102.000000;0.981722
9101.000000;0.981096
9100.000000;0.980859
9099.000000;0.980791
9098.000000;0.980471
9097.000000;0.979955
9096.000000;0.979550
9095.000000;0.979248
9094.000000;0.978912
9093.000000;0.978684
9092.000000;0.978673
9091.000000;0.978564
9090.000000;0.978044
9089.000000;0.977379
9088.000000;0.977029
9087.000000;0.976998
9086.000000;0.977036
9085.000000;0.977175
9084.000000;0.977503
9083.000000;0.977707
9082.000000;0.977374
9081.000000;0.976565
9080.000000;0.975643
9079.000000;0.974796
9078.000000;0.974149
9077.000000;0.974013
9076.000000;0.974473
9075.000000;0.974992
9074.000000;0.974956
9073.000000;0.974446
9072.000000;0.973957
9071.000000;0.973623
9070.000000;0.973205
9069.000000;0.972652
9068.000000;0.972151
9067.000000;0.971791
9066.000000;0.971615
9065.000000;0.971800
9064.000000;0.972351
9063.000000;0.972812
9062.000000;0.972733
9061.000000;0.972230
9060.000000;0.971693
9059.000000;0.971198
9058.000000;0.970655
9057.000000;0.970255
9056.000000;0.970230
9055.000000;0.970379
9054.000000;0.970329
9053.000000;0.970085
