Criado como novo conjunto de dados;"e2410_daniel_v2.spp","93966.7 Secs"
cm-1;Abs
10000.000000;0.102104
9999.000000;0.102828
9998.000000;0.103651
9997.000000;0.104507
9996.000000;0.105255
9995.000000;0.105774
9994.000000;0.106066
9993.000000;0.106272
9992.000000;0.106536
9991.000000;0.106894
9990.000000;0.107307
9989.000000;0.107790
9988.000000;0.108445
9987.000000;0.109300
9986.000000;0.110207
9985.000000;0.110946
9984.000000;0.111446
9983.000000;0.111828
9982.000000;0.112252
9981.000000;0.112771
9980.000000;0.113373
9979.000000;0.114080
9978.000000;0.114938
9977.000000;0.115909
9976.000000;0.116841
9975.000000;0.117575
9974.000000;0.118080
9973.000000;0.118475
9972.000000;0.118919
9971.000000;0.119482
9970.000000;0.120119
9969.000000;0.120750
9968.000000;0.121319
9967.000000;0.121809
9966.000000;0.122235
9965.000000;0.122641
9964.000000;0.123073
9963.000000;0.123527
9962.000000;0.123978
9961.000000;0.124458
9960.000000;0.125063
9959.000000;0.125802
9958.000000;0.126521
9957.000000;0.127062
9956.000000;0.127481
9955.000000;0.128001
9954.000000;0.128755
9953.000000;0.129625
9952.000000;0.130383
9951.000000;0.130919
9950.000000;0.131326
9949.000000;0.131803
9948.000000;0.132501
9947.000000;0.133395
9946.000000;0.134304
9945.000000;0.135060
9944.000000;0.135661
9943.000000;0.136214
9942.000000;0.136756
9941.000000;0.137244
9940.000000;0.137718
9939.000000;0.138324
9938.000000;0.139133
9937.000000;0.140013
9936.000000;0.140759
9935.000000;0.141297
9934.000000;0.141701
9933.000000;0.142077
9932.000000;0.142504
9931.000000;0.143059
9930.000000;0.143802
9929.000000;0.144731
9928.000000;0.145752
9927.000000;0.146694
9926.000000;0.147402
9925.000000;0.147875
9924.000000;0.148334
9923.000000;0.149032
9922.000000;0.149983
9921.000000;0.150952
9920.000000;0.151749
9919.000000;0.152416
9918.000000;0.153063
9917.000000;0.153669
9916.000000;0.154162
9915.000000;0.154622
9914.000000;0.155215
9913.000000;0.155980
9912.000000;0.156795
9911.000000;0.157553
9910.000000;0.158249
9909.000000;0.158887
9908.000000;0.159431
9907.000000;0.159898
9906.000000;0.160400
9905.000000;0.161025
9904.000000;0.161725
9903.000000;0.162370
9902.000000;0.162892
9901.000000;0.163363
9900.000000;0.163952
9899.000000;0.164789
9898.000000;0.165824
9897.000000;0.166815
9896.000000;0.167519
9895.000000;0.167899
9894.000000;0.168133
9893.000000;0.168427
9892.000000;0.168881
9891.000000;0.169505
9890.000000;0.170275
9889.000000;0.171145
9888.000000;0.172038
9887.000000;0.172881
9886.000000;0.173659
9885.000000;0.174420
9884.000000;0.175231
9883.000000;0.176099
9882.000000;0.176929
9881.000000;0.177593
9880.000000;0.178059
9879.000000;0.178451
9878.000000;0.178931
9877.000000;0.179568
9876.000000;0.180332
9875.000000;0.181158
9874.000000;0.181943
9873.000000;0.182543
9872.000000;0.182887
9871.000000;0.183121
9870.000000;0.183543
9869.000000;0.184341
9868.000000;0.185434
9867.000000;0.186580
9866.000000;0.187617
9865.000000;0.188565
9864.000000;0.189533
9863.000000;0.190546
9862.000000;0.191499
9861.000000;0.192247
9860.000000;0.192765
9859.000000;0.193192
9858.000000;0.193708
9857.000000;0.194362
9856.000000;0.195058
9855.000000;0.195667
9854.000000;0.196161
9853.000000;0.196633
9852.000000;0.197217
9851.000000;0.197973
9850.000000;0.198831
9849.000000;0.199658
9848.000000;0.200398
9847.000000;0.201112
9846.000000;0.201879
9845.000000;0.202707
9844.000000;0.203566
9843.000000;0.204461
9842.000000;0.205404
9841.000000;0.206360
9840.000000;0.207260
9839.000000;0.208069
9838.000000;0.208789
9837.000000;0.209432
9836.000000;0.210028
9835.000000;0.210664
9834.000000;0.211411
9833.000000;0.212222
9832.000000;0.212952
9831.000000;0.213529
9830.000000;0.214033
9829.000000;0.214608
9828.000000;0.215308
9827.000000;0.216087
9826.000000;0.216922
9825.000000;0.217863
9824.000000;0.218927
9823.000000;0.219968
9822.000000;0.220762
9821.000000;0.221269
9820.000000;0.221730
9819.000000;0.222402
9818.000000;0.223246
9817.000000;0.223987
9816.000000;0.224477
9815.000000;0.224857
9814.000000;0.225353
9813.000000;0.226077
9812.000000;0.227063
9811.000000;0.228299
9810.000000;0.229596
9809.000000;0.230623
9808.000000;0.231251
9807.000000;0.231760
9806.000000;0.232488
9805.000000;0.233368
9804.000000;0.234047
9803.000000;0.234414
9802.000000;0.234772
9801.000000;0.235444
9800.000000;0.236429
9799.000000;0.237527
9798.000000;0.238608
9797.000000;0.239626
9796.000000;0.240495
9795.000000;0.241118
9794.000000;0.241501
9793.000000;0.241769
9792.000000;0.242108
9791.000000;0.242710
9790.000000;0.243666
9789.000000;0.244834
9788.000000;0.245896
9787.000000;0.246660
9786.000000;0.247256
9785.000000;0.247978
9784.000000;0.248943
9783.000000;0.249982
9782.000000;0.250805
9781.000000;0.251249
9780.000000;0.251399
9779.000000;0.251545
9778.000000;0.251983
9777.000000;0.252782
9776.000000;0.253771
9775.000000;0.254751
9774.000000;0.255698
9773.000000;0.256700
9772.000000;0.257776
9771.000000;0.258836
9770.000000;0.259788
9769.000000;0.260601
9768.000000;0.261294
9767.000000;0.261928
9766.000000;0.262620
9765.000000;0.263494
9764.000000;0.264565
9763.000000;0.265708
9762.000000;0.266754
9761.000000;0.267613
9760.000000;0.268336
9759.000000;0.269080
9758.000000;0.269967
9757.000000;0.270931
9756.000000;0.271719
9755.000000;0.272139
9754.000000;0.272292
9753.000000;0.272492
9752.000000;0.272966
9751.000000;0.273694
9750.000000;0.274532
9749.000000;0.275390
9748.000000;0.276229
9747.000000;0.276987
9746.000000;0.277632
9745.000000;0.278270
9744.000000;0.279089
9743.000000;0.280169
9742.000000;0.281390
9741.000000;0.282572
9740.000000;0.283637
9739.000000;0.284620
9738.000000;0.285547
9737.000000;0.286381
9736.000000;0.287100
9735.000000;0.287788
9734.000000;0.288604
9733.000000;0.289619
9732.000000;0.290682
9731.000000;0.291491
9730.000000;0.291872
9729.000000;0.291999
9728.000000;0.292290
9727.000000;0.293049
9726.000000;0.294198
9725.000000;0.295374
9724.000000;0.296282
9723.000000;0.296935
9722.000000;0.297579
9721.000000;0.298400
9720.000000;0.299334
9719.000000;0.300156
9718.000000;0.300787
9717.000000;0.301432
9716.000000;0.302365
9715.000000;0.303596
9714.000000;0.304863
9713.000000;0.305950
9712.000000;0.306883
9711.000000;0.307756
9710.000000;0.308530
9709.000000;0.309125
9708.000000;0.309626
9707.000000;0.310200
9706.000000;0.310860
9705.000000;0.311472
9704.000000;0.311996
9703.000000;0.312590
9702.000000;0.313419
9701.000000;0.314470
9700.000000;0.315591
9699.000000;0.316598
9698.000000;0.317377
9697.000000;0.317975
9696.000000;0.318638
9695.000000;0.319628
9694.000000;0.320945
9693.000000;0.322326
9692.000000;0.323503
9691.000000;0.324385
9690.000000;0.325000
9689.000000;0.325409
9688.000000;0.325724
9687.000000;0.326068
9686.000000;0.326479
9685.000000;0.326976
9684.000000;0.327715
9683.000000;0.328880
9682.000000;0.330333
9681.000000;0.331614
9680.000000;0.332429
9679.000000;0.332988
9678.000000;0.333682
9677.000000;0.334612
9676.000000;0.335621
9675.000000;0.336624
9674.000000;0.337633
9673.000000;0.338555
9672.000000;0.339212
9671.000000;0.339596
9670.000000;0.339891
9669.000000;0.340246
9668.000000;0.340674
9667.000000;0.341167
9666.000000;0.341746
9665.000000;0.342400
9664.000000;0.343135
9663.000000;0.344060
9662.000000;0.345247
9661.000000;0.346487
9660.000000;0.347386
9659.000000;0.347784
9658.000000;0.347963
9657.000000;0.348352
9656.000000;0.349128
9655.000000;0.350124
9654.000000;0.351057
9653.000000;0.351805
9652.000000;0.352537
9651.000000;0.353545
9650.000000;0.354873
9649.000000;0.356177
9648.000000;0.357084
9647.000000;0.357663
9646.000000;0.358346
9645.000000;0.359363
9644.000000;0.360433
9643.000000;0.361117
9642.000000;0.361340
9641.000000;0.361465
9640.000000;0.361933
9639.000000;0.362919
9638.000000;0.364268
9637.000000;0.365640
9636.000000;0.366752
9635.000000;0.367534
9634.000000;0.368098
9633.000000;0.368604
9632.000000;0.369178
9631.000000;0.369905
9630.000000;0.370751
9629.000000;0.371521
9628.000000;0.372025
9627.000000;0.372337
9626.000000;0.372753
9625.000000;0.373480
9624.000000;0.374460
9623.000000;0.375519
9622.000000;0.376551
9621.000000;0.377489
9620.000000;0.378255
9619.000000;0.378861
9618.000000;0.379479
9617.000000;0.380257
9616.000000;0.381107
9615.000000;0.381754
9614.000000;0.382021
9613.000000;0.382014
9612.000000;0.382013
9611.000000;0.382240
9610.000000;0.382722
9609.000000;0.383369
9608.000000;0.384142
9607.000000;0.385127
9606.000000;0.386409
9605.000000;0.387899
9604.000000;0.389362
9603.000000;0.390604
9602.000000;0.391616
9601.000000;0.392488
9600.000000;0.393239
9599.000000;0.393745
9598.000000;0.393872
9597.000000;0.393709
9596.000000;0.393652
9595.000000;0.394097
9594.000000;0.394988
9593.000000;0.395792
9592.000000;0.396105
9591.000000;0.396189
9590.000000;0.396697
9589.000000;0.397865
9588.000000;0.399209
9587.000000;0.400081
9586.000000;0.400363
9585.000000;0.400466
9584.000000;0.400819
9583.000000;0.401520
9582.000000;0.402416
9581.000000;0.403318
9580.000000;0.404133
9579.000000;0.404857
9578.000000;0.405484
9577.000000;0.405900
9576.000000;0.405962
9575.000000;0.405739
9574.000000;0.405636
9573.000000;0.406145
9572.000000;0.407428
9571.000000;0.409144
9570.000000;0.410697
9569.000000;0.411666
9568.000000;0.412060
9567.000000;0.412238
9566.000000;0.412610
9565.000000;0.413365
9564.000000;0.414387
9563.000000;0.415345
9562.000000;0.415916
9561.000000;0.416056
9560.000000;0.416089
9559.000000;0.416411
9558.000000;0.417016
9557.000000;0.417498
9556.000000;0.417629
9555.000000;0.417765
9554.000000;0.418435
9553.000000;0.419610
9552.000000;0.420682
9551.000000;0.421193
9550.000000;0.421307
9549.000000;0.421479
9548.000000;0.421926
9547.000000;0.422579
9546.000000;0.423311
9545.000000;0.423994
9544.000000;0.424495
9543.000000;0.424810
9542.000000;0.425101
9541.000000;0.425448
9540.000000;0.425677
9539.000000;0.425626
9538.000000;0.425498
9537.000000;0.425714
9536.000000;0.426443
9535.000000;0.427465
9534.000000;0.428490
9533.000000;0.429422
9532.000000;0.430264
9531.000000;0.430961
9530.000000;0.431447
9529.000000;0.431735
9528.000000;0.431897
9527.000000;0.432009
9526.000000;0.432177
9525.000000;0.432518
9524.000000;0.433040
9523.000000;0.433581
9522.000000;0.433933
9521.000000;0.434003
9520.000000;0.433882
9519.000000;0.433792
9518.000000;0.433966
9517.000000;0.434457
9516.000000;0.435058
9515.000000;0.435503
9514.000000;0.435797
9513.000000;0.436249
9512.000000;0.437100
9511.000000;0.438208
9510.000000;0.439181
9509.000000;0.439787
9508.000000;0.440125
9507.000000;0.440440
9506.000000;0.440895
9505.000000;0.441503
9504.000000;0.442121
9503.000000;0.442483
9502.000000;0.442383
9501.000000;0.441935
9500.000000;0.441580
9499.000000;0.441711
9498.000000;0.442306
9497.000000;0.443004
9496.000000;0.443477
9495.000000;0.443654
9494.000000;0.443650
9493.000000;0.443632
9492.000000;0.443762
9491.000000;0.444094
9490.000000;0.444477
9489.000000;0.444690
9488.000000;0.444746
9487.000000;0.444964
9486.000000;0.445608
9485.000000;0.446540
9484.000000;0.447330
9483.000000;0.447663
9482.000000;0.447570
9481.000000;0.447322
9480.000000;0.447188
9479.000000;0.447266
9478.000000;0.447427
9477.000000;0.447469
9476.000000;0.447388
9475.000000;0.447438
9474.000000;0.447783
9473.000000;0.448174
9472.000000;0.448169
9471.000000;0.447677
9470.000000;0.447120
9469.000000;0.446969
9468.000000;0.447276
9467.000000;0.447712
9466.000000;0.447966
9465.000000;0.447985
9464.000000;0.447937
9463.000000;0.448034
9462.000000;0.448378
9461.000000;0.448894
9460.000000;0.449419
9459.000000;0.449863
9458.000000;0.450226
9457.000000;0.450444
9456.000000;0.450353
9455.000000;0.449912
9454.000000;0.449372
9453.000000;0.449098
9452.000000;0.449218
9451.000000;0.449563
9450.000000;0.449927
9449.000000;0.450281
9448.000000;0.450696
9447.000000;0.451144
9446.000000;0.451442
9445.000000;0.451409
9444.000000;0.451045
9443.000000;0.450577
9442.000000;0.450280
9441.000000;0.450190
9440.000000;0.450008
9439.000000;0.449402
9438.000000;0.448459
9437.000000;0.447721
9436.000000;0.447677
9435.000000;0.448270
9434.000000;0.448994
9433.000000;0.449429
9432.000000;0.449564
9431.000000;0.449615
9430.000000;0.449706
9429.000000;0.449818
9428.000000;0.449904
9427.000000;0.449924
9426.000000;0.449844
9425.000000;0.449701
9424.000000;0.449615
9423.000000;0.449657
9422.000000;0.449754
9421.000000;0.449819
9420.000000;0.449846
9419.000000;0.449772
9418.000000;0.449371
9417.000000;0.448520
9416.000000;0.447490
9415.000000;0.446718
9414.000000;0.446303
9413.000000;0.445981
9412.000000;0.445595
9411.000000;0.445320
9410.000000;0.445353
9409.000000;0.445634
9408.000000;0.446007
9407.000000;0.446430
9406.000000;0.446807
9405.000000;0.446845
9404.000000;0.446328
9403.000000;0.445457
9402.000000;0.444703
9401.000000;0.444393
9400.000000;0.444544
9399.000000;0.444953
9398.000000;0.445290
9397.000000;0.445231
9396.000000;0.444760
9395.000000;0.444280
9394.000000;0.444188
9393.000000;0.444372
9392.000000;0.444324
9391.000000;0.443762
9390.000000;0.442947
9389.000000;0.442321
9388.000000;0.442010
9387.000000;0.441756
9386.000000;0.441275
9385.000000;0.440610
9384.000000;0.440147
9383.000000;0.440231
9382.000000;0.440764
9381.000000;0.441292
9380.000000;0.441496
9379.000000;0.441430
9378.000000;0.441206
9377.000000;0.440720
9376.000000;0.439926
9375.000000;0.439160
9374.000000;0.438864
9373.000000;0.439036
9372.000000;0.439239
9371.000000;0.439119
9370.000000;0.438690
9369.000000;0.438127
9368.000000;0.437570
9367.000000;0.437129
9366.000000;0.436798
9365.000000;0.436350
9364.000000;0.435602
9363.000000;0.434818
9362.000000;0.434535
9361.000000;0.434888
9360.000000;0.435357
9359.000000;0.435318
9358.000000;0.434659
9357.000000;0.433742
9356.000000;0.432961
9355.000000;0.432493
9354.000000;0.432308
9353.000000;0.432233
9352.000000;0.432060
9351.000000;0.431683
9350.000000;0.431111
9349.000000;0.430370
9348.000000;0.429555
9347.000000;0.428927
9346.000000;0.428722
9345.000000;0.428806
9344.000000;0.428731
9343.000000;0.428249
9342.000000;0.427561
9341.000000;0.426976
9340.000000;0.426560
9339.000000;0.426226
9338.000000;0.425957
9337.000000;0.425752
9336.000000;0.425507
9335.000000;0.425135
9334.000000;0.424678
9333.000000;0.424168
9332.000000;0.423519
9331.000000;0.422716
9330.000000;0.421994
9329.000000;0.421644
9328.000000;0.421700
9327.000000;0.421950
9326.000000;0.422152
9325.000000;0.422118
9324.000000;0.421688
9323.000000;0.420807
9322.000000;0.419622
9321.000000;0.418420
9320.000000;0.417498
9319.000000;0.417089
9318.000000;0.417233
9317.000000;0.417657
9316.000000;0.417881
9315.000000;0.417596
9314.000000;0.416860
9313.000000;0.415877
9312.000000;0.414797
9311.000000;0.413812
9310.000000;0.413224
9309.000000;0.413139
9308.000000;0.413260
9307.000000;0.413185
9306.000000;0.412852
9305.000000;0.412431
9304.000000;0.411902
9303.000000;0.411057
9302.000000;0.409949
9301.000000;0.409007
9300.000000;0.408553
9299.000000;0.408374
9298.000000;0.407924
9297.000000;0.406928
9296.000000;0.405708
9295.000000;0.404908
9294.000000;0.404900
9293.000000;0.405400
9292.000000;0.405690
9291.000000;0.405274
9290.000000;0.404285
9289.000000;0.403202
9288.000000;0.402303
9287.000000;0.401525
9286.000000;0.400779
9285.000000;0.400148
9284.000000;0.399756
9283.000000;0.399605
9282.000000;0.399623
9281.000000;0.399755
9280.000000;0.399924
9279.000000;0.399944
9278.000000;0.399596
9277.000000;0.398812
9276.000000;0.397785
9275.000000;0.396866
9274.000000;0.396313
9273.000000;0.396113
9272.000000;0.396036
9271.000000;0.395876
9270.000000;0.395569
9269.000000;0.395081
9268.000000;0.394318
9267.000000;0.393267
9266.000000;0.392131
9265.000000;0.391210
9264.000000;0.390631
9263.000000;0.390255
9262.000000;0.389837
9261.000000;0.389229
9260.000000;0.388494
9259.000000;0.387897
9258.000000;0.387716
9257.000000;0.387949
9256.000000;0.388247
9255.000000;0.388210
9254.000000;0.387697
9253.000000;0.386807
9252.000000;0.385651
9251.000000;0.384340
9250.000000;0.383128
9249.000000;0.382354
9248.000000;0.382145
9247.000000;0.382287
9246.000000;0.382432
9245.000000;0.382348
9244.000000;0.381932
9243.000000;0.381148
9242.000000;0.380096
9241.000000;0.379104
9240.000000;0.378577
9239.000000;0.378648
9238.000000;0.378979
9237.000000;0.378982
9236.000000;0.378327
9235.000000;0.377213
9234.000000;0.376116
9233.000000;0.375306
9232.000000;0.374713
9231.000000;0.374213
9230.000000;0.373833
9229.000000;0.373576
9228.000000;0.373240
9227.000000;0.372611
9226.000000;0.371768
9225.000000;0.370970
9224.000000;0.370257
9223.000000;0.369399
9222.000000;0.368292
9221.000000;0.367232
9220.000000;0.366646
9219.000000;0.366658
9218.000000;0.366998
9217.000000;0.367286
9216.000000;0.367282
9215.000000;0.366915
9214.000000;0.366200
9213.000000;0.365195
9212.000000;0.364039
9211.000000;0.362991
9210.000000;0.362367
9209.000000;0.362314
9208.000000;0.362619
9207.000000;0.362804
9206.000000;0.362490
9205.000000;0.361685
9204.000000;0.360703
9203.000000;0.359842
9202.000000;0.359186
9201.000000;0.358658
9200.000000;0.358170
9199.000000;0.357666
9198.000000;0.357081
9197.000000;0.356376
9196.000000;0.355640
9195.000000;0.355126
9194.000000;0.355051
9193.000000;0.355337
9192.000000;0.355569
9191.000000;0.355285
9190.000000;0.354348
9189.000000;0.353055
9188.000000;0.351910
9187.000000;0.351263
9186.000000;0.351110
9185.000000;0.351160
9184.000000;0.351105
9183.000000;0.350824
9182.000000;0.350362
9181.000000;0.349760
9180.000000;0.348987
9179.000000;0.348038
9178.000000;0.347009
9177.000000;0.346031
9176.000000;0.345202
9175.000000;0.344590
9174.000000;0.344240
9173.000000;0.344092
9172.000000;0.343931
9171.000000;0.343537
9170.000000;0.342875
9169.000000;0.342095
9168.000000;0.341335
9167.000000;0.340610
9166.000000;0.339901
9165.000000;0.339286
9164.000000;0.338913
9163.000000;0.338821
9162.000000;0.338824
9161.000000;0.338632
9160.000000;0.338111
9159.000000;0.337391
9158.000000;0.336690
9157.000000;0.336086
9156.000000;0.335542
9155.000000;0.335069
9154.000000;0.334725
9153.000000;0.334413
9152.000000;0.333867
9151.000000;0.332966
9150.000000;0.331976
9149.000000;0.331350
9148.000000;0.331282
9147.000000;0.331553
9146.000000;0.331772
9145.000000;0.331686
9144.000000;0.331293
9143.000000;0.330757
9142.000000;0.330236
9141.000000;0.329740
9140.000000;0.329160
9139.000000;0.328448
9138.000000;0.327727
9137.000000;0.327129
9136.000000;0.326572
9135.000000;0.325819
9134.000000;0.324795
9133.000000;0.323753
9132.000000;0.323056
9131.000000;0.322831
9130.000000;0.322853
9129.000000;0.322764
9128.000000;0.322364
9127.000000;0.321729
9126.000000;0.321039
9125.000000;0.320353
9124.000000;0.319598
9123.000000;0.318802
9122.000000;0.318200
9121.000000;0.318008
9120.000000;0.318100
9119.000000;0.318074
9118.000000;0.317657
9117.000000;0.316965
9116.000000;0.316307
9115.000000;0.315829
9114.000000;0.315425
9113.000000;0.314933
9112.000000;0.314325
9111.000000;0.313686
9110.000000;0.313104
9109.000000;0.312599
9108.000000;0.312140
9107.000000;0.311702
9106.000000;0.311296
9105.000000;0.310953
9104.000000;0.310673
9103.000000;0.310427
9102.000000;0.310179
9101.000000;0.309883
9100.000000;0.309456
9099.000000;0.308825
9098.000000;0.308064
9097.000000;0.307423
9096.000000;0.307111
9095.000000;0.307036
9094.000000;0.306830
9093.000000;0.306219
9092.000000;0.305328
9091.000000;0.304563
9090.000000;0.304174
9089.000000;0.304010
9088.000000;0.303745
9087.000000;0.303279
9086.000000;0.302808
9085.000000;0.302529
9084.000000;0.302377
9083.000000;0.302126
9082.000000;0.301670
9081.000000;0.301100
9080.000000;0.300527
9079.000000;0.299937
9078.000000;0.299279
9077.000000;0.298613
9076.000000;0.298077
9075.000000;0.297734
9074.000000;0.297515
9073.000000;0.297321
9072.000000;0.297109
9071.000000;0.296863
9070.000000;0.296526
9069.000000;0.296024
9068.000000;0.295336
9067.000000;0.294504
9066.000000;0.293623
9065.000000;0.292845
9064.000000;0.292349
9063.000000;0.292188
9062.000000;0.292166
9061.000000;0.291942
9060.000000;0.291352
9059.000000;0.290590
9058.000000;0.290022
9057.000000;0.289818
9056.000000;0.289789
9055.000000;0.289559
9054.000000;0.288893
9053.000000;0.287897
