Criado como novo conjunto de dados;"e2410_daniel_v2.spp","91626.9 Secs"
cm-1;Abs
10000.000000;0.085717
9999.000000;0.086369
9998.000000;0.087074
9997.000000;0.087761
9996.000000;0.088379
9995.000000;0.088921
9994.000000;0.089410
9993.000000;0.089850
9992.000000;0.090250
9991.000000;0.090669
9990.000000;0.091194
9989.000000;0.091832
9988.000000;0.092489
9987.000000;0.093078
9986.000000;0.093629
9985.000000;0.094238
9984.000000;0.094930
9983.000000;0.095594
9982.000000;0.096078
9981.000000;0.096351
9980.000000;0.096582
9979.000000;0.097033
9978.000000;0.097846
9977.000000;0.098920
9976.000000;0.099990
9975.000000;0.100823
9974.000000;0.101342
9973.000000;0.101617
9972.000000;0.101811
9971.000000;0.102113
9970.000000;0.102635
9969.000000;0.103333
9968.000000;0.104065
9967.000000;0.104709
9966.000000;0.105220
9965.000000;0.105598
9964.000000;0.105878
9963.000000;0.106150
9962.000000;0.106530
9961.000000;0.107092
9960.000000;0.107862
9959.000000;0.108842
9958.000000;0.109943
9957.000000;0.110923
9956.000000;0.111536
9955.000000;0.111796
9954.000000;0.111996
9953.000000;0.112399
9952.000000;0.113000
9951.000000;0.113654
9950.000000;0.114311
9949.000000;0.115029
9948.000000;0.115821
9947.000000;0.116595
9946.000000;0.117260
9945.000000;0.117797
9944.000000;0.118246
9943.000000;0.118696
9942.000000;0.119245
9941.000000;0.119903
9940.000000;0.120547
9939.000000;0.121062
9938.000000;0.121519
9937.000000;0.122128
9936.000000;0.123002
9935.000000;0.124031
9934.000000;0.124984
9933.000000;0.125706
9932.000000;0.126194
9931.000000;0.126553
9930.000000;0.126911
9929.000000;0.127356
9928.000000;0.127903
9927.000000;0.128520
9926.000000;0.129162
9925.000000;0.129773
9924.000000;0.130290
9923.000000;0.130706
9922.000000;0.131109
9921.000000;0.131628
9920.000000;0.132315
9919.000000;0.133094
9918.000000;0.133825
9917.000000;0.134408
9916.000000;0.134859
9915.000000;0.135314
9914.000000;0.135921
9913.000000;0.136699
9912.000000;0.137513
9911.000000;0.138235
9910.000000;0.138875
9909.000000;0.139530
9908.000000;0.140241
9907.000000;0.140973
9906.000000;0.141718
9905.000000;0.142507
9904.000000;0.143322
9903.000000;0.144057
9902.000000;0.144615
9901.000000;0.145000
9900.000000;0.145294
9899.000000;0.145577
9898.000000;0.145906
9897.000000;0.146321
9896.000000;0.146856
9895.000000;0.147531
9894.000000;0.148355
9893.000000;0.149293
9892.000000;0.150254
9891.000000;0.151145
9890.000000;0.151949
9889.000000;0.152691
9888.000000;0.153339
9887.000000;0.153813
9886.000000;0.154120
9885.000000;0.154441
9884.000000;0.154978
9883.000000;0.155743
9882.000000;0.156522
9881.000000;0.157101
9880.000000;0.157489
9879.000000;0.157911
9878.000000;0.158575
9877.000000;0.159471
9876.000000;0.160405
9875.000000;0.161237
9874.000000;0.162011
9873.000000;0.162837
9872.000000;0.163691
9871.000000;0.164411
9870.000000;0.164886
9869.000000;0.165187
9868.000000;0.165506
9867.000000;0.166012
9866.000000;0.166769
9865.000000;0.167722
9864.000000;0.168710
9863.000000;0.169558
9862.000000;0.170208
9861.000000;0.170764
9860.000000;0.171389
9859.000000;0.172151
9858.000000;0.173004
9857.000000;0.173858
9856.000000;0.174657
9855.000000;0.175392
9854.000000;0.176062
9853.000000;0.176637
9852.000000;0.177070
9851.000000;0.177393
9850.000000;0.177794
9849.000000;0.178496
9848.000000;0.179516
9847.000000;0.180609
9846.000000;0.181499
9845.000000;0.182130
9844.000000;0.182624
9843.000000;0.183087
9842.000000;0.183548
9841.000000;0.184063
9840.000000;0.184717
9839.000000;0.185525
9838.000000;0.186402
9837.000000;0.187262
9836.000000;0.188062
9835.000000;0.188741
9834.000000;0.189208
9833.000000;0.189455
9832.000000;0.189616
9831.000000;0.189877
9830.000000;0.190346
9829.000000;0.191026
9828.000000;0.191818
9827.000000;0.192563
9826.000000;0.193175
9825.000000;0.193789
9824.000000;0.194653
9823.000000;0.195807
9822.000000;0.196964
9821.000000;0.197808
9820.000000;0.198340
9819.000000;0.198817
9818.000000;0.199434
9817.000000;0.200208
9816.000000;0.201122
9815.000000;0.202187
9814.000000;0.203326
9813.000000;0.204342
9812.000000;0.205086
9811.000000;0.205587
9810.000000;0.205992
9809.000000;0.206435
9808.000000;0.206979
9807.000000;0.207600
9806.000000;0.208186
9805.000000;0.208639
9804.000000;0.209017
9803.000000;0.209518
9802.000000;0.210288
9801.000000;0.211301
9800.000000;0.212412
9799.000000;0.213477
9798.000000;0.214385
9797.000000;0.215077
9796.000000;0.215599
9795.000000;0.216080
9794.000000;0.216640
9793.000000;0.217344
9792.000000;0.218223
9791.000000;0.219238
9790.000000;0.220198
9789.000000;0.220880
9788.000000;0.221287
9787.000000;0.221691
9786.000000;0.222326
9785.000000;0.223154
9784.000000;0.224000
9783.000000;0.224784
9782.000000;0.225508
9781.000000;0.226129
9780.000000;0.226610
9779.000000;0.227033
9778.000000;0.227536
9777.000000;0.228173
9776.000000;0.228953
9775.000000;0.229932
9774.000000;0.231117
9773.000000;0.232302
9772.000000;0.233223
9771.000000;0.233865
9770.000000;0.234467
9769.000000;0.235210
9768.000000;0.236057
9767.000000;0.236910
9766.000000;0.237741
9765.000000;0.238480
9764.000000;0.238967
9763.000000;0.239154
9762.000000;0.239283
9761.000000;0.239706
9760.000000;0.240557
9759.000000;0.241656
9758.000000;0.242718
9757.000000;0.243604
9756.000000;0.244396
9755.000000;0.245269
9754.000000;0.246279
9753.000000;0.247280
9752.000000;0.248078
9751.000000;0.248643
9750.000000;0.249111
9749.000000;0.249600
9748.000000;0.250132
9747.000000;0.250774
9746.000000;0.251678
9745.000000;0.252892
9744.000000;0.254182
9743.000000;0.255176
9742.000000;0.255685
9741.000000;0.255840
9740.000000;0.255924
9739.000000;0.256143
9738.000000;0.256560
9737.000000;0.257188
9736.000000;0.258074
9735.000000;0.259221
9734.000000;0.260448
9733.000000;0.261485
9732.000000;0.262284
9731.000000;0.263130
9730.000000;0.264251
9729.000000;0.265410
9728.000000;0.266146
9727.000000;0.266439
9726.000000;0.266824
9725.000000;0.267721
9724.000000;0.268883
9723.000000;0.269726
9722.000000;0.270055
9721.000000;0.270217
9720.000000;0.270646
9719.000000;0.271471
9718.000000;0.272526
9717.000000;0.273500
9716.000000;0.274094
9715.000000;0.274280
9714.000000;0.274428
9713.000000;0.275006
9712.000000;0.276106
9711.000000;0.277380
9710.000000;0.278454
9709.000000;0.279231
9708.000000;0.279792
9707.000000;0.280210
9706.000000;0.280589
9705.000000;0.281095
9704.000000;0.281810
9703.000000;0.282659
9702.000000;0.283562
9701.000000;0.284555
9700.000000;0.285632
9699.000000;0.286616
9698.000000;0.287332
9697.000000;0.287838
9696.000000;0.288301
9695.000000;0.288705
9694.000000;0.288899
9693.000000;0.288961
9692.000000;0.289281
9691.000000;0.290146
9690.000000;0.291378
9689.000000;0.292551
9688.000000;0.293506
9687.000000;0.294465
9686.000000;0.295604
9685.000000;0.296713
9684.000000;0.297423
9683.000000;0.297678
9682.000000;0.297839
9681.000000;0.298306
9680.000000;0.299178
9679.000000;0.300286
9678.000000;0.301413
9677.000000;0.302396
9676.000000;0.303149
9675.000000;0.303725
9674.000000;0.304311
9673.000000;0.305067
9672.000000;0.305981
9671.000000;0.306951
9670.000000;0.307921
9669.000000;0.308831
9668.000000;0.309506
9667.000000;0.309794
9666.000000;0.309833
9665.000000;0.309999
9664.000000;0.310536
9663.000000;0.311378
9662.000000;0.312314
9661.000000;0.313190
9660.000000;0.313896
9659.000000;0.314387
9658.000000;0.314825
9657.000000;0.315550
9656.000000;0.316741
9655.000000;0.318187
9654.000000;0.319525
9653.000000;0.320589
9652.000000;0.321407
9651.000000;0.321998
9650.000000;0.322387
9649.000000;0.322747
9648.000000;0.323289
9647.000000;0.324009
9646.000000;0.324705
9645.000000;0.325267
9644.000000;0.325761
9643.000000;0.326262
9642.000000;0.326786
9641.000000;0.327408
9640.000000;0.328206
9639.000000;0.329033
9638.000000;0.329570
9637.000000;0.329746
9636.000000;0.329905
9635.000000;0.330400
9634.000000;0.331173
9633.000000;0.331916
9632.000000;0.332496
9631.000000;0.333017
9630.000000;0.333547
9629.000000;0.334048
9628.000000;0.334597
9627.000000;0.335407
9626.000000;0.336547
9625.000000;0.337788
9624.000000;0.338816
9623.000000;0.339512
9622.000000;0.339947
9621.000000;0.340256
9620.000000;0.340605
9619.000000;0.341176
9618.000000;0.342007
9617.000000;0.342891
9616.000000;0.343583
9615.000000;0.344091
9614.000000;0.344657
9613.000000;0.345432
9612.000000;0.346275
9611.000000;0.346959
9610.000000;0.347481
9609.000000;0.348081
9608.000000;0.348950
9607.000000;0.349988
9606.000000;0.350868
9605.000000;0.351342
9604.000000;0.351487
9603.000000;0.351684
9602.000000;0.352311
9601.000000;0.353401
9600.000000;0.354589
9599.000000;0.355427
9598.000000;0.355792
9597.000000;0.355991
9596.000000;0.356445
9595.000000;0.357298
9594.000000;0.358324
9593.000000;0.359212
9592.000000;0.359875
9591.000000;0.360434
9590.000000;0.360954
9589.000000;0.361330
9588.000000;0.361514
9587.000000;0.361735
9586.000000;0.362321
9585.000000;0.363292
9584.000000;0.364306
9583.000000;0.365052
9582.000000;0.365527
9581.000000;0.365863
9580.000000;0.366066
9579.000000;0.366153
9578.000000;0.366369
9577.000000;0.366973
9576.000000;0.367815
9575.000000;0.368431
9574.000000;0.368632
9573.000000;0.368772
9572.000000;0.369288
9571.000000;0.370212
9570.000000;0.371257
9569.000000;0.372166
9568.000000;0.372772
9567.000000;0.372936
9566.000000;0.372718
9565.000000;0.372504
9564.000000;0.372676
9563.000000;0.373169
9562.000000;0.373619
9561.000000;0.373912
9560.000000;0.374346
9559.000000;0.375208
9558.000000;0.376431
9557.000000;0.377746
9556.000000;0.378953
9555.000000;0.379909
9554.000000;0.380463
9553.000000;0.380555
9552.000000;0.380338
9551.000000;0.380090
9550.000000;0.380072
9549.000000;0.380481
9548.000000;0.381365
9547.000000;0.382509
9546.000000;0.383519
9545.000000;0.384176
9544.000000;0.384616
9543.000000;0.385111
9542.000000;0.385762
9541.000000;0.386471
9540.000000;0.387089
9539.000000;0.387491
9538.000000;0.387626
9537.000000;0.387613
9536.000000;0.387713
9535.000000;0.388056
9534.000000;0.388493
9533.000000;0.388817
9532.000000;0.389039
9531.000000;0.389298
9530.000000;0.389576
9529.000000;0.389718
9528.000000;0.389727
9527.000000;0.389845
9526.000000;0.390305
9525.000000;0.391099
9524.000000;0.392004
9523.000000;0.392739
9522.000000;0.393095
9521.000000;0.393063
9520.000000;0.392889
9519.000000;0.392946
9518.000000;0.393459
9517.000000;0.394382
9516.000000;0.395489
9515.000000;0.396515
9514.000000;0.397228
9513.000000;0.397506
9512.000000;0.397452
9511.000000;0.397362
9510.000000;0.397470
9509.000000;0.397701
9508.000000;0.397758
9507.000000;0.397503
9506.000000;0.397180
9505.000000;0.397179
9504.000000;0.397577
9503.000000;0.398046
9502.000000;0.398284
9501.000000;0.398426
9500.000000;0.398863
9499.000000;0.399696
9498.000000;0.400561
9497.000000;0.401052
9496.000000;0.401098
9495.000000;0.400881
9494.000000;0.400559
9493.000000;0.400272
9492.000000;0.400258
9491.000000;0.400709
9490.000000;0.401496
9489.000000;0.402223
9488.000000;0.402615
9487.000000;0.402735
9486.000000;0.402794
9485.000000;0.402853
9484.000000;0.402792
9483.000000;0.402517
9482.000000;0.402129
9481.000000;0.401888
9480.000000;0.402021
9479.000000;0.402564
9478.000000;0.403353
9477.000000;0.404163
9476.000000;0.404825
9475.000000;0.405274
9474.000000;0.405586
9473.000000;0.405950
9472.000000;0.406494
9471.000000;0.407078
9470.000000;0.407397
9469.000000;0.407322
9468.000000;0.407028
9467.000000;0.406736
9466.000000;0.406485
9465.000000;0.406252
9464.000000;0.406122
9463.000000;0.406168
9462.000000;0.406267
9461.000000;0.406261
9460.000000;0.406211
9459.000000;0.406302
9458.000000;0.406542
9457.000000;0.406766
9456.000000;0.406928
9455.000000;0.407148
9454.000000;0.407400
9453.000000;0.407422
9452.000000;0.407068
9451.000000;0.406614
9450.000000;0.406526
9449.000000;0.407007
9448.000000;0.407868
9447.000000;0.408770
9446.000000;0.409483
9445.000000;0.409941
9444.000000;0.410171
9443.000000;0.410203
9442.000000;0.410029
9441.000000;0.409608
9440.000000;0.408930
9439.000000;0.408074
9438.000000;0.407233
9437.000000;0.406695
9436.000000;0.406715
9435.000000;0.407316
9434.000000;0.408225
9433.000000;0.409061
9432.000000;0.409579
9431.000000;0.409722
9430.000000;0.409498
9429.000000;0.408990
9428.000000;0.408443
9427.000000;0.408188
9426.000000;0.408363
9425.000000;0.408777
9424.000000;0.409068
9423.000000;0.408988
9422.000000;0.408538
9421.000000;0.407947
9420.000000;0.407545
9419.000000;0.407529
9418.000000;0.407764
9417.000000;0.407889
9416.000000;0.407686
9415.000000;0.407322
9414.000000;0.407152
9413.000000;0.407360
9412.000000;0.407811
9411.000000;0.408200
9410.000000;0.408268
9409.000000;0.407964
9408.000000;0.407492
9407.000000;0.407149
9406.000000;0.407028
9405.000000;0.406908
9404.000000;0.406536
9403.000000;0.405965
9402.000000;0.405466
9401.000000;0.405145
9400.000000;0.404848
9399.000000;0.404505
9398.000000;0.404302
9397.000000;0.404356
9396.000000;0.404393
9395.000000;0.404043
9394.000000;0.403405
9393.000000;0.403029
9392.000000;0.403264
9391.000000;0.403892
9390.000000;0.404510
9389.000000;0.404998
9388.000000;0.405400
9387.000000;0.405578
9386.000000;0.405319
9385.000000;0.404728
9384.000000;0.404177
9383.000000;0.403881
9382.000000;0.403758
9381.000000;0.403694
9380.000000;0.403636
9379.000000;0.403401
9378.000000;0.402750
9377.000000;0.401825
9376.000000;0.401159
9375.000000;0.401056
9374.000000;0.401184
9373.000000;0.401024
9372.000000;0.400507
9371.000000;0.399949
9370.000000;0.399537
9369.000000;0.399236
9368.000000;0.399089
9367.000000;0.399228
9366.000000;0.399534
9365.000000;0.399643
9364.000000;0.399399
9363.000000;0.399068
9362.000000;0.398965
9361.000000;0.399018
9360.000000;0.398842
9359.000000;0.398145
9358.000000;0.396996
9357.000000;0.395750
9356.000000;0.394803
9355.000000;0.394357
9354.000000;0.394355
9353.000000;0.394608
9352.000000;0.394924
9351.000000;0.395104
9350.000000;0.394949
9349.000000;0.394416
9348.000000;0.393710
9347.000000;0.393102
9346.000000;0.392686
9345.000000;0.392438
9344.000000;0.392397
9343.000000;0.392600
9342.000000;0.392882
9341.000000;0.392956
9340.000000;0.392689
9339.000000;0.392135
9338.000000;0.391342
9337.000000;0.390381
9336.000000;0.389550
9335.000000;0.389209
9334.000000;0.389327
9333.000000;0.389417
9332.000000;0.389101
9331.000000;0.388528
9330.000000;0.388108
9329.000000;0.387993
9328.000000;0.388010
9327.000000;0.387937
9326.000000;0.387675
9325.000000;0.387256
9324.000000;0.386844
9323.000000;0.386621
9322.000000;0.386525
9321.000000;0.386211
9320.000000;0.385447
9319.000000;0.384449
9318.000000;0.383648
9317.000000;0.383196
9316.000000;0.382892
9315.000000;0.382524
9314.000000;0.382075
9313.000000;0.381604
9312.000000;0.381126
9311.000000;0.380670
9310.000000;0.380289
9309.000000;0.379974
9308.000000;0.379676
9307.000000;0.379416
9306.000000;0.379219
9305.000000;0.378932
9304.000000;0.378320
9303.000000;0.377431
9302.000000;0.376681
9301.000000;0.376410
9300.000000;0.376462
9299.000000;0.376364
9298.000000;0.375875
9297.000000;0.375188
9296.000000;0.374596
9295.000000;0.374169
9294.000000;0.373821
9293.000000;0.373545
9292.000000;0.373431
9291.000000;0.373465
9290.000000;0.373464
9289.000000;0.373211
9288.000000;0.372616
9287.000000;0.371737
9286.000000;0.370741
9285.000000;0.369893
9284.000000;0.369460
9283.000000;0.369493
9282.000000;0.369718
9281.000000;0.369722
9280.000000;0.369297
9279.000000;0.368586
9278.000000;0.367906
9277.000000;0.367468
9276.000000;0.367256
9275.000000;0.367068
9274.000000;0.366674
9273.000000;0.365982
9272.000000;0.365131
9271.000000;0.364386
9270.000000;0.363930
9269.000000;0.363750
9268.000000;0.363693
9267.000000;0.363569
9266.000000;0.363238
9265.000000;0.362703
9264.000000;0.362139
9263.000000;0.361721
9262.000000;0.361365
9261.000000;0.360740
9260.000000;0.359675
9259.000000;0.358500
9258.000000;0.357823
9257.000000;0.357929
9256.000000;0.358485
9255.000000;0.358874
9254.000000;0.358738
9253.000000;0.358138
9252.000000;0.357299
9251.000000;0.356370
9250.000000;0.355447
9249.000000;0.354670
9248.000000;0.354143
9247.000000;0.353784
9246.000000;0.353378
9245.000000;0.352826
9244.000000;0.352267
9243.000000;0.351932
9242.000000;0.351909
9241.000000;0.352082
9240.000000;0.352257
9239.000000;0.352264
9238.000000;0.351989
9237.000000;0.351392
9236.000000;0.350553
9235.000000;0.349641
9234.000000;0.348787
9233.000000;0.347981
9232.000000;0.347142
9231.000000;0.346313
9230.000000;0.345737
9229.000000;0.345658
9228.000000;0.346011
9227.000000;0.346374
9226.000000;0.346331
9225.000000;0.345873
9224.000000;0.345322
9223.000000;0.344872
9222.000000;0.344365
9221.000000;0.343601
9220.000000;0.342713
9219.000000;0.342026
9218.000000;0.341623
9217.000000;0.341230
9216.000000;0.340570
9215.000000;0.339710
9214.000000;0.338966
9213.000000;0.338564
9212.000000;0.338455
9211.000000;0.338408
9210.000000;0.338204
9209.000000;0.337752
9208.000000;0.337128
9207.000000;0.336535
9206.000000;0.336182
9205.000000;0.336109
9204.000000;0.336085
9203.000000;0.335711
9202.000000;0.334743
9201.000000;0.333360
9200.000000;0.332065
9199.000000;0.331248
9198.000000;0.330879
9197.000000;0.330656
9196.000000;0.330362
9195.000000;0.329977
9194.000000;0.329533
9193.000000;0.329024
9192.000000;0.328487
9191.000000;0.328026
9190.000000;0.327659
9189.000000;0.327232
9188.000000;0.326589
9187.000000;0.325814
9186.000000;0.325212
9185.000000;0.325017
9184.000000;0.325164
9183.000000;0.325366
9182.000000;0.325394
9181.000000;0.325238
9180.000000;0.324981
9179.000000;0.324613
9178.000000;0.324067
9177.000000;0.323436
9176.000000;0.322952
9175.000000;0.322656
9174.000000;0.322241
9173.000000;0.321405
9172.000000;0.320302
9171.000000;0.319459
9170.000000;0.319229
9169.000000;0.319449
9168.000000;0.319663
9167.000000;0.319517
9166.000000;0.318951
9165.000000;0.318129
9164.000000;0.317284
9163.000000;0.316548
9162.000000;0.315894
9161.000000;0.315285
9160.000000;0.314850
9159.000000;0.314742
9158.000000;0.314807
9157.000000;0.314612
9156.000000;0.313928
9155.000000;0.313044
9154.000000;0.312436
9153.000000;0.312226
9152.000000;0.312128
9151.000000;0.311841
9150.000000;0.311307
9149.000000;0.310600
9148.000000;0.309808
9147.000000;0.309084
9146.000000;0.308642
9145.000000;0.308519
9144.000000;0.308432
9143.000000;0.308005
9142.000000;0.307159
9141.000000;0.306186
9140.000000;0.305445
9139.000000;0.305069
9138.000000;0.304936
9137.000000;0.304817
9136.000000;0.304510
9135.000000;0.303928
9134.000000;0.303195
9133.000000;0.302600
9132.000000;0.302344
9131.000000;0.302302
9130.000000;0.302135
9129.000000;0.301687
9128.000000;0.301150
9127.000000;0.300808
9126.000000;0.300693
9125.000000;0.300624
9124.000000;0.300464
9123.000000;0.300233
9122.000000;0.299965
9121.000000;0.299606
9120.000000;0.299104
9119.000000;0.298514
9118.000000;0.297965
9117.000000;0.297547
9116.000000;0.297226
9115.000000;0.296872
9114.000000;0.296381
9113.000000;0.295792
9112.000000;0.295237
9111.000000;0.294763
9110.000000;0.294287
9109.000000;0.293776
9108.000000;0.293331
9107.000000;0.292973
9106.000000;0.292490
9105.000000;0.291689
9104.000000;0.290743
9103.000000;0.290059
9102.000000;0.289807
9101.000000;0.289775
9100.000000;0.289697
9099.000000;0.289506
9098.000000;0.289203
9097.000000;0.288691
9096.000000;0.287916
9095.000000;0.287046
9094.000000;0.286358
9093.000000;0.286020
9092.000000;0.286042
9091.000000;0.286316
9090.000000;0.286603
9089.000000;0.286589
9088.000000;0.286111
9087.000000;0.285308
9086.000000;0.284483
9085.000000;0.283856
9084.000000;0.283474
9083.000000;0.283233
9082.000000;0.282913
9081.000000;0.282311
9080.000000;0.281459
9079.000000;0.280659
9078.000000;0.280219
9077.000000;0.280207
9076.000000;0.280481
9075.000000;0.280830
9074.000000;0.280999
9073.000000;0.280757
9072.000000;0.280125
9071.000000;0.279440
9070.000000;0.279007
9069.000000;0.278718
9068.000000;0.278190
9067.000000;0.277240
9066.000000;0.276086
9065.000000;0.275099
9064.000000;0.274516
9063.000000;0.274391
9062.000000;0.274637
9061.000000;0.275044
9060.000000;0.275350
9059.000000;0.275361
9058.000000;0.274997
9057.000000;0.274266
9056.000000;0.273279
9055.000000;0.272270
9054.000000;0.271476
9053.000000;0.270965
