Criado como novo conjunto de dados;"e2410_daniel_v2.spp","54364.6 Secs"
cm-1;Abs
10000.000000;1.067632
9999.000000;1.066385
9998.000000;1.065102
9997.000000;1.064408
9996.000000;1.064745
9995.000000;1.065539
9994.000000;1.065869
9993.000000;1.065383
9992.000000;1.064352
9991.000000;1.063129
9990.000000;1.062018
9989.000000;1.061288
9988.000000;1.060941
9987.000000;1.060662
9986.000000;1.060214
9985.000000;1.059677
9984.000000;1.059145
9983.000000;1.058561
9982.000000;1.058007
9981.000000;1.057785
9980.000000;1.057948
9979.000000;1.058095
9978.000000;1.057869
9977.000000;1.057344
9976.000000;1.056744
9975.000000;1.056110
9974.000000;1.055431
9973.000000;1.054772
9972.000000;1.054093
9971.000000;1.053296
9970.000000;1.052555
9969.000000;1.052185
9968.000000;1.052056
9967.000000;1.051627
9966.000000;1.050756
9965.000000;1.049985
9964.000000;1.049755
9963.000000;1.049819
9962.000000;1.049732
9961.000000;1.049478
9960.000000;1.049205
9959.000000;1.048752
9958.000000;1.047887
9957.000000;1.046771
9956.000000;1.045778
9955.000000;1.045023
9954.000000;1.044363
9953.000000;1.043709
9952.000000;1.043081
9951.000000;1.042517
9950.000000;1.042123
9949.000000;1.042032
9948.000000;1.042155
9947.000000;1.042149
9946.000000;1.041763
9945.000000;1.041054
9944.000000;1.040182
9943.000000;1.039254
9942.000000;1.038411
9941.000000;1.037766
9940.000000;1.037173
9939.000000;1.036411
9938.000000;1.035686
9937.000000;1.035552
9936.000000;1.036159
9935.000000;1.036909
9934.000000;1.037118
9933.000000;1.036739
9932.000000;1.036220
9931.000000;1.035870
9930.000000;1.035580
9929.000000;1.034993
9928.000000;1.033836
9927.000000;1.032241
9926.000000;1.030765
9925.000000;1.029874
9924.000000;1.029448
9923.000000;1.029030
9922.000000;1.028500
9921.000000;1.028125
9920.000000;1.027980
9919.000000;1.027783
9918.000000;1.027387
9917.000000;1.026972
9916.000000;1.026628
9915.000000;1.026136
9914.000000;1.025346
9913.000000;1.024432
9912.000000;1.023669
9911.000000;1.023248
9910.000000;1.023335
9909.000000;1.023900
9908.000000;1.024420
9907.000000;1.024181
9906.000000;1.023043
9905.000000;1.021543
9904.000000;1.020177
9903.000000;1.019010
9902.000000;1.018037
9901.000000;1.017399
9900.000000;1.017044
9899.000000;1.016621
9898.000000;1.015967
9897.000000;1.015388
9896.000000;1.015212
9895.000000;1.015368
9894.000000;1.015552
9893.000000;1.015556
9892.000000;1.015291
9891.000000;1.014793
9890.000000;1.014314
9889.000000;1.014120
9888.000000;1.014089
9887.000000;1.013745
9886.000000;1.012770
9885.000000;1.011228
9884.000000;1.009376
9883.000000;1.007584
9882.000000;1.006365
9881.000000;1.006002
9880.000000;1.006129
9879.000000;1.006111
9878.000000;1.005820
9877.000000;1.005607
9876.000000;1.005570
9875.000000;1.005413
9874.000000;1.005060
9873.000000;1.004787
9872.000000;1.004659
9871.000000;1.004388
9870.000000;1.003871
9869.000000;1.003332
9868.000000;1.002791
9867.000000;1.001989
9866.000000;1.000994
9865.000000;1.000303
9864.000000;1.000111
9863.000000;1.000011
9862.000000;0.999628
9861.000000;0.999053
9860.000000;0.998443
9859.000000;0.997736
9858.000000;0.997006
9857.000000;0.996556
9856.000000;0.996377
9855.000000;0.996001
9854.000000;0.995202
9853.000000;0.994381
9852.000000;0.993967
9851.000000;0.993900
9850.000000;0.993926
9849.000000;0.993969
9848.000000;0.993918
9847.000000;0.993535
9846.000000;0.992873
9845.000000;0.992338
9844.000000;0.992026
9843.000000;0.991444
9842.000000;0.990230
9841.000000;0.988787
9840.000000;0.987834
9839.000000;0.987626
9838.000000;0.987846
9837.000000;0.987950
9836.000000;0.987430
9835.000000;0.986115
9834.000000;0.984456
9833.000000;0.983182
9832.000000;0.982548
9831.000000;0.982267
9830.000000;0.982216
9829.000000;0.982631
9828.000000;0.983426
9827.000000;0.983910
9826.000000;0.983605
9825.000000;0.982828
9824.000000;0.982090
9823.000000;0.981379
9822.000000;0.980481
9821.000000;0.979569
9820.000000;0.979004
9819.000000;0.978862
9818.000000;0.979030
9817.000000;0.979462
9816.000000;0.979961
9815.000000;0.980012
9814.000000;0.979268
9813.000000;0.978005
9812.000000;0.976745
9811.000000;0.975694
9810.000000;0.974815
9809.000000;0.974165
9808.000000;0.973785
9807.000000;0.973511
9806.000000;0.973203
9805.000000;0.972982
9804.000000;0.972933
9803.000000;0.972819
9802.000000;0.972370
9801.000000;0.971629
9800.000000;0.970796
9799.000000;0.969940
9798.000000;0.969108
9797.000000;0.968471
9796.000000;0.968102
9795.000000;0.967818
9794.000000;0.967477
9793.000000;0.967184
9792.000000;0.967004
9791.000000;0.966750
9790.000000;0.966340
9789.000000;0.966096
9788.000000;0.966338
9787.000000;0.966843
9786.000000;0.966986
9785.000000;0.966348
9784.000000;0.965018
9783.000000;0.963430
9782.000000;0.962066
9781.000000;0.961157
9780.000000;0.960547
9779.000000;0.959985
9778.000000;0.959525
9777.000000;0.959397
9776.000000;0.959490
9775.000000;0.959352
9774.000000;0.958779
9773.000000;0.958040
9772.000000;0.957392
9771.000000;0.956790
9770.000000;0.956224
9769.000000;0.955868
9768.000000;0.955651
9767.000000;0.955136
9766.000000;0.954146
9765.000000;0.953148
9764.000000;0.952639
9763.000000;0.952465
9762.000000;0.952086
9761.000000;0.951267
9760.000000;0.950179
9759.000000;0.949076
9758.000000;0.948223
9757.000000;0.947956
9756.000000;0.948384
9755.000000;0.949123
9754.000000;0.949583
9753.000000;0.949509
9752.000000;0.949063
9751.000000;0.948480
9750.000000;0.947876
9749.000000;0.947284
9748.000000;0.946711
9747.000000;0.946160
9746.000000;0.945662
9745.000000;0.945193
9744.000000;0.944604
9743.000000;0.943825
9742.000000;0.943101
9741.000000;0.942721
9740.000000;0.942519
9739.000000;0.942009
9738.000000;0.941120
9737.000000;0.940376
9736.000000;0.940181
9735.000000;0.940279
9734.000000;0.940174
9733.000000;0.939759
9732.000000;0.939266
9731.000000;0.938853
9730.000000;0.938565
9729.000000;0.938497
9728.000000;0.938669
9727.000000;0.938820
9726.000000;0.938551
9725.000000;0.937693
9724.000000;0.936420
9723.000000;0.935102
9722.000000;0.934115
9721.000000;0.933638
9720.000000;0.933526
9719.000000;0.933444
9718.000000;0.933175
9717.000000;0.932726
9716.000000;0.932192
9715.000000;0.931694
9714.000000;0.931389
9713.000000;0.931310
9712.000000;0.931200
9711.000000;0.930761
9710.000000;0.930070
9709.000000;0.929486
9708.000000;0.929169
9707.000000;0.928944
9706.000000;0.928605
9705.000000;0.928074
9704.000000;0.927319
9703.000000;0.926396
9702.000000;0.925550
9701.000000;0.924966
9700.000000;0.924497
9699.000000;0.923946
9698.000000;0.923512
9697.000000;0.923504
9696.000000;0.923706
9695.000000;0.923507
9694.000000;0.922714
9693.000000;0.921739
9692.000000;0.920946
9691.000000;0.920320
9690.000000;0.919861
9689.000000;0.919730
9688.000000;0.919812
9687.000000;0.919632
9686.000000;0.918970
9685.000000;0.918171
9684.000000;0.917636
9683.000000;0.917360
9682.000000;0.917155
9681.000000;0.916929
9680.000000;0.916553
9679.000000;0.915865
9678.000000;0.915008
9677.000000;0.914394
9676.000000;0.914143
9675.000000;0.913932
9674.000000;0.913579
9673.000000;0.913355
9672.000000;0.913451
9671.000000;0.913529
9670.000000;0.913126
9669.000000;0.912222
9668.000000;0.911158
9667.000000;0.910237
9666.000000;0.909617
9665.000000;0.909275
9664.000000;0.908901
9663.000000;0.908126
9662.000000;0.907050
9661.000000;0.906263
9660.000000;0.906152
9659.000000;0.906481
9658.000000;0.906783
9657.000000;0.906798
9656.000000;0.906376
9655.000000;0.905385
9654.000000;0.904042
9653.000000;0.902979
9652.000000;0.902650
9651.000000;0.902871
9650.000000;0.903179
9649.000000;0.903379
9648.000000;0.903473
9647.000000;0.903364
9646.000000;0.902943
9645.000000;0.902288
9644.000000;0.901519
9643.000000;0.900618
9642.000000;0.899589
9641.000000;0.898627
9640.000000;0.897929
9639.000000;0.897515
9638.000000;0.897361
9637.000000;0.897466
9636.000000;0.897648
9635.000000;0.897509
9634.000000;0.896834
9633.000000;0.895825
9632.000000;0.894789
9631.000000;0.893830
9630.000000;0.892976
9629.000000;0.892360
9628.000000;0.892059
9627.000000;0.891928
9626.000000;0.891778
9625.000000;0.891580
9624.000000;0.891399
9623.000000;0.891282
9622.000000;0.891252
9621.000000;0.891247
9620.000000;0.891059
9619.000000;0.890584
9618.000000;0.890133
9617.000000;0.890106
9616.000000;0.890329
9615.000000;0.890096
9614.000000;0.889049
9613.000000;0.887637
9612.000000;0.886517
9611.000000;0.885846
9610.000000;0.885378
9609.000000;0.884944
9608.000000;0.884556
9607.000000;0.884262
9606.000000;0.884104
9605.000000;0.884056
9604.000000;0.883883
9603.000000;0.883307
9602.000000;0.882420
9601.000000;0.881664
9600.000000;0.881267
9599.000000;0.881006
9598.000000;0.880676
9597.000000;0.880460
9596.000000;0.880605
9595.000000;0.880962
9594.000000;0.881097
9593.000000;0.880691
9592.000000;0.879710
9591.000000;0.878343
9590.000000;0.876944
9589.000000;0.875844
9588.000000;0.875134
9587.000000;0.874736
9586.000000;0.874658
9585.000000;0.874902
9584.000000;0.875133
9583.000000;0.874841
9582.000000;0.873948
9581.000000;0.872934
9580.000000;0.872229
9579.000000;0.871825
9578.000000;0.871584
9577.000000;0.871502
9576.000000;0.871475
9575.000000;0.871175
9574.000000;0.870467
9573.000000;0.869701
9572.000000;0.869326
9571.000000;0.869375
9570.000000;0.869516
9569.000000;0.869413
9568.000000;0.868909
9567.000000;0.868029
9566.000000;0.866986
9565.000000;0.866043
9564.000000;0.865301
9563.000000;0.864769
9562.000000;0.864570
9561.000000;0.864794
9560.000000;0.865161
9559.000000;0.865219
9558.000000;0.864893
9557.000000;0.864473
9556.000000;0.864012
9555.000000;0.863233
9554.000000;0.862173
9553.000000;0.861410
9552.000000;0.861375
9551.000000;0.861825
9550.000000;0.862239
9549.000000;0.862384
9548.000000;0.862209
9547.000000;0.861580
9546.000000;0.860487
9545.000000;0.859308
9544.000000;0.858489
9543.000000;0.858124
9542.000000;0.858008
9541.000000;0.857940
9540.000000;0.857757
9539.000000;0.857310
9538.000000;0.856605
9537.000000;0.855851
9536.000000;0.855212
9535.000000;0.854723
9534.000000;0.854480
9533.000000;0.854619
9532.000000;0.854964
9531.000000;0.855022
9530.000000;0.854533
9529.000000;0.853782
9528.000000;0.853168
9527.000000;0.852749
9526.000000;0.852374
9525.000000;0.851980
9524.000000;0.851532
9523.000000;0.850916
9522.000000;0.850149
9521.000000;0.849461
9520.000000;0.849003
9519.000000;0.848657
9518.000000;0.848300
9517.000000;0.848005
9516.000000;0.847830
9515.000000;0.847672
9514.000000;0.847524
9513.000000;0.847554
9512.000000;0.847735
9511.000000;0.847686
9510.000000;0.847171
9509.000000;0.846487
9508.000000;0.846080
9507.000000;0.845949
9506.000000;0.845715
9505.000000;0.845133
9504.000000;0.844292
9503.000000;0.843455
9502.000000;0.842873
9501.000000;0.842638
9500.000000;0.842544
9499.000000;0.842240
9498.000000;0.841644
9497.000000;0.841038
9496.000000;0.840656
9495.000000;0.840395
9494.000000;0.840073
9493.000000;0.839727
9492.000000;0.839452
9491.000000;0.839168
9490.000000;0.838766
9489.000000;0.838310
9488.000000;0.837921
9487.000000;0.837633
9486.000000;0.837470
9485.000000;0.837457
9484.000000;0.837427
9483.000000;0.837063
9482.000000;0.836294
9481.000000;0.835448
9480.000000;0.834836
9479.000000;0.834432
9478.000000;0.834105
9477.000000;0.833888
9476.000000;0.833793
9475.000000;0.833587
9474.000000;0.833052
9473.000000;0.832302
9472.000000;0.831617
9471.000000;0.831103
9470.000000;0.830679
9469.000000;0.830248
9468.000000;0.829717
9467.000000;0.829039
9466.000000;0.828403
9465.000000;0.828155
9464.000000;0.828316
9463.000000;0.828402
9462.000000;0.827966
9461.000000;0.827164
9460.000000;0.826524
9459.000000;0.826279
9458.000000;0.826206
9457.000000;0.825995
9456.000000;0.825531
9455.000000;0.824875
9454.000000;0.824211
9453.000000;0.823806
9452.000000;0.823793
9451.000000;0.823974
9450.000000;0.823962
9449.000000;0.823560
9448.000000;0.822925
9447.000000;0.822378
9446.000000;0.822085
9445.000000;0.821924
9444.000000;0.821626
9443.000000;0.821091
9442.000000;0.820521
9441.000000;0.820141
9440.000000;0.819876
9439.000000;0.819478
9438.000000;0.818941
9437.000000;0.818524
9436.000000;0.818386
9435.000000;0.818432
9434.000000;0.818540
9433.000000;0.818638
9432.000000;0.818499
9431.000000;0.817817
9430.000000;0.816664
9429.000000;0.815588
9428.000000;0.815032
9427.000000;0.814894
9426.000000;0.814823
9425.000000;0.814744
9424.000000;0.814812
9423.000000;0.815022
9422.000000;0.815145
9421.000000;0.815003
9420.000000;0.814598
9419.000000;0.814032
9418.000000;0.813436
9417.000000;0.812933
9416.000000;0.812532
9415.000000;0.812107
9414.000000;0.811550
9413.000000;0.810895
9412.000000;0.810240
9411.000000;0.809645
9410.000000;0.809158
9409.000000;0.808821
9408.000000;0.808586
9407.000000;0.808320
9406.000000;0.807965
9405.000000;0.807607
9404.000000;0.807323
9403.000000;0.807090
9402.000000;0.806856
9401.000000;0.806578
9400.000000;0.806140
9399.000000;0.805405
9398.000000;0.804453
9397.000000;0.803636
9396.000000;0.803301
9395.000000;0.803509
9394.000000;0.804034
9393.000000;0.804535
9392.000000;0.804717
9391.000000;0.804471
9390.000000;0.803915
9389.000000;0.803233
9388.000000;0.802499
9387.000000;0.801753
9386.000000;0.801154
9385.000000;0.800858
9384.000000;0.800770
9383.000000;0.800639
9382.000000;0.800388
9381.000000;0.800134
9380.000000;0.799893
9379.000000;0.799528
9378.000000;0.799014
9377.000000;0.798526
9376.000000;0.798161
9375.000000;0.797823
9374.000000;0.797464
9373.000000;0.797211
9372.000000;0.797147
9371.000000;0.797128
9370.000000;0.796955
9369.000000;0.796586
9368.000000;0.796084
9367.000000;0.795497
9366.000000;0.794860
9365.000000;0.794200
9364.000000;0.793498
9363.000000;0.792761
9362.000000;0.792131
9361.000000;0.791761
9360.000000;0.791610
9359.000000;0.791504
9358.000000;0.791412
9357.000000;0.791441
9356.000000;0.791566
9355.000000;0.791603
9354.000000;0.791492
9353.000000;0.791370
9352.000000;0.791294
9351.000000;0.791108
9350.000000;0.790687
9349.000000;0.790133
9348.000000;0.789625
9347.000000;0.789216
9346.000000;0.788876
9345.000000;0.788594
9344.000000;0.788370
9343.000000;0.788212
9342.000000;0.788168
9341.000000;0.788225
9340.000000;0.788188
9339.000000;0.787804
9338.000000;0.787051
9337.000000;0.786153
9336.000000;0.785347
9335.000000;0.784762
9334.000000;0.784448
9333.000000;0.784308
9332.000000;0.784043
9331.000000;0.783420
9330.000000;0.782618
9329.000000;0.782069
9328.000000;0.781949
9327.000000;0.782040
9326.000000;0.782087
9325.000000;0.782048
9324.000000;0.781948
9323.000000;0.781761
9322.000000;0.781510
9321.000000;0.781261
9320.000000;0.780961
9319.000000;0.780483
9318.000000;0.779867
9317.000000;0.779297
9316.000000;0.778806
9315.000000;0.778265
9314.000000;0.777709
9313.000000;0.777430
9312.000000;0.777608
9311.000000;0.778054
9310.000000;0.778420
9309.000000;0.778487
9308.000000;0.778209
9307.000000;0.777669
9306.000000;0.777080
9305.000000;0.776665
9304.000000;0.776432
9303.000000;0.776193
9302.000000;0.775814
9301.000000;0.775296
9300.000000;0.774654
9299.000000;0.773933
9298.000000;0.773348
9297.000000;0.773131
9296.000000;0.773189
9295.000000;0.773156
9294.000000;0.772842
9293.000000;0.772417
9292.000000;0.772089
9291.000000;0.771854
9290.000000;0.771653
9289.000000;0.771505
9288.000000;0.771372
9287.000000;0.771119
9286.000000;0.770758
9285.000000;0.770516
9284.000000;0.770518
9283.000000;0.770568
9282.000000;0.770373
9281.000000;0.769859
9280.000000;0.769153
9279.000000;0.768388
9278.000000;0.767689
9277.000000;0.767213
9276.000000;0.767060
9275.000000;0.767165
9274.000000;0.767331
9273.000000;0.767340
9272.000000;0.767049
9271.000000;0.766489
9270.000000;0.765905
9269.000000;0.765567
9268.000000;0.765502
9267.000000;0.765487
9266.000000;0.765323
9265.000000;0.765030
9264.000000;0.764753
9263.000000;0.764561
9262.000000;0.764338
9261.000000;0.763871
9260.000000;0.763117
9259.000000;0.762398
9258.000000;0.762159
9257.000000;0.762443
9256.000000;0.762770
9255.000000;0.762686
9254.000000;0.762257
9253.000000;0.761813
9252.000000;0.761459
9251.000000;0.761078
9250.000000;0.760654
9249.000000;0.760236
9248.000000;0.759725
9247.000000;0.759051
9246.000000;0.758446
9245.000000;0.758198
9244.000000;0.758181
9243.000000;0.758031
9242.000000;0.757746
9241.000000;0.757695
9240.000000;0.757988
9239.000000;0.758240
9238.000000;0.758090
9237.000000;0.757618
9236.000000;0.757117
9235.000000;0.756728
9234.000000;0.756435
9233.000000;0.756173
9232.000000;0.755833
9231.000000;0.755329
9230.000000;0.754762
9229.000000;0.754349
9228.000000;0.754159
9227.000000;0.754078
9226.000000;0.754019
9225.000000;0.753975
9224.000000;0.753896
9223.000000;0.753767
9222.000000;0.753744
9221.000000;0.753919
9220.000000;0.753975
9219.000000;0.753409
9218.000000;0.752166
9217.000000;0.750787
9216.000000;0.749872
9215.000000;0.749622
9214.000000;0.749883
9213.000000;0.750321
9212.000000;0.750535
9211.000000;0.750305
9210.000000;0.749826
9209.000000;0.749471
9208.000000;0.749316
9207.000000;0.749166
9206.000000;0.748984
9205.000000;0.748928
9204.000000;0.748928
9203.000000;0.748647
9202.000000;0.748011
9201.000000;0.747413
9200.000000;0.747214
9199.000000;0.747317
9198.000000;0.747408
9197.000000;0.747339
9196.000000;0.747119
9195.000000;0.746749
9194.000000;0.746289
9193.000000;0.745898
9192.000000;0.745648
9191.000000;0.745449
9190.000000;0.745239
9189.000000;0.745076
9188.000000;0.744958
9187.000000;0.744757
9186.000000;0.744411
9185.000000;0.744004
9184.000000;0.743569
9183.000000;0.743045
9182.000000;0.742507
9181.000000;0.742216
9180.000000;0.742301
9179.000000;0.742539
9178.000000;0.742551
9177.000000;0.742134
9176.000000;0.741362
9175.000000;0.740543
9174.000000;0.740082
9173.000000;0.740181
9172.000000;0.740596
9171.000000;0.740833
9170.000000;0.740619
9169.000000;0.740075
9168.000000;0.739452
9167.000000;0.738917
9166.000000;0.738578
9165.000000;0.738462
9164.000000;0.738402
9163.000000;0.738172
9162.000000;0.737754
9161.000000;0.737323
9160.000000;0.736970
9159.000000;0.736685
9158.000000;0.736550
9157.000000;0.736674
9156.000000;0.736917
9155.000000;0.736961
9154.000000;0.736703
9153.000000;0.736315
9152.000000;0.735911
9151.000000;0.735449
9150.000000;0.734997
9149.000000;0.734767
9148.000000;0.734780
9147.000000;0.734795
9146.000000;0.734665
9145.000000;0.734481
9144.000000;0.734287
9143.000000;0.733947
9142.000000;0.733436
9141.000000;0.732980
9140.000000;0.732732
9139.000000;0.732540
9138.000000;0.732198
9137.000000;0.731732
9136.000000;0.731313
9135.000000;0.731051
9134.000000;0.730982
9133.000000;0.731074
9132.000000;0.731144
9131.000000;0.730989
9130.000000;0.730690
9129.000000;0.730556
9128.000000;0.730680
9127.000000;0.730751
9126.000000;0.730460
9125.000000;0.729885
9124.000000;0.729361
9123.000000;0.729124
9122.000000;0.729205
9121.000000;0.729473
9120.000000;0.729663
9119.000000;0.729514
9118.000000;0.729015
9117.000000;0.728416
9116.000000;0.727922
9115.000000;0.727523
9114.000000;0.727165
9113.000000;0.726886
9112.000000;0.726676
9111.000000;0.726405
9110.000000;0.726014
9109.000000;0.725657
9108.000000;0.725509
9107.000000;0.725532
9106.000000;0.725537
9105.000000;0.725395
9104.000000;0.725122
9103.000000;0.724821
9102.000000;0.724579
9101.000000;0.724387
9100.000000;0.724195
9099.000000;0.724050
9098.000000;0.724095
9097.000000;0.724298
9096.000000;0.724334
9095.000000;0.723949
9094.000000;0.723337
9093.000000;0.722919
9092.000000;0.722785
9091.000000;0.722622
9090.000000;0.722157
9089.000000;0.721450
9088.000000;0.720722
9087.000000;0.720147
9086.000000;0.719841
9085.000000;0.719821
9084.000000;0.719921
9083.000000;0.719906
9082.000000;0.719726
9081.000000;0.719525
9080.000000;0.719423
9079.000000;0.719460
9078.000000;0.719676
9077.000000;0.720042
9076.000000;0.720345
9075.000000;0.720349
9074.000000;0.720058
9073.000000;0.719627
9072.000000;0.719117
9071.000000;0.718558
9070.000000;0.718149
9069.000000;0.718071
9068.000000;0.718138
9067.000000;0.717962
9066.000000;0.717462
9065.000000;0.716927
9064.000000;0.716587
9063.000000;0.716417
9062.000000;0.716375
9061.000000;0.716489
9060.000000;0.716639
9059.000000;0.716560
9058.000000;0.716133
9057.000000;0.715474
9056.000000;0.714730
9055.000000;0.714018
9054.000000;0.713550
9053.000000;0.713483
