Criado como novo conjunto de dados;"e2410_daniel_v2.spp","5582.3 Secs"
cm-1;Abs
10000.000000;0.151305
9999.000000;0.150920
9998.000000;0.150530
9997.000000;0.150152
9996.000000;0.149707
9995.000000;0.149163
9994.000000;0.148618
9993.000000;0.148109
9992.000000;0.147601
9991.000000;0.147043
9990.000000;0.146475
9989.000000;0.146015
9988.000000;0.145721
9987.000000;0.145502
9986.000000;0.145181
9985.000000;0.144648
9984.000000;0.143949
9983.000000;0.143236
9982.000000;0.142649
9981.000000;0.142217
9980.000000;0.141862
9979.000000;0.141484
9978.000000;0.141059
9977.000000;0.140635
9976.000000;0.140240
9975.000000;0.139841
9974.000000;0.139388
9973.000000;0.138882
9972.000000;0.138372
9971.000000;0.137893
9970.000000;0.137438
9969.000000;0.136969
9968.000000;0.136460
9967.000000;0.135916
9966.000000;0.135384
9965.000000;0.134924
9964.000000;0.134541
9963.000000;0.134168
9962.000000;0.133741
9961.000000;0.133275
9960.000000;0.132835
9959.000000;0.132428
9958.000000;0.131978
9957.000000;0.131433
9956.000000;0.130830
9955.000000;0.130233
9954.000000;0.129653
9953.000000;0.129069
9952.000000;0.128507
9951.000000;0.128029
9950.000000;0.127644
9949.000000;0.127286
9948.000000;0.126880
9947.000000;0.126402
9946.000000;0.125866
9945.000000;0.125290
9944.000000;0.124694
9943.000000;0.124102
9942.000000;0.123550
9941.000000;0.123086
9940.000000;0.122754
9939.000000;0.122524
9938.000000;0.122275
9937.000000;0.121892
9936.000000;0.121379
9935.000000;0.120822
9934.000000;0.120246
9933.000000;0.119601
9932.000000;0.118906
9931.000000;0.118288
9930.000000;0.117848
9929.000000;0.117521
9928.000000;0.117170
9927.000000;0.116745
9926.000000;0.116293
9925.000000;0.115838
9924.000000;0.115361
9923.000000;0.114871
9922.000000;0.114424
9921.000000;0.114058
9920.000000;0.113744
9919.000000;0.113414
9918.000000;0.113005
9917.000000;0.112478
9916.000000;0.111861
9915.000000;0.111256
9914.000000;0.110762
9913.000000;0.110372
9912.000000;0.110001
9911.000000;0.109603
9910.000000;0.109205
9909.000000;0.108826
9908.000000;0.108441
9907.000000;0.108025
9906.000000;0.107591
9905.000000;0.107151
9904.000000;0.106685
9903.000000;0.106178
9902.000000;0.105658
9901.000000;0.105163
9900.000000;0.104708
9899.000000;0.104285
9898.000000;0.103877
9897.000000;0.103466
9896.000000;0.103050
9895.000000;0.102651
9894.000000;0.102269
9893.000000;0.101846
9892.000000;0.101317
9891.000000;0.100715
9890.000000;0.100147
9889.000000;0.099662
9888.000000;0.099181
9887.000000;0.098621
9886.000000;0.098039
9885.000000;0.097579
9884.000000;0.097308
9883.000000;0.097135
9882.000000;0.096916
9881.000000;0.096580
9880.000000;0.096153
9879.000000;0.095675
9878.000000;0.095137
9877.000000;0.094507
9876.000000;0.093812
9875.000000;0.093159
9874.000000;0.092640
9873.000000;0.092230
9872.000000;0.091806
9871.000000;0.091287
9870.000000;0.090717
9869.000000;0.090210
9868.000000;0.089817
9867.000000;0.089468
9866.000000;0.089052
9865.000000;0.088543
9864.000000;0.088039
9863.000000;0.087649
9862.000000;0.087345
9861.000000;0.086966
9860.000000;0.086413
9859.000000;0.085789
9858.000000;0.085300
9857.000000;0.085020
9856.000000;0.084829
9855.000000;0.084553
9854.000000;0.084118
9853.000000;0.083552
9852.000000;0.082913
9851.000000;0.082259
9850.000000;0.081642
9849.000000;0.081096
9848.000000;0.080648
9847.000000;0.080306
9846.000000;0.080032
9845.000000;0.079724
9844.000000;0.079311
9843.000000;0.078855
9842.000000;0.078492
9841.000000;0.078237
9840.000000;0.077929
9839.000000;0.077419
9838.000000;0.076754
9837.000000;0.076106
9836.000000;0.075571
9835.000000;0.075099
9834.000000;0.074599
9833.000000;0.074027
9832.000000;0.073394
9831.000000;0.072756
9830.000000;0.072203
9829.000000;0.071813
9828.000000;0.071556
9827.000000;0.071283
9826.000000;0.070847
9825.000000;0.070241
9824.000000;0.069607
9823.000000;0.069096
9822.000000;0.068739
9821.000000;0.068449
9820.000000;0.068150
9819.000000;0.067848
9818.000000;0.067554
9817.000000;0.067197
9816.000000;0.066702
9815.000000;0.066125
9814.000000;0.065641
9813.000000;0.065352
9812.000000;0.065183
9811.000000;0.064971
9810.000000;0.064605
9809.000000;0.064051
9808.000000;0.063334
9807.000000;0.062556
9806.000000;0.061878
9805.000000;0.061386
9804.000000;0.061005
9803.000000;0.060589
9802.000000;0.060097
9801.000000;0.059606
9800.000000;0.059204
9799.000000;0.058907
9798.000000;0.058682
9797.000000;0.058464
9796.000000;0.058158
9795.000000;0.057708
9794.000000;0.057179
9793.000000;0.056720
9792.000000;0.056409
9791.000000;0.056174
9790.000000;0.055866
9789.000000;0.055389
9788.000000;0.054731
9787.000000;0.053964
9786.000000;0.053216
9785.000000;0.052606
9784.000000;0.052166
9783.000000;0.051814
9782.000000;0.051441
9781.000000;0.050995
9780.000000;0.050496
9779.000000;0.049993
9778.000000;0.049546
9777.000000;0.049200
9776.000000;0.048928
9775.000000;0.048627
9774.000000;0.048203
9773.000000;0.047671
9772.000000;0.047135
9771.000000;0.046676
9770.000000;0.046275
9769.000000;0.045869
9768.000000;0.045448
9767.000000;0.045047
9766.000000;0.044676
9765.000000;0.044288
9764.000000;0.043839
9763.000000;0.043355
9762.000000;0.042906
9761.000000;0.042519
9760.000000;0.042148
9759.000000;0.041739
9758.000000;0.041305
9757.000000;0.040915
9756.000000;0.040594
9755.000000;0.040278
9754.000000;0.039862
9753.000000;0.039310
9752.000000;0.038693
9751.000000;0.038120
9750.000000;0.037637
9749.000000;0.037197
9748.000000;0.036727
9747.000000;0.036211
9746.000000;0.035697
9745.000000;0.035238
9744.000000;0.034840
9743.000000;0.034456
9742.000000;0.034022
9741.000000;0.033519
9740.000000;0.032995
9739.000000;0.032533
9738.000000;0.032178
9737.000000;0.031905
9736.000000;0.031646
9735.000000;0.031328
9734.000000;0.030900
9733.000000;0.030368
9732.000000;0.029832
9731.000000;0.029424
9730.000000;0.029164
9729.000000;0.028916
9728.000000;0.028552
9727.000000;0.028097
9726.000000;0.027671
9725.000000;0.027302
9724.000000;0.026912
9723.000000;0.026473
9722.000000;0.026051
9721.000000;0.025676
9720.000000;0.025255
9719.000000;0.024710
9718.000000;0.024099
9717.000000;0.023543
9716.000000;0.023070
9715.000000;0.022632
9714.000000;0.022216
9713.000000;0.021862
9712.000000;0.021576
9711.000000;0.021302
9710.000000;0.020975
9709.000000;0.020547
9708.000000;0.019974
9707.000000;0.019259
9706.000000;0.018535
9705.000000;0.017999
9704.000000;0.017736
9703.000000;0.017630
9702.000000;0.017479
9701.000000;0.017180
9700.000000;0.016764
9699.000000;0.016316
9698.000000;0.015894
9697.000000;0.015508
9696.000000;0.015139
9695.000000;0.014754
9694.000000;0.014323
9693.000000;0.013828
9692.000000;0.013257
9691.000000;0.012624
9690.000000;0.011992
9689.000000;0.011457
9688.000000;0.011067
9687.000000;0.010766
9686.000000;0.010427
9685.000000;0.009972
9684.000000;0.009443
9683.000000;0.008971
9682.000000;0.008671
9681.000000;0.008558
9680.000000;0.008522
9679.000000;0.008388
9678.000000;0.008024
9677.000000;0.007435
9676.000000;0.006751
9675.000000;0.006129
9674.000000;0.005637
9673.000000;0.005242
9672.000000;0.004890
9671.000000;0.004575
9670.000000;0.004311
9669.000000;0.004053
9668.000000;0.003706
9667.000000;0.003224
9666.000000;0.002674
9665.000000;0.002167
9664.000000;0.001733
9663.000000;0.001308
9662.000000;0.000839
9661.000000;0.000367
9660.000000;-0.000015
9659.000000;-0.000291
9658.000000;-0.000558
9657.000000;-0.000939
9656.000000;-0.001466
9655.000000;-0.002063
9654.000000;-0.002617
9653.000000;-0.003057
9652.000000;-0.003375
9651.000000;-0.003608
9650.000000;-0.003830
9649.000000;-0.004113
9648.000000;-0.004489
9647.000000;-0.004927
9646.000000;-0.005364
9645.000000;-0.005760
9644.000000;-0.006115
9643.000000;-0.006460
9642.000000;-0.006824
9641.000000;-0.007234
9640.000000;-0.007706
9639.000000;-0.008235
9638.000000;-0.008801
9637.000000;-0.009357
9636.000000;-0.009837
9635.000000;-0.010185
9634.000000;-0.010413
9633.000000;-0.010602
9632.000000;-0.010848
9631.000000;-0.011183
9630.000000;-0.011574
9629.000000;-0.011964
9628.000000;-0.012325
9627.000000;-0.012669
9626.000000;-0.013036
9625.000000;-0.013452
9624.000000;-0.013888
9623.000000;-0.014275
9622.000000;-0.014594
9621.000000;-0.014916
9620.000000;-0.015326
9619.000000;-0.015811
9618.000000;-0.016265
9617.000000;-0.016624
9616.000000;-0.016936
9615.000000;-0.017302
9614.000000;-0.017755
9613.000000;-0.018230
9612.000000;-0.018649
9611.000000;-0.019017
9610.000000;-0.019409
9609.000000;-0.019875
9608.000000;-0.020352
9607.000000;-0.020723
9606.000000;-0.020953
9605.000000;-0.021146
9604.000000;-0.021432
9603.000000;-0.021834
9602.000000;-0.022279
9601.000000;-0.022697
9600.000000;-0.023075
9599.000000;-0.023428
9598.000000;-0.023782
9597.000000;-0.024170
9596.000000;-0.024601
9595.000000;-0.025026
9594.000000;-0.025395
9593.000000;-0.025741
9592.000000;-0.026149
9591.000000;-0.026648
9590.000000;-0.027173
9589.000000;-0.027652
9588.000000;-0.028073
9587.000000;-0.028448
9586.000000;-0.028768
9585.000000;-0.029042
9584.000000;-0.029334
9583.000000;-0.029719
9582.000000;-0.030206
9581.000000;-0.030723
9580.000000;-0.031168
9579.000000;-0.031467
9578.000000;-0.031637
9577.000000;-0.031790
9576.000000;-0.032064
9575.000000;-0.032503
9574.000000;-0.033032
9573.000000;-0.033546
9572.000000;-0.033980
9571.000000;-0.034308
9570.000000;-0.034531
9569.000000;-0.034717
9568.000000;-0.034999
9567.000000;-0.035465
9566.000000;-0.036070
9565.000000;-0.036688
9564.000000;-0.037233
9563.000000;-0.037680
9562.000000;-0.038020
9561.000000;-0.038265
9560.000000;-0.038486
9559.000000;-0.038774
9558.000000;-0.039146
9557.000000;-0.039531
9556.000000;-0.039864
9555.000000;-0.040158
9554.000000;-0.040462
9553.000000;-0.040795
9552.000000;-0.041148
9551.000000;-0.041520
9550.000000;-0.041926
9549.000000;-0.042353
9548.000000;-0.042754
9547.000000;-0.043084
9546.000000;-0.043362
9545.000000;-0.043663
9544.000000;-0.044036
9543.000000;-0.044451
9542.000000;-0.044837
9541.000000;-0.045185
9540.000000;-0.045568
9539.000000;-0.046041
9538.000000;-0.046546
9537.000000;-0.046971
9536.000000;-0.047276
9535.000000;-0.047538
9534.000000;-0.047853
9533.000000;-0.048228
9532.000000;-0.048589
9531.000000;-0.048887
9530.000000;-0.049165
9529.000000;-0.049517
9528.000000;-0.049981
9527.000000;-0.050478
9526.000000;-0.050890
9525.000000;-0.051178
9524.000000;-0.051419
9523.000000;-0.051716
9522.000000;-0.052097
9521.000000;-0.052503
9520.000000;-0.052870
9519.000000;-0.053178
9518.000000;-0.053452
9517.000000;-0.053739
9516.000000;-0.054081
9515.000000;-0.054491
9514.000000;-0.054924
9513.000000;-0.055302
9512.000000;-0.055583
9511.000000;-0.055805
9510.000000;-0.056049
9509.000000;-0.056373
9508.000000;-0.056761
9507.000000;-0.057145
9506.000000;-0.057482
9505.000000;-0.057797
9504.000000;-0.058154
9503.000000;-0.058587
9502.000000;-0.059065
9501.000000;-0.059521
9500.000000;-0.059920
9499.000000;-0.060281
9498.000000;-0.060658
9497.000000;-0.061083
9496.000000;-0.061534
9495.000000;-0.061958
9494.000000;-0.062323
9493.000000;-0.062633
9492.000000;-0.062906
9491.000000;-0.063142
9490.000000;-0.063346
9489.000000;-0.063548
9488.000000;-0.063797
9487.000000;-0.064127
9486.000000;-0.064540
9485.000000;-0.065002
9484.000000;-0.065442
9483.000000;-0.065772
9482.000000;-0.065957
9481.000000;-0.066079
9480.000000;-0.066292
9479.000000;-0.066696
9478.000000;-0.067243
9477.000000;-0.067800
9476.000000;-0.068255
9475.000000;-0.068588
9474.000000;-0.068861
9473.000000;-0.069160
9472.000000;-0.069528
9471.000000;-0.069918
9470.000000;-0.070234
9469.000000;-0.070444
9468.000000;-0.070630
9467.000000;-0.070923
9466.000000;-0.071372
9465.000000;-0.071888
9464.000000;-0.072321
9463.000000;-0.072594
9462.000000;-0.072767
9461.000000;-0.072986
9460.000000;-0.073330
9459.000000;-0.073733
9458.000000;-0.074062
9457.000000;-0.074271
9456.000000;-0.074454
9455.000000;-0.074728
9454.000000;-0.075110
9453.000000;-0.075529
9452.000000;-0.075925
9451.000000;-0.076304
9450.000000;-0.076678
9449.000000;-0.077018
9448.000000;-0.077276
9447.000000;-0.077455
9446.000000;-0.077641
9445.000000;-0.077930
9444.000000;-0.078335
9443.000000;-0.078762
9442.000000;-0.079112
9441.000000;-0.079378
9440.000000;-0.079640
9439.000000;-0.079973
9438.000000;-0.080382
9437.000000;-0.080827
9436.000000;-0.081254
9435.000000;-0.081610
9434.000000;-0.081861
9433.000000;-0.082037
9432.000000;-0.082228
9431.000000;-0.082503
9430.000000;-0.082851
9429.000000;-0.083205
9428.000000;-0.083519
9427.000000;-0.083793
9426.000000;-0.084048
9425.000000;-0.084310
9424.000000;-0.084614
9423.000000;-0.084972
9422.000000;-0.085341
9421.000000;-0.085639
9420.000000;-0.085823
9419.000000;-0.085957
9418.000000;-0.086170
9417.000000;-0.086539
9416.000000;-0.087015
9415.000000;-0.087478
9414.000000;-0.087872
9413.000000;-0.088255
9412.000000;-0.088703
9411.000000;-0.089202
9410.000000;-0.089655
9409.000000;-0.089994
9408.000000;-0.090244
9407.000000;-0.090474
9406.000000;-0.090730
9405.000000;-0.091027
9404.000000;-0.091363
9403.000000;-0.091726
9402.000000;-0.092092
9401.000000;-0.092433
9400.000000;-0.092730
9399.000000;-0.092973
9398.000000;-0.093171
9397.000000;-0.093363
9396.000000;-0.093589
9395.000000;-0.093857
9394.000000;-0.094147
9393.000000;-0.094444
9392.000000;-0.094759
9391.000000;-0.095100
9390.000000;-0.095453
9389.000000;-0.095796
9388.000000;-0.096113
9387.000000;-0.096400
9386.000000;-0.096666
9385.000000;-0.096932
9384.000000;-0.097208
9383.000000;-0.097472
9382.000000;-0.097716
9381.000000;-0.097978
9380.000000;-0.098306
9379.000000;-0.098688
9378.000000;-0.099060
9377.000000;-0.099395
9376.000000;-0.099726
9375.000000;-0.100076
9374.000000;-0.100418
9373.000000;-0.100723
9372.000000;-0.101007
9371.000000;-0.101296
9370.000000;-0.101573
9369.000000;-0.101810
9368.000000;-0.102024
9367.000000;-0.102264
9366.000000;-0.102558
9365.000000;-0.102889
9364.000000;-0.103223
9363.000000;-0.103527
9362.000000;-0.103776
9361.000000;-0.103985
9360.000000;-0.104214
9359.000000;-0.104535
9358.000000;-0.104964
9357.000000;-0.105437
9356.000000;-0.105839
9355.000000;-0.106089
9354.000000;-0.106206
9353.000000;-0.106314
9352.000000;-0.106545
9351.000000;-0.106912
9350.000000;-0.107311
9349.000000;-0.107638
9348.000000;-0.107880
9347.000000;-0.108086
9346.000000;-0.108289
9345.000000;-0.108505
9344.000000;-0.108765
9343.000000;-0.109103
9342.000000;-0.109503
9341.000000;-0.109899
9340.000000;-0.110239
9339.000000;-0.110522
9338.000000;-0.110785
9337.000000;-0.111068
9336.000000;-0.111378
9335.000000;-0.111690
9334.000000;-0.111968
9333.000000;-0.112201
9332.000000;-0.112411
9331.000000;-0.112635
9330.000000;-0.112899
9329.000000;-0.113201
9328.000000;-0.113503
9327.000000;-0.113749
9326.000000;-0.113933
9325.000000;-0.114135
9324.000000;-0.114451
9323.000000;-0.114875
9322.000000;-0.115297
9321.000000;-0.115641
9320.000000;-0.115931
9319.000000;-0.116216
9318.000000;-0.116479
9317.000000;-0.116682
9316.000000;-0.116845
9315.000000;-0.117036
9314.000000;-0.117285
9313.000000;-0.117570
9312.000000;-0.117872
9311.000000;-0.118193
9310.000000;-0.118519
9309.000000;-0.118823
9308.000000;-0.119103
9307.000000;-0.119378
9306.000000;-0.119651
9305.000000;-0.119906
9304.000000;-0.120151
9303.000000;-0.120418
9302.000000;-0.120718
9301.000000;-0.121020
9300.000000;-0.121287
9299.000000;-0.121511
9298.000000;-0.121703
9297.000000;-0.121865
9296.000000;-0.122006
9295.000000;-0.122154
9294.000000;-0.122336
9293.000000;-0.122559
9292.000000;-0.122813
9291.000000;-0.123091
9290.000000;-0.123407
9289.000000;-0.123771
9288.000000;-0.124157
9287.000000;-0.124493
9286.000000;-0.124719
9285.000000;-0.124847
9284.000000;-0.124954
9283.000000;-0.125105
9282.000000;-0.125315
9281.000000;-0.125574
9280.000000;-0.125894
9279.000000;-0.126273
9278.000000;-0.126651
9277.000000;-0.126947
9276.000000;-0.127148
9275.000000;-0.127326
9274.000000;-0.127556
9273.000000;-0.127848
9272.000000;-0.128162
9271.000000;-0.128462
9270.000000;-0.128754
9269.000000;-0.129064
9268.000000;-0.129389
9267.000000;-0.129680
9266.000000;-0.129884
9265.000000;-0.130011
9264.000000;-0.130141
9263.000000;-0.130347
9262.000000;-0.130615
9261.000000;-0.130874
9260.000000;-0.131079
9259.000000;-0.131247
9258.000000;-0.131400
9257.000000;-0.131541
9256.000000;-0.131677
9255.000000;-0.131850
9254.000000;-0.132100
9253.000000;-0.132420
9252.000000;-0.132756
9251.000000;-0.133063
9250.000000;-0.133345
9249.000000;-0.133625
9248.000000;-0.133909
9247.000000;-0.134180
9246.000000;-0.134438
9245.000000;-0.134713
9244.000000;-0.135021
9243.000000;-0.135327
9242.000000;-0.135569
9241.000000;-0.135736
9240.000000;-0.135885
9239.000000;-0.136082
9238.000000;-0.136342
9237.000000;-0.136635
9236.000000;-0.136928
9235.000000;-0.137195
9234.000000;-0.137418
9233.000000;-0.137602
9232.000000;-0.137778
9231.000000;-0.137965
9230.000000;-0.138160
9229.000000;-0.138371
9228.000000;-0.138638
9227.000000;-0.138974
9226.000000;-0.139315
9225.000000;-0.139564
9224.000000;-0.139694
9223.000000;-0.139781
9222.000000;-0.139923
9221.000000;-0.140153
9220.000000;-0.140452
9219.000000;-0.140792
9218.000000;-0.141152
9217.000000;-0.141505
9216.000000;-0.141801
9215.000000;-0.141994
9214.000000;-0.142091
9213.000000;-0.142173
9212.000000;-0.142351
9211.000000;-0.142662
9210.000000;-0.143028
9209.000000;-0.143335
9208.000000;-0.143555
9207.000000;-0.143755
9206.000000;-0.143991
9205.000000;-0.144246
9204.000000;-0.144471
9203.000000;-0.144663
9202.000000;-0.144847
9201.000000;-0.145028
9200.000000;-0.145196
9199.000000;-0.145370
9198.000000;-0.145580
9197.000000;-0.145804
9196.000000;-0.145980
9195.000000;-0.146094
9194.000000;-0.146215
9193.000000;-0.146407
9192.000000;-0.146647
9191.000000;-0.146871
9190.000000;-0.147087
9189.000000;-0.147368
9188.000000;-0.147734
9187.000000;-0.148091
9186.000000;-0.148344
9185.000000;-0.148511
9184.000000;-0.148682
9183.000000;-0.148902
9182.000000;-0.149144
9181.000000;-0.149387
9180.000000;-0.149644
9179.000000;-0.149917
9178.000000;-0.150164
9177.000000;-0.150352
9176.000000;-0.150509
9175.000000;-0.150701
9174.000000;-0.150968
9173.000000;-0.151292
9172.000000;-0.151609
9171.000000;-0.151842
9170.000000;-0.151966
9169.000000;-0.152038
9168.000000;-0.152142
9167.000000;-0.152301
9166.000000;-0.152468
9165.000000;-0.152619
9164.000000;-0.152780
9163.000000;-0.152976
9162.000000;-0.153184
9161.000000;-0.153388
9160.000000;-0.153619
9159.000000;-0.153905
9158.000000;-0.154203
9157.000000;-0.154438
9156.000000;-0.154588
9155.000000;-0.154710
9154.000000;-0.154877
9153.000000;-0.155130
9152.000000;-0.155453
9151.000000;-0.155767
9150.000000;-0.155967
9149.000000;-0.156012
9148.000000;-0.155990
9147.000000;-0.156050
9146.000000;-0.156287
9145.000000;-0.156688
9144.000000;-0.157165
9143.000000;-0.157594
9142.000000;-0.157873
9141.000000;-0.157976
9140.000000;-0.157989
9139.000000;-0.158034
9138.000000;-0.158178
9137.000000;-0.158416
9136.000000;-0.158725
9135.000000;-0.159078
9134.000000;-0.159409
9133.000000;-0.159635
9132.000000;-0.159720
9131.000000;-0.159705
9130.000000;-0.159670
9129.000000;-0.159680
9128.000000;-0.159779
9127.000000;-0.159977
9126.000000;-0.160236
9125.000000;-0.160494
9124.000000;-0.160722
9123.000000;-0.160934
9122.000000;-0.161149
9121.000000;-0.161366
9120.000000;-0.161592
9119.000000;-0.161831
9118.000000;-0.162055
9117.000000;-0.162218
9116.000000;-0.162344
9115.000000;-0.162522
9114.000000;-0.162792
9113.000000;-0.163072
9112.000000;-0.163258
9111.000000;-0.163352
9110.000000;-0.163448
9109.000000;-0.163605
9108.000000;-0.163796
9107.000000;-0.163986
9106.000000;-0.164177
9105.000000;-0.164381
9104.000000;-0.164583
9103.000000;-0.164772
9102.000000;-0.164978
9101.000000;-0.165228
9100.000000;-0.165490
9099.000000;-0.165699
9098.000000;-0.165837
9097.000000;-0.165962
9096.000000;-0.166131
9095.000000;-0.166329
9094.000000;-0.166493
9093.000000;-0.166593
9092.000000;-0.166661
9091.000000;-0.166759
9090.000000;-0.166927
9089.000000;-0.167163
9088.000000;-0.167429
9087.000000;-0.167659
9086.000000;-0.167794
9085.000000;-0.167847
9084.000000;-0.167910
9083.000000;-0.168073
9082.000000;-0.168337
9081.000000;-0.168627
