Criado como novo conjunto de dados;"e2410_daniel_v2.spp","14942.8 Secs"
cm-1;Abs
10000.000000;0.310878
9999.000000;0.310313
9998.000000;0.309620
9997.000000;0.309008
9996.000000;0.308612
9995.000000;0.308334
9994.000000;0.307966
9993.000000;0.307441
9992.000000;0.306862
9991.000000;0.306320
9990.000000;0.305770
9989.000000;0.305148
9988.000000;0.304480
9987.000000;0.303829
9986.000000;0.303193
9985.000000;0.302542
9984.000000;0.301913
9983.000000;0.301399
9982.000000;0.301042
9981.000000;0.300803
9980.000000;0.300614
9979.000000;0.300412
9978.000000;0.300130
9977.000000;0.299722
9976.000000;0.299196
9975.000000;0.298606
9974.000000;0.298004
9973.000000;0.297427
9972.000000;0.296882
9971.000000;0.296321
9970.000000;0.295656
9969.000000;0.294882
9968.000000;0.294146
9967.000000;0.293634
9966.000000;0.293377
9965.000000;0.293210
9964.000000;0.292939
9963.000000;0.292513
9962.000000;0.292034
9961.000000;0.291629
9960.000000;0.291324
9959.000000;0.291020
9958.000000;0.290594
9957.000000;0.290012
9956.000000;0.289345
9955.000000;0.288685
9954.000000;0.288077
9953.000000;0.287532
9952.000000;0.287033
9951.000000;0.286525
9950.000000;0.285957
9949.000000;0.285364
9948.000000;0.284869
9947.000000;0.284520
9946.000000;0.284200
9945.000000;0.283757
9944.000000;0.283196
9943.000000;0.282659
9942.000000;0.282216
9941.000000;0.281767
9940.000000;0.281185
9939.000000;0.280517
9938.000000;0.279972
9937.000000;0.279669
9936.000000;0.279450
9935.000000;0.279017
9934.000000;0.278269
9933.000000;0.277458
9932.000000;0.276917
9931.000000;0.276699
9930.000000;0.276538
9929.000000;0.276162
9928.000000;0.275561
9927.000000;0.274938
9926.000000;0.274487
9925.000000;0.274234
9924.000000;0.274029
9923.000000;0.273656
9922.000000;0.273024
9921.000000;0.272259
9920.000000;0.271562
9919.000000;0.270991
9918.000000;0.270469
9917.000000;0.269974
9916.000000;0.269568
9915.000000;0.269241
9914.000000;0.268849
9913.000000;0.268315
9912.000000;0.267746
9911.000000;0.267284
9910.000000;0.266924
9909.000000;0.266563
9908.000000;0.266133
9907.000000;0.265604
9906.000000;0.264955
9905.000000;0.264238
9904.000000;0.263600
9903.000000;0.263132
9902.000000;0.262753
9901.000000;0.262333
9900.000000;0.261873
9899.000000;0.261466
9898.000000;0.261139
9897.000000;0.260838
9896.000000;0.260494
9895.000000;0.260032
9894.000000;0.259378
9893.000000;0.258563
9892.000000;0.257793
9891.000000;0.257289
9890.000000;0.257055
9889.000000;0.256890
9888.000000;0.256600
9887.000000;0.256151
9886.000000;0.255625
9885.000000;0.255130
9884.000000;0.254726
9883.000000;0.254364
9882.000000;0.253922
9881.000000;0.253332
9880.000000;0.252664
9879.000000;0.252031
9878.000000;0.251486
9877.000000;0.251043
9876.000000;0.250706
9875.000000;0.250391
9874.000000;0.249914
9873.000000;0.249186
9872.000000;0.248373
9871.000000;0.247736
9870.000000;0.247340
9869.000000;0.247023
9868.000000;0.246630
9867.000000;0.246161
9866.000000;0.245687
9865.000000;0.245260
9864.000000;0.244926
9863.000000;0.244709
9862.000000;0.244542
9861.000000;0.244274
9860.000000;0.243803
9859.000000;0.243169
9858.000000;0.242511
9857.000000;0.241951
9856.000000;0.241503
9855.000000;0.241071
9854.000000;0.240540
9853.000000;0.239916
9852.000000;0.239332
9851.000000;0.238868
9850.000000;0.238442
9849.000000;0.237929
9848.000000;0.237359
9847.000000;0.236873
9846.000000;0.236515
9845.000000;0.236180
9844.000000;0.235768
9843.000000;0.235308
9842.000000;0.234886
9841.000000;0.234508
9840.000000;0.234085
9839.000000;0.233525
9838.000000;0.232839
9837.000000;0.232157
9836.000000;0.231622
9835.000000;0.231246
9834.000000;0.230909
9833.000000;0.230515
9832.000000;0.230083
9831.000000;0.229671
9830.000000;0.229253
9829.000000;0.228762
9828.000000;0.228204
9827.000000;0.227670
9826.000000;0.227259
9825.000000;0.227002
9824.000000;0.226834
9823.000000;0.226593
9822.000000;0.226115
9821.000000;0.225396
9820.000000;0.224612
9819.000000;0.223948
9818.000000;0.223448
9817.000000;0.223068
9816.000000;0.222775
9815.000000;0.222528
9814.000000;0.222227
9813.000000;0.221815
9812.000000;0.221350
9811.000000;0.220900
9810.000000;0.220421
9809.000000;0.219845
9808.000000;0.219239
9807.000000;0.218744
9806.000000;0.218389
9805.000000;0.218073
9804.000000;0.217699
9803.000000;0.217230
9802.000000;0.216626
9801.000000;0.215885
9800.000000;0.215137
9799.000000;0.214571
9798.000000;0.214226
9797.000000;0.213929
9796.000000;0.213475
9795.000000;0.212826
9794.000000;0.212128
9793.000000;0.211607
9792.000000;0.211415
9791.000000;0.211494
9790.000000;0.211566
9789.000000;0.211341
9788.000000;0.210768
9787.000000;0.210046
9786.000000;0.209386
9785.000000;0.208846
9784.000000;0.208362
9783.000000;0.207870
9782.000000;0.207354
9781.000000;0.206845
9780.000000;0.206384
9779.000000;0.205982
9778.000000;0.205598
9777.000000;0.205199
9776.000000;0.204800
9775.000000;0.204406
9774.000000;0.203964
9773.000000;0.203438
9772.000000;0.202903
9771.000000;0.202462
9770.000000;0.202096
9769.000000;0.201679
9768.000000;0.201142
9767.000000;0.200556
9766.000000;0.200034
9765.000000;0.199623
9764.000000;0.199306
9763.000000;0.199019
9762.000000;0.198655
9761.000000;0.198128
9760.000000;0.197471
9759.000000;0.196816
9758.000000;0.196259
9757.000000;0.195795
9756.000000;0.195389
9755.000000;0.195041
9754.000000;0.194746
9753.000000;0.194417
9752.000000;0.193953
9751.000000;0.193360
9750.000000;0.192777
9749.000000;0.192335
9748.000000;0.191998
9747.000000;0.191583
9746.000000;0.190977
9745.000000;0.190301
9744.000000;0.189795
9743.000000;0.189546
9742.000000;0.189397
9741.000000;0.189131
9740.000000;0.188677
9739.000000;0.188105
9738.000000;0.187507
9737.000000;0.186947
9736.000000;0.186465
9735.000000;0.186032
9734.000000;0.185558
9733.000000;0.184999
9732.000000;0.184429
9731.000000;0.183932
9730.000000;0.183484
9729.000000;0.183000
9728.000000;0.182480
9727.000000;0.182016
9726.000000;0.181676
9725.000000;0.181445
9724.000000;0.181268
9723.000000;0.181074
9722.000000;0.180791
9721.000000;0.180394
9720.000000;0.179929
9719.000000;0.179433
9718.000000;0.178881
9717.000000;0.178268
9716.000000;0.177701
9715.000000;0.177298
9714.000000;0.177029
9713.000000;0.176734
9712.000000;0.176312
9711.000000;0.175807
9710.000000;0.175300
9709.000000;0.174801
9708.000000;0.174275
9707.000000;0.173725
9706.000000;0.173214
9705.000000;0.172811
9704.000000;0.172528
9703.000000;0.172294
9702.000000;0.172024
9701.000000;0.171705
9700.000000;0.171370
9699.000000;0.171009
9698.000000;0.170562
9697.000000;0.170051
9696.000000;0.169590
9695.000000;0.169220
9694.000000;0.168834
9693.000000;0.168346
9692.000000;0.167853
9691.000000;0.167490
9690.000000;0.167213
9689.000000;0.166868
9688.000000;0.166425
9687.000000;0.166000
9686.000000;0.165651
9685.000000;0.165296
9684.000000;0.164848
9683.000000;0.164331
9682.000000;0.163806
9681.000000;0.163298
9680.000000;0.162805
9679.000000;0.162315
9678.000000;0.161785
9677.000000;0.161187
9676.000000;0.160582
9675.000000;0.160086
9674.000000;0.159736
9673.000000;0.159464
9672.000000;0.159206
9671.000000;0.158943
9670.000000;0.158623
9669.000000;0.158163
9668.000000;0.157562
9667.000000;0.156936
9666.000000;0.156404
9665.000000;0.155979
9664.000000;0.155621
9663.000000;0.155320
9662.000000;0.155078
9661.000000;0.154849
9660.000000;0.154556
9659.000000;0.154155
9658.000000;0.153657
9657.000000;0.153116
9656.000000;0.152609
9655.000000;0.152186
9654.000000;0.151830
9653.000000;0.151470
9652.000000;0.151040
9651.000000;0.150530
9650.000000;0.149984
9649.000000;0.149478
9648.000000;0.149075
9647.000000;0.148767
9646.000000;0.148462
9645.000000;0.148070
9644.000000;0.147597
9643.000000;0.147122
9642.000000;0.146698
9641.000000;0.146311
9640.000000;0.145936
9639.000000;0.145573
9638.000000;0.145231
9637.000000;0.144903
9636.000000;0.144571
9635.000000;0.144190
9634.000000;0.143690
9633.000000;0.143056
9632.000000;0.142381
9631.000000;0.141802
9630.000000;0.141387
9629.000000;0.141119
9628.000000;0.140963
9627.000000;0.140877
9626.000000;0.140771
9625.000000;0.140522
9624.000000;0.140079
9623.000000;0.139511
9622.000000;0.138920
9621.000000;0.138358
9620.000000;0.137827
9619.000000;0.137332
9618.000000;0.136888
9617.000000;0.136505
9616.000000;0.136166
9615.000000;0.135838
9614.000000;0.135485
9613.000000;0.135089
9612.000000;0.134658
9611.000000;0.134206
9610.000000;0.133746
9609.000000;0.133298
9608.000000;0.132887
9607.000000;0.132513
9606.000000;0.132160
9605.000000;0.131823
9604.000000;0.131505
9603.000000;0.131168
9602.000000;0.130750
9601.000000;0.130249
9600.000000;0.129752
9599.000000;0.129345
9598.000000;0.129018
9597.000000;0.128706
9596.000000;0.128355
9595.000000;0.127939
9594.000000;0.127454
9593.000000;0.126957
9592.000000;0.126555
9591.000000;0.126286
9590.000000;0.126048
9589.000000;0.125710
9588.000000;0.125266
9587.000000;0.124823
9586.000000;0.124456
9585.000000;0.124144
9584.000000;0.123810
9583.000000;0.123388
9582.000000;0.122841
9581.000000;0.122206
9580.000000;0.121604
9579.000000;0.121151
9578.000000;0.120865
9577.000000;0.120671
9576.000000;0.120496
9575.000000;0.120292
9574.000000;0.120018
9573.000000;0.119663
9572.000000;0.119267
9571.000000;0.118864
9570.000000;0.118419
9569.000000;0.117889
9568.000000;0.117322
9567.000000;0.116834
9566.000000;0.116478
9565.000000;0.116191
9564.000000;0.115881
9563.000000;0.115520
9562.000000;0.115148
9561.000000;0.114822
9560.000000;0.114562
9559.000000;0.114317
9558.000000;0.113987
9557.000000;0.113520
9556.000000;0.112967
9555.000000;0.112409
9554.000000;0.111859
9553.000000;0.111303
9552.000000;0.110799
9551.000000;0.110444
9550.000000;0.110237
9549.000000;0.110043
9548.000000;0.109744
9547.000000;0.109373
9546.000000;0.109041
9545.000000;0.108792
9544.000000;0.108544
9543.000000;0.108200
9542.000000;0.107741
9541.000000;0.107214
9540.000000;0.106654
9539.000000;0.106073
9538.000000;0.105529
9537.000000;0.105133
9536.000000;0.104934
9535.000000;0.104820
9534.000000;0.104615
9533.000000;0.104266
9532.000000;0.103854
9531.000000;0.103430
9530.000000;0.102941
9529.000000;0.102384
9528.000000;0.101907
9527.000000;0.101665
9526.000000;0.101620
9525.000000;0.101564
9524.000000;0.101321
9523.000000;0.100874
9522.000000;0.100319
9521.000000;0.099775
9520.000000;0.099326
9519.000000;0.098976
9518.000000;0.098661
9517.000000;0.098313
9516.000000;0.097912
9515.000000;0.097472
9514.000000;0.097030
9513.000000;0.096654
9512.000000;0.096411
9511.000000;0.096273
9510.000000;0.096108
9509.000000;0.095817
9508.000000;0.095418
9507.000000;0.094974
9506.000000;0.094496
9505.000000;0.093993
9504.000000;0.093518
9503.000000;0.093098
9502.000000;0.092667
9501.000000;0.092167
9500.000000;0.091659
9499.000000;0.091243
9498.000000;0.090925
9497.000000;0.090636
9496.000000;0.090348
9495.000000;0.090060
9494.000000;0.089730
9493.000000;0.089312
9492.000000;0.088860
9491.000000;0.088457
9490.000000;0.088079
9489.000000;0.087628
9488.000000;0.087105
9487.000000;0.086649
9486.000000;0.086368
9485.000000;0.086225
9484.000000;0.086101
9483.000000;0.085895
9482.000000;0.085559
9481.000000;0.085120
9480.000000;0.084671
9479.000000;0.084280
9478.000000;0.083910
9477.000000;0.083496
9476.000000;0.083088
9475.000000;0.082805
9474.000000;0.082654
9473.000000;0.082483
9472.000000;0.082162
9471.000000;0.081717
9470.000000;0.081270
9469.000000;0.080898
9468.000000;0.080605
9467.000000;0.080349
9466.000000;0.080050
9465.000000;0.079652
9464.000000;0.079192
9463.000000;0.078780
9462.000000;0.078471
9461.000000;0.078192
9460.000000;0.077832
9459.000000;0.077367
9458.000000;0.076874
9457.000000;0.076462
9456.000000;0.076187
9455.000000;0.076020
9454.000000;0.075860
9453.000000;0.075614
9452.000000;0.075283
9451.000000;0.074941
9450.000000;0.074636
9449.000000;0.074350
9448.000000;0.074040
9447.000000;0.073677
9446.000000;0.073241
9445.000000;0.072724
9444.000000;0.072173
9443.000000;0.071665
9442.000000;0.071254
9441.000000;0.070943
9440.000000;0.070725
9439.000000;0.070590
9438.000000;0.070491
9437.000000;0.070340
9436.000000;0.070067
9435.000000;0.069670
9434.000000;0.069207
9433.000000;0.068757
9432.000000;0.068374
9431.000000;0.068064
9430.000000;0.067790
9429.000000;0.067522
9428.000000;0.067265
9427.000000;0.067015
9426.000000;0.066741
9425.000000;0.066436
9424.000000;0.066149
9423.000000;0.065903
9422.000000;0.065619
9421.000000;0.065200
9420.000000;0.064678
9419.000000;0.064189
9418.000000;0.063810
9417.000000;0.063491
9416.000000;0.063163
9415.000000;0.062816
9414.000000;0.062463
9413.000000;0.062097
9412.000000;0.061740
9411.000000;0.061457
9410.000000;0.061270
9409.000000;0.061092
9408.000000;0.060811
9407.000000;0.060422
9406.000000;0.060010
9405.000000;0.059637
9404.000000;0.059275
9403.000000;0.058863
9402.000000;0.058394
9401.000000;0.057937
9400.000000;0.057580
9399.000000;0.057352
9398.000000;0.057197
9397.000000;0.057012
9396.000000;0.056724
9395.000000;0.056341
9394.000000;0.055934
9393.000000;0.055584
9392.000000;0.055306
9391.000000;0.055044
9390.000000;0.054729
9389.000000;0.054376
9388.000000;0.054074
9387.000000;0.053882
9386.000000;0.053741
9385.000000;0.053532
9384.000000;0.053207
9383.000000;0.052842
9382.000000;0.052544
9381.000000;0.052339
9380.000000;0.052152
9379.000000;0.051877
9378.000000;0.051470
9377.000000;0.050986
9376.000000;0.050525
9375.000000;0.050142
9374.000000;0.049811
9373.000000;0.049478
9372.000000;0.049111
9371.000000;0.048725
9370.000000;0.048369
9369.000000;0.048113
9368.000000;0.047998
9367.000000;0.047965
9366.000000;0.047856
9365.000000;0.047541
9364.000000;0.047034
9363.000000;0.046478
9362.000000;0.046034
9361.000000;0.045763
9360.000000;0.045591
9359.000000;0.045375
9358.000000;0.045037
9357.000000;0.044661
9356.000000;0.044405
9355.000000;0.044309
9354.000000;0.044232
9353.000000;0.044021
9352.000000;0.043674
9351.000000;0.043296
9350.000000;0.042948
9349.000000;0.042613
9348.000000;0.042268
9347.000000;0.041921
9346.000000;0.041564
9345.000000;0.041171
9344.000000;0.040733
9343.000000;0.040280
9342.000000;0.039851
9341.000000;0.039474
9340.000000;0.039154
9339.000000;0.038874
9338.000000;0.038614
9337.000000;0.038377
9336.000000;0.038157
9335.000000;0.037889
9334.000000;0.037502
9333.000000;0.037052
9332.000000;0.036735
9331.000000;0.036680
9330.000000;0.036776
9329.000000;0.036777
9328.000000;0.036546
9327.000000;0.036130
9326.000000;0.035646
9325.000000;0.035186
9324.000000;0.034814
9323.000000;0.034559
9322.000000;0.034361
9321.000000;0.034113
9320.000000;0.033780
9319.000000;0.033440
9318.000000;0.033181
9317.000000;0.032995
9316.000000;0.032807
9315.000000;0.032552
9314.000000;0.032212
9313.000000;0.031800
9312.000000;0.031354
9311.000000;0.030944
9310.000000;0.030639
9309.000000;0.030450
9308.000000;0.030310
9307.000000;0.030131
9306.000000;0.029895
9305.000000;0.029662
9304.000000;0.029481
9303.000000;0.029308
9302.000000;0.029059
9301.000000;0.028742
9300.000000;0.028457
9299.000000;0.028247
9298.000000;0.028034
9297.000000;0.027719
9296.000000;0.027320
9295.000000;0.026927
9294.000000;0.026586
9293.000000;0.026272
9292.000000;0.025955
9291.000000;0.025629
9290.000000;0.025300
9289.000000;0.024987
9288.000000;0.024715
9287.000000;0.024475
9286.000000;0.024208
9285.000000;0.023883
9284.000000;0.023555
9283.000000;0.023303
9282.000000;0.023122
9281.000000;0.022929
9280.000000;0.022669
9279.000000;0.022356
9278.000000;0.022037
9277.000000;0.021749
9276.000000;0.021521
9275.000000;0.021345
9274.000000;0.021154
9273.000000;0.020872
9272.000000;0.020496
9271.000000;0.020103
9270.000000;0.019768
9269.000000;0.019507
9268.000000;0.019281
9267.000000;0.019039
9266.000000;0.018769
9265.000000;0.018521
9264.000000;0.018352
9263.000000;0.018228
9262.000000;0.018022
9261.000000;0.017650
9260.000000;0.017177
9259.000000;0.016756
9258.000000;0.016477
9257.000000;0.016305
9256.000000;0.016153
9255.000000;0.015958
9254.000000;0.015710
9253.000000;0.015448
9252.000000;0.015233
9251.000000;0.015075
9250.000000;0.014909
9249.000000;0.014681
9248.000000;0.014418
9247.000000;0.014180
9246.000000;0.013971
9245.000000;0.013727
9244.000000;0.013403
9243.000000;0.013021
9242.000000;0.012645
9241.000000;0.012346
9240.000000;0.012167
9239.000000;0.012089
9238.000000;0.012026
9237.000000;0.011881
9236.000000;0.011607
9235.000000;0.011217
9234.000000;0.010769
9233.000000;0.010344
9232.000000;0.010023
9231.000000;0.009822
9230.000000;0.009697
9229.000000;0.009593
9228.000000;0.009476
9227.000000;0.009295
9226.000000;0.008993
9225.000000;0.008595
9224.000000;0.008225
9223.000000;0.007981
9222.000000;0.007831
9221.000000;0.007682
9220.000000;0.007493
9219.000000;0.007270
9218.000000;0.007003
9217.000000;0.006697
9216.000000;0.006412
9215.000000;0.006207
9214.000000;0.006058
9213.000000;0.005886
9212.000000;0.005647
9211.000000;0.005346
9210.000000;0.004989
9209.000000;0.004601
9208.000000;0.004262
9207.000000;0.004035
9206.000000;0.003893
9205.000000;0.003772
9204.000000;0.003656
9203.000000;0.003555
9202.000000;0.003431
9201.000000;0.003233
9200.000000;0.003001
9199.000000;0.002807
9198.000000;0.002624
9197.000000;0.002336
9196.000000;0.001912
9195.000000;0.001465
9194.000000;0.001119
9193.000000;0.000891
9192.000000;0.000728
9191.000000;0.000583
9190.000000;0.000408
9189.000000;0.000147
9188.000000;-0.000204
9187.000000;-0.000568
9186.000000;-0.000855
9185.000000;-0.001049
9184.000000;-0.001207
9183.000000;-0.001408
9182.000000;-0.001700
9181.000000;-0.002061
9180.000000;-0.002393
9179.000000;-0.002607
9178.000000;-0.002717
9177.000000;-0.002829
9176.000000;-0.003034
9175.000000;-0.003331
9174.000000;-0.003664
9173.000000;-0.003968
9172.000000;-0.004184
9171.000000;-0.004294
9170.000000;-0.004351
9169.000000;-0.004447
9168.000000;-0.004623
9167.000000;-0.004850
9166.000000;-0.005078
9165.000000;-0.005284
9164.000000;-0.005461
9163.000000;-0.005621
9162.000000;-0.005830
9161.000000;-0.006163
9160.000000;-0.006603
9159.000000;-0.007014
9158.000000;-0.007265
9157.000000;-0.007347
9156.000000;-0.007361
9155.000000;-0.007427
9154.000000;-0.007619
9153.000000;-0.007936
9152.000000;-0.008296
9151.000000;-0.008590
9150.000000;-0.008763
9149.000000;-0.008861
9148.000000;-0.008977
9147.000000;-0.009170
9146.000000;-0.009445
9145.000000;-0.009771
9144.000000;-0.010095
9143.000000;-0.010356
9142.000000;-0.010525
9141.000000;-0.010638
9140.000000;-0.010770
9139.000000;-0.010978
9138.000000;-0.011254
9137.000000;-0.011539
9136.000000;-0.011772
9135.000000;-0.011940
9134.000000;-0.012088
9133.000000;-0.012266
9132.000000;-0.012496
9131.000000;-0.012767
9130.000000;-0.013057
9129.000000;-0.013329
9128.000000;-0.013523
9127.000000;-0.013609
9126.000000;-0.013638
9125.000000;-0.013721
9124.000000;-0.013926
9123.000000;-0.014214
9122.000000;-0.014487
9121.000000;-0.014684
9120.000000;-0.014836
9119.000000;-0.015021
9118.000000;-0.015290
9117.000000;-0.015614
9116.000000;-0.015918
9115.000000;-0.016144
9114.000000;-0.016290
9113.000000;-0.016398
9112.000000;-0.016519
9111.000000;-0.016700
9110.000000;-0.016958
9109.000000;-0.017267
9108.000000;-0.017579
9107.000000;-0.017866
9106.000000;-0.018124
9105.000000;-0.018344
9104.000000;-0.018505
9103.000000;-0.018616
9102.000000;-0.018719
9101.000000;-0.018840
9100.000000;-0.018985
9099.000000;-0.019175
9098.000000;-0.019457
9097.000000;-0.019823
9096.000000;-0.020186
9095.000000;-0.020456
9094.000000;-0.020637
9093.000000;-0.020796
9092.000000;-0.020963
9091.000000;-0.021114
9090.000000;-0.021226
9089.000000;-0.021317
9088.000000;-0.021427
9087.000000;-0.021565
9086.000000;-0.021697
9085.000000;-0.021766
9084.000000;-0.021761
9083.000000;-0.021774
9082.000000;-0.021930
9081.000000;-0.022255
9080.000000;-0.022631
9079.000000;-0.022934
9078.000000;-0.023160
9077.000000;-0.023379
9076.000000;-0.023601
9075.000000;-0.023765
9074.000000;-0.023856
9073.000000;-0.023959
9072.000000;-0.024165
9071.000000;-0.024463
9070.000000;-0.024763
9069.000000;-0.024983
9068.000000;-0.025123
9067.000000;-0.025236
9066.000000;-0.025362
9065.000000;-0.025501
9064.000000;-0.025654
9063.000000;-0.025849
9062.000000;-0.026112
9061.000000;-0.026409
9060.000000;-0.026681
9059.000000;-0.026906
