Criado como novo conjunto de dados;"e2410_daniel_v2.spp","20162.8 Secs"
cm-1;Abs
10000.000000;0.477210
9999.000000;0.476550
9998.000000;0.475836
9997.000000;0.475108
9996.000000;0.474355
9995.000000;0.473557
9994.000000;0.472860
9993.000000;0.472426
9992.000000;0.472158
9991.000000;0.471794
9990.000000;0.471293
9989.000000;0.470835
9988.000000;0.470453
9987.000000;0.469982
9986.000000;0.469395
9985.000000;0.468852
9984.000000;0.468391
9983.000000;0.467882
9982.000000;0.467347
9981.000000;0.466973
9980.000000;0.466735
9979.000000;0.466345
9978.000000;0.465666
9977.000000;0.464887
9976.000000;0.464196
9975.000000;0.463576
9974.000000;0.463005
9973.000000;0.462567
9972.000000;0.462262
9971.000000;0.461944
9970.000000;0.461550
9969.000000;0.461133
9968.000000;0.460675
9967.000000;0.460092
9966.000000;0.459455
9965.000000;0.458926
9964.000000;0.458482
9963.000000;0.457973
9962.000000;0.457451
9961.000000;0.457100
9960.000000;0.456852
9959.000000;0.456404
9958.000000;0.455668
9957.000000;0.454899
9956.000000;0.454318
9955.000000;0.453930
9954.000000;0.453697
9953.000000;0.453578
9952.000000;0.453340
9951.000000;0.452695
9950.000000;0.451709
9949.000000;0.450788
9948.000000;0.450187
9947.000000;0.449822
9946.000000;0.449548
9945.000000;0.449318
9944.000000;0.449025
9943.000000;0.448526
9942.000000;0.447889
9941.000000;0.447329
9940.000000;0.446882
9939.000000;0.446431
9938.000000;0.446024
9937.000000;0.445802
9936.000000;0.445608
9935.000000;0.445073
9934.000000;0.444162
9933.000000;0.443282
9932.000000;0.442725
9931.000000;0.442362
9930.000000;0.441959
9929.000000;0.441471
9928.000000;0.440911
9927.000000;0.440241
9926.000000;0.439511
9925.000000;0.438857
9924.000000;0.438316
9923.000000;0.437843
9922.000000;0.437494
9921.000000;0.437332
9920.000000;0.437170
9919.000000;0.436760
9918.000000;0.436210
9917.000000;0.435837
9916.000000;0.435621
9915.000000;0.435199
9914.000000;0.434461
9913.000000;0.433700
9912.000000;0.433117
9911.000000;0.432576
9910.000000;0.431971
9909.000000;0.431453
9908.000000;0.431116
9907.000000;0.430789
9906.000000;0.430313
9905.000000;0.429747
9904.000000;0.429174
9903.000000;0.428564
9902.000000;0.427941
9901.000000;0.427426
9900.000000;0.427035
9899.000000;0.426688
9898.000000;0.426435
9897.000000;0.426389
9896.000000;0.426371
9895.000000;0.425984
9894.000000;0.425120
9893.000000;0.424101
9892.000000;0.423234
9891.000000;0.422532
9890.000000;0.421948
9889.000000;0.421559
9888.000000;0.421362
9887.000000;0.421172
9886.000000;0.420860
9885.000000;0.420479
9884.000000;0.420071
9883.000000;0.419577
9882.000000;0.419012
9881.000000;0.418488
9880.000000;0.418013
9879.000000;0.417495
9878.000000;0.416973
9877.000000;0.416581
9876.000000;0.416277
9875.000000;0.415870
9874.000000;0.415328
9873.000000;0.414765
9872.000000;0.414151
9871.000000;0.413351
9870.000000;0.412474
9869.000000;0.411844
9868.000000;0.411571
9867.000000;0.411446
9866.000000;0.411291
9865.000000;0.411093
9864.000000;0.410769
9863.000000;0.410161
9862.000000;0.409351
9861.000000;0.408646
9860.000000;0.408160
9859.000000;0.407710
9858.000000;0.407179
9857.000000;0.406682
9856.000000;0.406300
9855.000000;0.405963
9854.000000;0.405674
9853.000000;0.405537
9852.000000;0.405467
9851.000000;0.405164
9850.000000;0.404485
9849.000000;0.403599
9848.000000;0.402708
9847.000000;0.401886
9846.000000;0.401249
9845.000000;0.400943
9844.000000;0.400876
9843.000000;0.400713
9842.000000;0.400257
9841.000000;0.399595
9840.000000;0.398852
9839.000000;0.398076
9838.000000;0.397391
9837.000000;0.396957
9836.000000;0.396699
9835.000000;0.396360
9834.000000;0.395897
9833.000000;0.395523
9832.000000;0.395317
9831.000000;0.395077
9830.000000;0.394656
9829.000000;0.394132
9828.000000;0.393572
9827.000000;0.392912
9826.000000;0.392193
9825.000000;0.391609
9824.000000;0.391218
9823.000000;0.390847
9822.000000;0.390377
9821.000000;0.389896
9820.000000;0.389484
9819.000000;0.389072
9818.000000;0.388601
9817.000000;0.388109
9816.000000;0.387610
9815.000000;0.387095
9814.000000;0.386643
9813.000000;0.386319
9812.000000;0.385957
9811.000000;0.385319
9810.000000;0.384476
9809.000000;0.383763
9808.000000;0.383344
9807.000000;0.383084
9806.000000;0.382842
9805.000000;0.382590
9804.000000;0.382244
9803.000000;0.381674
9802.000000;0.380951
9801.000000;0.380311
9800.000000;0.379835
9799.000000;0.379413
9798.000000;0.379023
9797.000000;0.378734
9796.000000;0.378457
9795.000000;0.378007
9794.000000;0.377449
9793.000000;0.377063
9792.000000;0.376909
9791.000000;0.376732
9790.000000;0.376346
9789.000000;0.375812
9788.000000;0.375215
9787.000000;0.374580
9786.000000;0.374026
9785.000000;0.373674
9784.000000;0.373355
9783.000000;0.372753
9782.000000;0.371902
9781.000000;0.371203
9780.000000;0.370873
9779.000000;0.370692
9778.000000;0.370382
9777.000000;0.369914
9776.000000;0.369354
9775.000000;0.368723
9774.000000;0.368116
9773.000000;0.367684
9772.000000;0.367408
9771.000000;0.367105
9770.000000;0.366727
9769.000000;0.366394
9768.000000;0.366115
9767.000000;0.365776
9766.000000;0.365410
9765.000000;0.365156
9764.000000;0.364922
9763.000000;0.364441
9762.000000;0.363715
9761.000000;0.363051
9760.000000;0.362571
9759.000000;0.362065
9758.000000;0.361425
9757.000000;0.360849
9756.000000;0.360457
9755.000000;0.360050
9754.000000;0.359447
9753.000000;0.358778
9752.000000;0.358240
9751.000000;0.357820
9750.000000;0.357414
9749.000000;0.357023
9748.000000;0.356689
9747.000000;0.356399
9746.000000;0.356155
9745.000000;0.355961
9744.000000;0.355691
9743.000000;0.355190
9742.000000;0.354540
9741.000000;0.353978
9740.000000;0.353536
9739.000000;0.353030
9738.000000;0.352445
9737.000000;0.351981
9736.000000;0.351665
9735.000000;0.351242
9734.000000;0.350584
9733.000000;0.349911
9732.000000;0.349453
9731.000000;0.349158
9730.000000;0.348878
9729.000000;0.348584
9728.000000;0.348253
9727.000000;0.347773
9726.000000;0.347135
9725.000000;0.346531
9724.000000;0.346115
9723.000000;0.345816
9722.000000;0.345482
9721.000000;0.345061
9720.000000;0.344556
9719.000000;0.343979
9718.000000;0.343423
9717.000000;0.343003
9716.000000;0.342682
9715.000000;0.342300
9714.000000;0.341814
9713.000000;0.341318
9712.000000;0.340836
9711.000000;0.340296
9710.000000;0.339714
9709.000000;0.339172
9708.000000;0.338616
9707.000000;0.337929
9706.000000;0.337226
9705.000000;0.336803
9704.000000;0.336741
9703.000000;0.336781
9702.000000;0.336674
9701.000000;0.336405
9700.000000;0.336025
9699.000000;0.335516
9698.000000;0.334910
9697.000000;0.334323
9696.000000;0.333788
9695.000000;0.333252
9694.000000;0.332761
9693.000000;0.332444
9692.000000;0.332258
9691.000000;0.331984
9690.000000;0.331522
9689.000000;0.330983
9688.000000;0.330464
9687.000000;0.329938
9686.000000;0.329419
9685.000000;0.329016
9684.000000;0.328757
9683.000000;0.328539
9682.000000;0.328276
9681.000000;0.327950
9680.000000;0.327518
9679.000000;0.326959
9678.000000;0.326405
9677.000000;0.326009
9676.000000;0.325699
9675.000000;0.325263
9674.000000;0.324666
9673.000000;0.324072
9672.000000;0.323576
9671.000000;0.323145
9670.000000;0.322766
9669.000000;0.322439
9668.000000;0.322048
9667.000000;0.321491
9666.000000;0.320902
9665.000000;0.320474
9664.000000;0.320128
9663.000000;0.319633
9662.000000;0.319001
9661.000000;0.318471
9660.000000;0.318140
9659.000000;0.317916
9658.000000;0.317782
9657.000000;0.317769
9656.000000;0.317681
9655.000000;0.317234
9654.000000;0.316507
9653.000000;0.315889
9652.000000;0.315536
9651.000000;0.315220
9650.000000;0.314766
9649.000000;0.314271
9648.000000;0.313814
9647.000000;0.313305
9646.000000;0.312737
9645.000000;0.312274
9644.000000;0.311971
9643.000000;0.311673
9642.000000;0.311295
9641.000000;0.310939
9640.000000;0.310641
9639.000000;0.310283
9638.000000;0.309851
9637.000000;0.309510
9636.000000;0.309313
9635.000000;0.309079
9634.000000;0.308660
9633.000000;0.308101
9632.000000;0.307470
9631.000000;0.306763
9630.000000;0.306068
9629.000000;0.305559
9628.000000;0.305251
9627.000000;0.304967
9626.000000;0.304610
9625.000000;0.304264
9624.000000;0.303973
9623.000000;0.303667
9622.000000;0.303333
9621.000000;0.303018
9620.000000;0.302643
9619.000000;0.302077
9618.000000;0.301399
9617.000000;0.300835
9616.000000;0.300391
9615.000000;0.299879
9614.000000;0.299321
9613.000000;0.298979
9612.000000;0.298913
9611.000000;0.298826
9610.000000;0.298490
9609.000000;0.298008
9608.000000;0.297549
9607.000000;0.297102
9606.000000;0.296649
9605.000000;0.296293
9604.000000;0.296036
9603.000000;0.295671
9602.000000;0.295073
9601.000000;0.294393
9600.000000;0.293838
9599.000000;0.293434
9598.000000;0.293113
9597.000000;0.292847
9596.000000;0.292583
9595.000000;0.292222
9594.000000;0.291771
9593.000000;0.291331
9592.000000;0.290895
9591.000000;0.290365
9590.000000;0.289813
9589.000000;0.289481
9588.000000;0.289415
9587.000000;0.289316
9586.000000;0.288894
9585.000000;0.288192
9584.000000;0.287466
9583.000000;0.286912
9582.000000;0.286600
9581.000000;0.286477
9580.000000;0.286340
9579.000000;0.285965
9578.000000;0.285356
9577.000000;0.284729
9576.000000;0.284226
9575.000000;0.283814
9574.000000;0.283453
9573.000000;0.283173
9572.000000;0.282936
9571.000000;0.282639
9570.000000;0.282303
9569.000000;0.282050
9568.000000;0.281863
9567.000000;0.281561
9566.000000;0.281062
9565.000000;0.280470
9564.000000;0.279884
9563.000000;0.279323
9562.000000;0.278873
9561.000000;0.278648
9560.000000;0.278558
9559.000000;0.278337
9558.000000;0.277886
9557.000000;0.277365
9556.000000;0.276897
9555.000000;0.276423
9554.000000;0.275902
9553.000000;0.275442
9552.000000;0.275108
9551.000000;0.274815
9550.000000;0.274501
9549.000000;0.274228
9548.000000;0.274003
9547.000000;0.273692
9546.000000;0.273197
9545.000000;0.272584
9544.000000;0.271979
9543.000000;0.271465
9542.000000;0.271128
9541.000000;0.270989
9540.000000;0.270877
9539.000000;0.270541
9538.000000;0.269962
9537.000000;0.269375
9536.000000;0.268933
9535.000000;0.268550
9534.000000;0.268127
9533.000000;0.267739
9532.000000;0.267482
9531.000000;0.267297
9530.000000;0.267052
9529.000000;0.266689
9528.000000;0.266238
9527.000000;0.265765
9526.000000;0.265344
9525.000000;0.264975
9524.000000;0.264555
9523.000000;0.264035
9522.000000;0.263565
9521.000000;0.263306
9520.000000;0.263162
9519.000000;0.262872
9518.000000;0.262348
9517.000000;0.261739
9516.000000;0.261180
9515.000000;0.260706
9514.000000;0.260387
9513.000000;0.260306
9512.000000;0.260353
9511.000000;0.260244
9510.000000;0.259807
9509.000000;0.259112
9508.000000;0.258314
9507.000000;0.257555
9506.000000;0.257007
9505.000000;0.256771
9504.000000;0.256723
9503.000000;0.256614
9502.000000;0.256347
9501.000000;0.256010
9500.000000;0.255647
9499.000000;0.255217
9498.000000;0.254751
9497.000000;0.254351
9496.000000;0.253999
9495.000000;0.253582
9494.000000;0.253123
9493.000000;0.252786
9492.000000;0.252633
9491.000000;0.252549
9490.000000;0.252424
9489.000000;0.252214
9488.000000;0.251861
9487.000000;0.251344
9486.000000;0.250818
9485.000000;0.250480
9484.000000;0.250287
9483.000000;0.250001
9482.000000;0.249527
9481.000000;0.248992
9480.000000;0.248494
9479.000000;0.247981
9478.000000;0.247435
9477.000000;0.246948
9476.000000;0.246569
9475.000000;0.246225
9474.000000;0.245857
9473.000000;0.245489
9472.000000;0.245155
9471.000000;0.244872
9470.000000;0.244672
9469.000000;0.244524
9468.000000;0.244259
9467.000000;0.243758
9466.000000;0.243150
9465.000000;0.242661
9464.000000;0.242303
9463.000000;0.241921
9462.000000;0.241493
9461.000000;0.241151
9460.000000;0.240937
9459.000000;0.240748
9458.000000;0.240521
9457.000000;0.240261
9456.000000;0.239916
9455.000000;0.239450
9454.000000;0.239012
9453.000000;0.238792
9452.000000;0.238732
9451.000000;0.238588
9450.000000;0.238256
9449.000000;0.237812
9448.000000;0.237280
9447.000000;0.236624
9446.000000;0.235978
9445.000000;0.235589
9444.000000;0.235481
9443.000000;0.235412
9442.000000;0.235199
9441.000000;0.234881
9440.000000;0.234520
9439.000000;0.234111
9438.000000;0.233708
9437.000000;0.233433
9436.000000;0.233278
9435.000000;0.233090
9434.000000;0.232788
9433.000000;0.232436
9432.000000;0.232085
9431.000000;0.231711
9430.000000;0.231335
9429.000000;0.231015
9428.000000;0.230723
9427.000000;0.230386
9426.000000;0.230046
9425.000000;0.229786
9424.000000;0.229549
9423.000000;0.229203
9422.000000;0.228756
9421.000000;0.228307
9420.000000;0.227831
9419.000000;0.227238
9418.000000;0.226618
9417.000000;0.226180
9416.000000;0.225942
9415.000000;0.225733
9414.000000;0.225497
9413.000000;0.225340
9412.000000;0.225269
9411.000000;0.225137
9410.000000;0.224865
9409.000000;0.224515
9408.000000;0.224097
9407.000000;0.223551
9406.000000;0.222960
9405.000000;0.222543
9404.000000;0.222369
9403.000000;0.222262
9402.000000;0.222049
9401.000000;0.221723
9400.000000;0.221348
9399.000000;0.220959
9398.000000;0.220602
9397.000000;0.220316
9396.000000;0.220056
9395.000000;0.219756
9394.000000;0.219441
9393.000000;0.219141
9392.000000;0.218757
9391.000000;0.218202
9390.000000;0.217601
9389.000000;0.217134
9388.000000;0.216765
9387.000000;0.216337
9386.000000;0.215884
9385.000000;0.215574
9384.000000;0.215397
9383.000000;0.215166
9382.000000;0.214821
9381.000000;0.214480
9380.000000;0.214185
9379.000000;0.213881
9378.000000;0.213612
9377.000000;0.213476
9376.000000;0.213380
9375.000000;0.213114
9374.000000;0.212701
9373.000000;0.212414
9372.000000;0.212382
9371.000000;0.212441
9370.000000;0.212407
9369.000000;0.212259
9368.000000;0.211999
9367.000000;0.211576
9366.000000;0.211022
9365.000000;0.210458
9364.000000;0.209935
9363.000000;0.209435
9362.000000;0.209046
9361.000000;0.208896
9360.000000;0.208900
9359.000000;0.208798
9358.000000;0.208483
9357.000000;0.208085
9356.000000;0.207706
9355.000000;0.207309
9354.000000;0.206906
9353.000000;0.206611
9352.000000;0.206450
9351.000000;0.206298
9350.000000;0.206074
9349.000000;0.205802
9348.000000;0.205472
9347.000000;0.205037
9346.000000;0.204566
9345.000000;0.204195
9344.000000;0.203917
9343.000000;0.203592
9342.000000;0.203201
9341.000000;0.202855
9340.000000;0.202571
9339.000000;0.202251
9338.000000;0.201890
9337.000000;0.201587
9336.000000;0.201321
9335.000000;0.200968
9334.000000;0.200572
9333.000000;0.200341
9332.000000;0.200314
9331.000000;0.200258
9330.000000;0.199984
9329.000000;0.199564
9328.000000;0.199155
9327.000000;0.198798
9326.000000;0.198478
9325.000000;0.198203
9324.000000;0.197942
9323.000000;0.197628
9322.000000;0.197276
9321.000000;0.196967
9320.000000;0.196689
9319.000000;0.196332
9318.000000;0.195878
9317.000000;0.195434
9316.000000;0.195081
9315.000000;0.194817
9314.000000;0.194651
9313.000000;0.194579
9312.000000;0.194486
9311.000000;0.194248
9310.000000;0.193903
9309.000000;0.193578
9308.000000;0.193284
9307.000000;0.192953
9306.000000;0.192639
9305.000000;0.192432
9304.000000;0.192232
9303.000000;0.191857
9302.000000;0.191372
9301.000000;0.191049
9300.000000;0.190985
9299.000000;0.190991
9298.000000;0.190889
9297.000000;0.190668
9296.000000;0.190322
9295.000000;0.189806
9294.000000;0.189219
9293.000000;0.188792
9292.000000;0.188598
9291.000000;0.188463
9290.000000;0.188233
9289.000000;0.187938
9288.000000;0.187639
9287.000000;0.187322
9286.000000;0.187006
9285.000000;0.186783
9284.000000;0.186649
9283.000000;0.186453
9282.000000;0.186097
9281.000000;0.185654
9280.000000;0.185234
9279.000000;0.184859
9278.000000;0.184519
9277.000000;0.184221
9276.000000;0.183950
9275.000000;0.183693
9274.000000;0.183486
9273.000000;0.183334
9272.000000;0.183137
9271.000000;0.182829
9270.000000;0.182528
9269.000000;0.182383
9268.000000;0.182315
9267.000000;0.182116
9266.000000;0.181757
9265.000000;0.181388
9264.000000;0.181066
9263.000000;0.180723
9262.000000;0.180385
9261.000000;0.180174
9260.000000;0.180076
9259.000000;0.179936
9258.000000;0.179698
9257.000000;0.179451
9256.000000;0.179213
9255.000000;0.178885
9254.000000;0.178472
9253.000000;0.178109
9252.000000;0.177858
9251.000000;0.177648
9250.000000;0.177449
9249.000000;0.177303
9248.000000;0.177155
9247.000000;0.176876
9246.000000;0.176463
9245.000000;0.176048
9244.000000;0.175666
9243.000000;0.175242
9242.000000;0.174802
9241.000000;0.174485
9240.000000;0.174319
9239.000000;0.174182
9238.000000;0.174025
9237.000000;0.173924
9236.000000;0.173874
9235.000000;0.173737
9234.000000;0.173465
9233.000000;0.173173
9232.000000;0.172924
9231.000000;0.172645
9230.000000;0.172300
9229.000000;0.171976
9228.000000;0.171713
9227.000000;0.171434
9226.000000;0.171098
9225.000000;0.170778
9224.000000;0.170542
9223.000000;0.170381
9222.000000;0.170281
9221.000000;0.170228
9220.000000;0.170124
9219.000000;0.169857
9218.000000;0.169474
9217.000000;0.169135
9216.000000;0.168882
9215.000000;0.168624
9214.000000;0.168355
9213.000000;0.168181
9212.000000;0.168116
9211.000000;0.168019
9210.000000;0.167780
9209.000000;0.167427
9208.000000;0.167023
9207.000000;0.166607
9206.000000;0.166243
9205.000000;0.165984
9204.000000;0.165773
9203.000000;0.165520
9202.000000;0.165262
9201.000000;0.165092
9200.000000;0.164962
9199.000000;0.164725
9198.000000;0.164381
9197.000000;0.164080
9196.000000;0.163886
9195.000000;0.163727
9194.000000;0.163555
9193.000000;0.163391
9192.000000;0.163217
9191.000000;0.162986
9190.000000;0.162759
9189.000000;0.162624
9188.000000;0.162522
9187.000000;0.162313
9186.000000;0.162010
9185.000000;0.161729
9184.000000;0.161459
9183.000000;0.161094
9182.000000;0.160686
9181.000000;0.160421
9180.000000;0.160308
9179.000000;0.160159
9178.000000;0.159899
9177.000000;0.159667
9176.000000;0.159535
9175.000000;0.159377
9174.000000;0.159087
9173.000000;0.158741
9172.000000;0.158427
9171.000000;0.158105
9170.000000;0.157727
9169.000000;0.157360
9168.000000;0.157095
9167.000000;0.156943
9166.000000;0.156871
9165.000000;0.156812
9164.000000;0.156645
9163.000000;0.156294
9162.000000;0.155882
9161.000000;0.155620
9160.000000;0.155538
9159.000000;0.155459
9158.000000;0.155263
9157.000000;0.155010
9156.000000;0.154785
9155.000000;0.154587
9154.000000;0.154401
9153.000000;0.154228
9152.000000;0.154022
9151.000000;0.153741
9150.000000;0.153468
9149.000000;0.153342
9148.000000;0.153328
9147.000000;0.153247
9146.000000;0.153020
9145.000000;0.152740
9144.000000;0.152472
9143.000000;0.152184
9142.000000;0.151882
9141.000000;0.151645
9140.000000;0.151459
9139.000000;0.151206
9138.000000;0.150861
9137.000000;0.150564
9136.000000;0.150422
9135.000000;0.150363
9134.000000;0.150241
9133.000000;0.149981
9132.000000;0.149601
9131.000000;0.149192
9130.000000;0.148891
9129.000000;0.148753
9128.000000;0.148648
9127.000000;0.148413
9126.000000;0.148079
9125.000000;0.147817
9124.000000;0.147692
9123.000000;0.147605
9122.000000;0.147472
9121.000000;0.147302
9120.000000;0.147094
9119.000000;0.146823
9118.000000;0.146548
9117.000000;0.146373
9116.000000;0.146288
9115.000000;0.146179
9114.000000;0.146006
9113.000000;0.145826
9112.000000;0.145646
9111.000000;0.145391
9110.000000;0.145047
9109.000000;0.144714
9108.000000;0.144480
9107.000000;0.144354
9106.000000;0.144302
9105.000000;0.144242
9104.000000;0.144041
9103.000000;0.143649
9102.000000;0.143192
9101.000000;0.142835
9100.000000;0.142583
9099.000000;0.142365
9098.000000;0.142213
9097.000000;0.142196
9096.000000;0.142221
9095.000000;0.142094
9094.000000;0.141784
9093.000000;0.141440
9092.000000;0.141179
9091.000000;0.140995
9090.000000;0.140859
9089.000000;0.140735
9088.000000;0.140529
9087.000000;0.140180
9086.000000;0.139802
9085.000000;0.139564
9084.000000;0.139468
9083.000000;0.139390
9082.000000;0.139301
9081.000000;0.139268
9080.000000;0.139257
9079.000000;0.139128
9078.000000;0.138829
9077.000000;0.138439
9076.000000;0.138040
9075.000000;0.137680
9074.000000;0.137438
9073.000000;0.137352
9072.000000;0.137321
9071.000000;0.137218
9070.000000;0.137069
9069.000000;0.136971
9068.000000;0.136887
9067.000000;0.136704
9066.000000;0.136449
9065.000000;0.136256
9064.000000;0.136150
9063.000000;0.136036
9062.000000;0.135890
9061.000000;0.135753
9060.000000;0.135591
9059.000000;0.135340
9058.000000;0.135066
9057.000000;0.134888
9056.000000;0.134763
9055.000000;0.134540
9054.000000;0.134213
9053.000000;0.133915
