Criado como novo conjunto de dados;"e2410_daniel_v2.spp","3962.2 Secs"
cm-1;Abs
10000.000000;0.137562
9999.000000;0.136828
9998.000000;0.136158
9997.000000;0.135639
9996.000000;0.135274
9995.000000;0.135011
9994.000000;0.134788
9993.000000;0.134515
9992.000000;0.134097
9991.000000;0.133525
9990.000000;0.132935
9989.000000;0.132497
9988.000000;0.132230
9987.000000;0.131951
9986.000000;0.131477
9985.000000;0.130823
9984.000000;0.130168
9983.000000;0.129638
9982.000000;0.129201
9981.000000;0.128773
9980.000000;0.128334
9979.000000;0.127904
9978.000000;0.127465
9977.000000;0.126994
9976.000000;0.126535
9975.000000;0.126158
9974.000000;0.125845
9973.000000;0.125481
9972.000000;0.124968
9971.000000;0.124313
9970.000000;0.123599
9969.000000;0.122918
9968.000000;0.122340
9967.000000;0.121904
9966.000000;0.121583
9965.000000;0.121274
9964.000000;0.120864
9963.000000;0.120325
9962.000000;0.119728
9961.000000;0.119169
9960.000000;0.118679
9959.000000;0.118214
9958.000000;0.117735
9957.000000;0.117252
9956.000000;0.116808
9955.000000;0.116418
9954.000000;0.116050
9953.000000;0.115650
9952.000000;0.115160
9951.000000;0.114548
9950.000000;0.113853
9949.000000;0.113211
9948.000000;0.112753
9947.000000;0.112454
9946.000000;0.112144
9945.000000;0.111699
9944.000000;0.111175
9943.000000;0.110704
9942.000000;0.110310
9941.000000;0.109913
9940.000000;0.109476
9939.000000;0.109048
9938.000000;0.108651
9937.000000;0.108210
9936.000000;0.107667
9935.000000;0.107094
9934.000000;0.106619
9933.000000;0.106268
9932.000000;0.105941
9931.000000;0.105535
9930.000000;0.105048
9929.000000;0.104547
9928.000000;0.104076
9927.000000;0.103622
9926.000000;0.103167
9925.000000;0.102735
9924.000000;0.102365
9923.000000;0.102022
9922.000000;0.101591
9921.000000;0.100986
9920.000000;0.100263
9919.000000;0.099583
9918.000000;0.099060
9917.000000;0.098683
9916.000000;0.098379
9915.000000;0.098104
9914.000000;0.097818
9913.000000;0.097446
9912.000000;0.096915
9911.000000;0.096239
9910.000000;0.095521
9909.000000;0.094867
9908.000000;0.094324
9907.000000;0.093887
9906.000000;0.093519
9905.000000;0.093153
9904.000000;0.092742
9903.000000;0.092306
9902.000000;0.091912
9901.000000;0.091590
9900.000000;0.091288
9899.000000;0.090924
9898.000000;0.090455
9897.000000;0.089894
9896.000000;0.089288
9895.000000;0.088714
9894.000000;0.088247
9893.000000;0.087902
9892.000000;0.087598
9891.000000;0.087238
9890.000000;0.086809
9889.000000;0.086366
9888.000000;0.085917
9887.000000;0.085385
9886.000000;0.084721
9885.000000;0.084000
9884.000000;0.083358
9883.000000;0.082852
9882.000000;0.082428
9881.000000;0.082033
9880.000000;0.081693
9879.000000;0.081442
9878.000000;0.081228
9877.000000;0.080935
9876.000000;0.080480
9875.000000;0.079881
9874.000000;0.079215
9873.000000;0.078556
9872.000000;0.077944
9871.000000;0.077380
9870.000000;0.076847
9869.000000;0.076348
9868.000000;0.075902
9867.000000;0.075522
9866.000000;0.075187
9865.000000;0.074873
9864.000000;0.074567
9863.000000;0.074239
9862.000000;0.073812
9861.000000;0.073232
9860.000000;0.072559
9859.000000;0.071946
9858.000000;0.071507
9857.000000;0.071219
9856.000000;0.070971
9855.000000;0.070657
9854.000000;0.070225
9853.000000;0.069688
9852.000000;0.069123
9851.000000;0.068622
9850.000000;0.068213
9849.000000;0.067843
9848.000000;0.067461
9847.000000;0.067077
9846.000000;0.066712
9845.000000;0.066320
9844.000000;0.065840
9843.000000;0.065294
9842.000000;0.064789
9841.000000;0.064395
9840.000000;0.064058
9839.000000;0.063652
9838.000000;0.063103
9837.000000;0.062452
9836.000000;0.061828
9835.000000;0.061364
9834.000000;0.061079
9833.000000;0.060848
9832.000000;0.060505
9831.000000;0.060015
9830.000000;0.059494
9829.000000;0.059063
9828.000000;0.058712
9827.000000;0.058345
9826.000000;0.057902
9825.000000;0.057408
9824.000000;0.056911
9823.000000;0.056430
9822.000000;0.055958
9821.000000;0.055458
9820.000000;0.054868
9819.000000;0.054177
9818.000000;0.053503
9817.000000;0.053028
9816.000000;0.052803
9815.000000;0.052668
9814.000000;0.052418
9813.000000;0.052022
9812.000000;0.051606
9811.000000;0.051248
9810.000000;0.050875
9809.000000;0.050399
9808.000000;0.049853
9807.000000;0.049338
9806.000000;0.048870
9805.000000;0.048366
9804.000000;0.047781
9803.000000;0.047177
9802.000000;0.046656
9801.000000;0.046265
9800.000000;0.045976
9799.000000;0.045709
9798.000000;0.045370
9797.000000;0.044904
9796.000000;0.044361
9795.000000;0.043880
9794.000000;0.043565
9793.000000;0.043382
9792.000000;0.043185
9791.000000;0.042827
9790.000000;0.042267
9789.000000;0.041596
9788.000000;0.040977
9787.000000;0.040534
9786.000000;0.040245
9785.000000;0.039964
9784.000000;0.039562
9783.000000;0.039040
9782.000000;0.038493
9781.000000;0.037993
9780.000000;0.037536
9779.000000;0.037083
9778.000000;0.036618
9777.000000;0.036157
9776.000000;0.035717
9775.000000;0.035288
9774.000000;0.034839
9773.000000;0.034360
9772.000000;0.033889
9771.000000;0.033471
9770.000000;0.033090
9769.000000;0.032683
9768.000000;0.032233
9767.000000;0.031801
9766.000000;0.031440
9765.000000;0.031113
9764.000000;0.030744
9763.000000;0.030322
9762.000000;0.029887
9761.000000;0.029444
9760.000000;0.028949
9759.000000;0.028395
9758.000000;0.027842
9757.000000;0.027354
9756.000000;0.026927
9755.000000;0.026507
9754.000000;0.026050
9753.000000;0.025547
9752.000000;0.025020
9751.000000;0.024508
9750.000000;0.024038
9749.000000;0.023602
9748.000000;0.023176
9747.000000;0.022755
9746.000000;0.022355
9745.000000;0.021987
9744.000000;0.021653
9743.000000;0.021355
9742.000000;0.021091
9741.000000;0.020826
9740.000000;0.020520
9739.000000;0.020161
9738.000000;0.019754
9737.000000;0.019285
9736.000000;0.018748
9735.000000;0.018210
9734.000000;0.017767
9733.000000;0.017434
9732.000000;0.017123
9731.000000;0.016760
9730.000000;0.016364
9729.000000;0.015980
9728.000000;0.015602
9727.000000;0.015197
9726.000000;0.014766
9725.000000;0.014303
9724.000000;0.013760
9723.000000;0.013127
9722.000000;0.012525
9721.000000;0.012122
9720.000000;0.011928
9719.000000;0.011744
9718.000000;0.011344
9717.000000;0.010688
9716.000000;0.009934
9715.000000;0.009286
9714.000000;0.008845
9713.000000;0.008570
9712.000000;0.008330
9711.000000;0.007998
9710.000000;0.007518
9709.000000;0.006946
9708.000000;0.006420
9707.000000;0.006069
9706.000000;0.005916
9705.000000;0.005841
9704.000000;0.005663
9703.000000;0.005282
9702.000000;0.004742
9701.000000;0.004160
9700.000000;0.003610
9699.000000;0.003106
9698.000000;0.002649
9697.000000;0.002244
9696.000000;0.001876
9695.000000;0.001503
9694.000000;0.001103
9693.000000;0.000707
9692.000000;0.000349
9691.000000;0.000014
9690.000000;-0.000359
9689.000000;-0.000814
9688.000000;-0.001331
9687.000000;-0.001849
9686.000000;-0.002321
9685.000000;-0.002741
9684.000000;-0.003128
9683.000000;-0.003515
9682.000000;-0.003931
9681.000000;-0.004374
9680.000000;-0.004787
9679.000000;-0.005098
9678.000000;-0.005312
9677.000000;-0.005549
9676.000000;-0.005937
9675.000000;-0.006471
9674.000000;-0.007024
9673.000000;-0.007483
9672.000000;-0.007853
9671.000000;-0.008207
9670.000000;-0.008591
9669.000000;-0.009000
9668.000000;-0.009416
9667.000000;-0.009841
9666.000000;-0.010286
9665.000000;-0.010759
9664.000000;-0.011229
9663.000000;-0.011625
9662.000000;-0.011907
9661.000000;-0.012143
9660.000000;-0.012472
9659.000000;-0.012948
9658.000000;-0.013479
9657.000000;-0.013937
9656.000000;-0.014301
9655.000000;-0.014637
9654.000000;-0.014986
9653.000000;-0.015344
9652.000000;-0.015729
9651.000000;-0.016183
9650.000000;-0.016698
9649.000000;-0.017204
9648.000000;-0.017637
9647.000000;-0.017984
9646.000000;-0.018257
9645.000000;-0.018491
9644.000000;-0.018752
9643.000000;-0.019117
9642.000000;-0.019583
9641.000000;-0.020070
9640.000000;-0.020526
9639.000000;-0.020990
9638.000000;-0.021519
9637.000000;-0.022091
9636.000000;-0.022604
9635.000000;-0.022954
9634.000000;-0.023113
9633.000000;-0.023161
9632.000000;-0.023260
9631.000000;-0.023560
9630.000000;-0.024086
9629.000000;-0.024710
9628.000000;-0.025284
9627.000000;-0.025758
9626.000000;-0.026168
9625.000000;-0.026546
9624.000000;-0.026896
9623.000000;-0.027212
9622.000000;-0.027501
9621.000000;-0.027774
9620.000000;-0.028065
9619.000000;-0.028425
9618.000000;-0.028870
9617.000000;-0.029340
9616.000000;-0.029755
9615.000000;-0.030123
9614.000000;-0.030517
9613.000000;-0.030966
9612.000000;-0.031403
9611.000000;-0.031756
9610.000000;-0.032053
9609.000000;-0.032379
9608.000000;-0.032773
9607.000000;-0.033185
9606.000000;-0.033552
9605.000000;-0.033878
9604.000000;-0.034227
9603.000000;-0.034646
9602.000000;-0.035120
9601.000000;-0.035594
9600.000000;-0.036027
9599.000000;-0.036426
9598.000000;-0.036817
9597.000000;-0.037205
9596.000000;-0.037578
9595.000000;-0.037923
9594.000000;-0.038250
9593.000000;-0.038582
9592.000000;-0.038938
9591.000000;-0.039324
9590.000000;-0.039741
9589.000000;-0.040174
9588.000000;-0.040599
9587.000000;-0.041002
9586.000000;-0.041396
9585.000000;-0.041814
9584.000000;-0.042272
9583.000000;-0.042735
9582.000000;-0.043150
9581.000000;-0.043505
9580.000000;-0.043844
9579.000000;-0.044193
9578.000000;-0.044508
9577.000000;-0.044743
9576.000000;-0.044950
9575.000000;-0.045244
9574.000000;-0.045665
9573.000000;-0.046115
9572.000000;-0.046479
9571.000000;-0.046755
9570.000000;-0.047039
9569.000000;-0.047404
9568.000000;-0.047851
9567.000000;-0.048348
9566.000000;-0.048853
9565.000000;-0.049316
9564.000000;-0.049700
9563.000000;-0.050026
9562.000000;-0.050341
9561.000000;-0.050656
9560.000000;-0.050949
9559.000000;-0.051230
9558.000000;-0.051537
9557.000000;-0.051862
9556.000000;-0.052138
9555.000000;-0.052335
9554.000000;-0.052529
9553.000000;-0.052809
9552.000000;-0.053175
9551.000000;-0.053561
9550.000000;-0.053943
9549.000000;-0.054355
9548.000000;-0.054815
9547.000000;-0.055293
9546.000000;-0.055755
9545.000000;-0.056200
9544.000000;-0.056626
9543.000000;-0.057011
9542.000000;-0.057340
9541.000000;-0.057651
9540.000000;-0.057997
9539.000000;-0.058391
9538.000000;-0.058800
9537.000000;-0.059199
9536.000000;-0.059596
9535.000000;-0.059999
9534.000000;-0.060378
9533.000000;-0.060687
9532.000000;-0.060937
9531.000000;-0.061211
9530.000000;-0.061584
9529.000000;-0.062041
9528.000000;-0.062509
9527.000000;-0.062950
9526.000000;-0.063386
9525.000000;-0.063827
9524.000000;-0.064233
9523.000000;-0.064567
9522.000000;-0.064853
9521.000000;-0.065130
9520.000000;-0.065393
9519.000000;-0.065623
9518.000000;-0.065847
9517.000000;-0.066120
9516.000000;-0.066443
9515.000000;-0.066762
9514.000000;-0.067053
9513.000000;-0.067358
9512.000000;-0.067716
9511.000000;-0.068103
9510.000000;-0.068469
9509.000000;-0.068796
9508.000000;-0.069117
9507.000000;-0.069487
9506.000000;-0.069947
9505.000000;-0.070484
9504.000000;-0.071018
9503.000000;-0.071444
9502.000000;-0.071723
9501.000000;-0.071925
9500.000000;-0.072164
9499.000000;-0.072505
9498.000000;-0.072941
9497.000000;-0.073433
9496.000000;-0.073930
9495.000000;-0.074386
9494.000000;-0.074760
9493.000000;-0.075041
9492.000000;-0.075248
9491.000000;-0.075433
9490.000000;-0.075659
9489.000000;-0.075973
9488.000000;-0.076368
9487.000000;-0.076789
9486.000000;-0.077178
9485.000000;-0.077512
9484.000000;-0.077797
9483.000000;-0.078062
9482.000000;-0.078346
9481.000000;-0.078667
9480.000000;-0.079001
9479.000000;-0.079315
9478.000000;-0.079632
9477.000000;-0.080014
9476.000000;-0.080457
9475.000000;-0.080867
9474.000000;-0.081163
9473.000000;-0.081391
9472.000000;-0.081650
9471.000000;-0.081961
9470.000000;-0.082259
9469.000000;-0.082511
9468.000000;-0.082760
9467.000000;-0.083060
9466.000000;-0.083407
9465.000000;-0.083769
9464.000000;-0.084126
9463.000000;-0.084461
9462.000000;-0.084758
9461.000000;-0.085035
9460.000000;-0.085341
9459.000000;-0.085703
9458.000000;-0.086094
9457.000000;-0.086476
9456.000000;-0.086848
9455.000000;-0.087218
9454.000000;-0.087579
9453.000000;-0.087919
9452.000000;-0.088255
9451.000000;-0.088596
9450.000000;-0.088905
9449.000000;-0.089139
9448.000000;-0.089334
9447.000000;-0.089576
9446.000000;-0.089903
9445.000000;-0.090254
9444.000000;-0.090558
9443.000000;-0.090829
9442.000000;-0.091140
9441.000000;-0.091527
9440.000000;-0.091950
9439.000000;-0.092350
9438.000000;-0.092711
9437.000000;-0.093051
9436.000000;-0.093376
9435.000000;-0.093674
9434.000000;-0.093941
9433.000000;-0.094194
9432.000000;-0.094452
9431.000000;-0.094719
9430.000000;-0.094984
9429.000000;-0.095234
9428.000000;-0.095474
9427.000000;-0.095731
9426.000000;-0.096048
9425.000000;-0.096430
9424.000000;-0.096824
9423.000000;-0.097166
9422.000000;-0.097455
9421.000000;-0.097750
9420.000000;-0.098096
9419.000000;-0.098477
9418.000000;-0.098857
9417.000000;-0.099234
9416.000000;-0.099619
9415.000000;-0.099986
9414.000000;-0.100294
9413.000000;-0.100540
9412.000000;-0.100761
9411.000000;-0.100989
9410.000000;-0.101234
9409.000000;-0.101514
9408.000000;-0.101857
9407.000000;-0.102267
9406.000000;-0.102702
9405.000000;-0.103106
9404.000000;-0.103442
9403.000000;-0.103698
9402.000000;-0.103891
9401.000000;-0.104082
9400.000000;-0.104326
9399.000000;-0.104608
9398.000000;-0.104862
9397.000000;-0.105073
9396.000000;-0.105331
9395.000000;-0.105721
9394.000000;-0.106193
9393.000000;-0.106600
9392.000000;-0.106855
9391.000000;-0.107022
9390.000000;-0.107219
9389.000000;-0.107494
9388.000000;-0.107808
9387.000000;-0.108105
9386.000000;-0.108364
9385.000000;-0.108588
9384.000000;-0.108799
9383.000000;-0.109037
9382.000000;-0.109351
9381.000000;-0.109748
9380.000000;-0.110173
9379.000000;-0.110564
9378.000000;-0.110914
9377.000000;-0.111267
9376.000000;-0.111640
9375.000000;-0.111978
9374.000000;-0.112212
9373.000000;-0.112348
9372.000000;-0.112477
9371.000000;-0.112684
9370.000000;-0.112980
9369.000000;-0.113315
9368.000000;-0.113638
9367.000000;-0.113937
9366.000000;-0.114233
9365.000000;-0.114551
9364.000000;-0.114896
9363.000000;-0.115233
9362.000000;-0.115519
9361.000000;-0.115749
9360.000000;-0.115977
9359.000000;-0.116261
9358.000000;-0.116607
9357.000000;-0.116966
9356.000000;-0.117293
9355.000000;-0.117580
9354.000000;-0.117840
9353.000000;-0.118075
9352.000000;-0.118282
9351.000000;-0.118472
9350.000000;-0.118686
9349.000000;-0.118969
9348.000000;-0.119343
9347.000000;-0.119788
9346.000000;-0.120243
9345.000000;-0.120644
9344.000000;-0.120952
9343.000000;-0.121169
9342.000000;-0.121340
9341.000000;-0.121536
9340.000000;-0.121805
9339.000000;-0.122134
9338.000000;-0.122459
9337.000000;-0.122748
9336.000000;-0.123032
9335.000000;-0.123348
9334.000000;-0.123667
9333.000000;-0.123913
9332.000000;-0.124069
9331.000000;-0.124202
9330.000000;-0.124388
9329.000000;-0.124641
9328.000000;-0.124934
9327.000000;-0.125260
9326.000000;-0.125628
9325.000000;-0.126013
9324.000000;-0.126354
9323.000000;-0.126602
9322.000000;-0.126773
9321.000000;-0.126930
9320.000000;-0.127135
9319.000000;-0.127407
9318.000000;-0.127722
9317.000000;-0.128038
9316.000000;-0.128328
9315.000000;-0.128582
9314.000000;-0.128798
9313.000000;-0.128989
9312.000000;-0.129199
9311.000000;-0.129478
9310.000000;-0.129826
9309.000000;-0.130183
9308.000000;-0.130488
9307.000000;-0.130744
9306.000000;-0.130999
9305.000000;-0.131277
9304.000000;-0.131556
9303.000000;-0.131803
9302.000000;-0.132015
9301.000000;-0.132208
9300.000000;-0.132404
9299.000000;-0.132627
9298.000000;-0.132881
9297.000000;-0.133151
9296.000000;-0.133423
9295.000000;-0.133712
9294.000000;-0.134043
9293.000000;-0.134400
9292.000000;-0.134728
9291.000000;-0.134983
9290.000000;-0.135176
9289.000000;-0.135344
9288.000000;-0.135518
9287.000000;-0.135722
9286.000000;-0.135965
9285.000000;-0.136234
9284.000000;-0.136505
9283.000000;-0.136776
9282.000000;-0.137068
9281.000000;-0.137391
9280.000000;-0.137735
9279.000000;-0.138091
9278.000000;-0.138452
9277.000000;-0.138781
9276.000000;-0.139015
9275.000000;-0.139143
9274.000000;-0.139240
9273.000000;-0.139400
9272.000000;-0.139644
9271.000000;-0.139928
9270.000000;-0.140210
9269.000000;-0.140475
9268.000000;-0.140714
9267.000000;-0.140933
9266.000000;-0.141155
9265.000000;-0.141401
9264.000000;-0.141659
9263.000000;-0.141909
9262.000000;-0.142158
9261.000000;-0.142415
9260.000000;-0.142653
9259.000000;-0.142841
9258.000000;-0.143009
9257.000000;-0.143222
9256.000000;-0.143493
9255.000000;-0.143767
9254.000000;-0.143998
9253.000000;-0.144209
9252.000000;-0.144449
9251.000000;-0.144730
9250.000000;-0.145027
9249.000000;-0.145319
9248.000000;-0.145596
9247.000000;-0.145851
9246.000000;-0.146083
9245.000000;-0.146295
9244.000000;-0.146487
9243.000000;-0.146669
9242.000000;-0.146861
9241.000000;-0.147066
9240.000000;-0.147254
9239.000000;-0.147400
9238.000000;-0.147546
9237.000000;-0.147788
9236.000000;-0.148172
9235.000000;-0.148626
9234.000000;-0.149008
9233.000000;-0.149224
9232.000000;-0.149295
9231.000000;-0.149331
9230.000000;-0.149443
9229.000000;-0.149668
9228.000000;-0.149968
9227.000000;-0.150298
9226.000000;-0.150660
9225.000000;-0.151061
9224.000000;-0.151434
9223.000000;-0.151672
9222.000000;-0.151755
9221.000000;-0.151792
9220.000000;-0.151912
9219.000000;-0.152142
9218.000000;-0.152402
9217.000000;-0.152617
9216.000000;-0.152784
9215.000000;-0.152961
9214.000000;-0.153202
9213.000000;-0.153513
9212.000000;-0.153844
9211.000000;-0.154141
9210.000000;-0.154406
9209.000000;-0.154673
9208.000000;-0.154944
9207.000000;-0.155167
9206.000000;-0.155314
9205.000000;-0.155429
9204.000000;-0.155589
9203.000000;-0.155822
9202.000000;-0.156101
9201.000000;-0.156381
9200.000000;-0.156626
9199.000000;-0.156821
9198.000000;-0.156980
9197.000000;-0.157151
9196.000000;-0.157360
9195.000000;-0.157589
9194.000000;-0.157813
9193.000000;-0.158039
9192.000000;-0.158285
9191.000000;-0.158541
9190.000000;-0.158782
9189.000000;-0.159004
9188.000000;-0.159212
9187.000000;-0.159395
9186.000000;-0.159542
9185.000000;-0.159694
9184.000000;-0.159905
9183.000000;-0.160170
9182.000000;-0.160424
9181.000000;-0.160622
9180.000000;-0.160802
9179.000000;-0.161034
9178.000000;-0.161339
9177.000000;-0.161664
9176.000000;-0.161937
9175.000000;-0.162128
9174.000000;-0.162278
9173.000000;-0.162454
9172.000000;-0.162692
9171.000000;-0.162969
9170.000000;-0.163223
9169.000000;-0.163415
9168.000000;-0.163547
9167.000000;-0.163654
9166.000000;-0.163767
9165.000000;-0.163900
9164.000000;-0.164044
9163.000000;-0.164211
9162.000000;-0.164438
9161.000000;-0.164757
9160.000000;-0.165128
9159.000000;-0.165453
9158.000000;-0.165661
9157.000000;-0.165773
9156.000000;-0.165855
9155.000000;-0.165961
9154.000000;-0.166119
9153.000000;-0.166342
9152.000000;-0.166614
9151.000000;-0.166880
9150.000000;-0.167083
9149.000000;-0.167234
9148.000000;-0.167393
9147.000000;-0.167605
9146.000000;-0.167868
9145.000000;-0.168156
9144.000000;-0.168434
9143.000000;-0.168664
9142.000000;-0.168819
9141.000000;-0.168921
9140.000000;-0.169035
9139.000000;-0.169214
9138.000000;-0.169440
9137.000000;-0.169647
9136.000000;-0.169786
9135.000000;-0.169878
9134.000000;-0.169999
9133.000000;-0.170205
9132.000000;-0.170469
9131.000000;-0.170709
9130.000000;-0.170872
9129.000000;-0.170987
9128.000000;-0.171112
9127.000000;-0.171269
9126.000000;-0.171455
9125.000000;-0.171670
9124.000000;-0.171904
9123.000000;-0.172106
9122.000000;-0.172228
9121.000000;-0.172319
9120.000000;-0.172503
9119.000000;-0.172843
9118.000000;-0.173256
9117.000000;-0.173587
9116.000000;-0.173766
9115.000000;-0.173854
9114.000000;-0.173949
9113.000000;-0.174082
9112.000000;-0.174219
9111.000000;-0.174331
9110.000000;-0.174441
9109.000000;-0.174599
9108.000000;-0.174832
9107.000000;-0.175123
9106.000000;-0.175435
9105.000000;-0.175733
9104.000000;-0.175987
9103.000000;-0.176184
9102.000000;-0.176332
9101.000000;-0.176459
9100.000000;-0.176593
9099.000000;-0.176754
9098.000000;-0.176951
9097.000000;-0.177163
9096.000000;-0.177345
9095.000000;-0.177482
9094.000000;-0.177620
9093.000000;-0.177820
9092.000000;-0.178065
9091.000000;-0.178260
9090.000000;-0.178353
9089.000000;-0.178397
9088.000000;-0.178493
9087.000000;-0.178674
9086.000000;-0.178904
9085.000000;-0.179132
9084.000000;-0.179332
9083.000000;-0.179497
9082.000000;-0.179640
