Criado como novo conjunto de dados;"e2410_daniel_v2.spp","71285.7 Secs"
cm-1;Abs
10000.000000;1.434512
9999.000000;1.434229
9998.000000;1.433946
9997.000000;1.433664
9996.000000;1.433381
9995.000000;1.433099
9994.000000;1.432816
9993.000000;1.432535
9992.000000;1.432248
9991.000000;1.432205
9990.000000;1.432535
9989.000000;1.432953
9988.000000;1.433090
9987.000000;1.432774
9986.000000;1.432115
9985.000000;1.431317
9984.000000;1.430375
9983.000000;1.429147
9982.000000;1.427799
9981.000000;1.426808
9980.000000;1.426232
9979.000000;1.425376
9978.000000;1.423666
9977.000000;1.421648
9976.000000;1.420533
9975.000000;1.420750
9974.000000;1.421456
9973.000000;1.421598
9972.000000;1.421025
9971.000000;1.420341
9970.000000;1.419972
9969.000000;1.419682
9968.000000;1.419002
9967.000000;1.418017
9966.000000;1.417524
9965.000000;1.418162
9964.000000;1.419434
9963.000000;1.420036
9962.000000;1.419397
9961.000000;1.418410
9960.000000;1.418169
9959.000000;1.418396
9958.000000;1.417727
9957.000000;1.415424
9956.000000;1.412278
9955.000000;1.409794
9954.000000;1.408956
9953.000000;1.409768
9952.000000;1.411443
9951.000000;1.412879
9950.000000;1.413293
9949.000000;1.412706
9948.000000;1.411715
9947.000000;1.410803
9946.000000;1.410007
9945.000000;1.409135
9944.000000;1.408072
9943.000000;1.406975
9942.000000;1.406276
9941.000000;1.406339
9940.000000;1.406991
9939.000000;1.407548
9938.000000;1.407496
9937.000000;1.406975
9936.000000;1.406333
9935.000000;1.405479
9934.000000;1.404109
9933.000000;1.402427
9932.000000;1.401177
9931.000000;1.400861
9930.000000;1.401203
9929.000000;1.401479
9928.000000;1.401236
9927.000000;1.400576
9926.000000;1.399885
9925.000000;1.399394
9924.000000;1.399003
9923.000000;1.398508
9922.000000;1.397882
9921.000000;1.397182
9920.000000;1.396256
9919.000000;1.394890
9918.000000;1.393348
9917.000000;1.392371
9916.000000;1.392376
9915.000000;1.392916
9914.000000;1.393245
9913.000000;1.393169
9912.000000;1.393010
9911.000000;1.392835
9910.000000;1.392207
9909.000000;1.390800
9908.000000;1.388962
9907.000000;1.387417
9906.000000;1.386530
9905.000000;1.386086
9904.000000;1.385768
9903.000000;1.385650
9902.000000;1.386031
9901.000000;1.386805
9900.000000;1.387286
9899.000000;1.386916
9898.000000;1.385930
9897.000000;1.384965
9896.000000;1.384117
9895.000000;1.382878
9894.000000;1.381069
9893.000000;1.379366
9892.000000;1.378645
9891.000000;1.379068
9890.000000;1.380040
9889.000000;1.380801
9888.000000;1.380857
9887.000000;1.380112
9886.000000;1.378890
9885.000000;1.377752
9884.000000;1.377118
9883.000000;1.377018
9882.000000;1.377220
9881.000000;1.377378
9880.000000;1.377067
9879.000000;1.375962
9878.000000;1.374199
9877.000000;1.372370
9876.000000;1.370986
9875.000000;1.370095
9874.000000;1.369498
9873.000000;1.369164
9872.000000;1.369264
9871.000000;1.369866
9870.000000;1.370692
9869.000000;1.371138
9868.000000;1.370626
9867.000000;1.369158
9866.000000;1.367464
9865.000000;1.366367
9864.000000;1.366080
9863.000000;1.366240
9862.000000;1.366454
9861.000000;1.366433
9860.000000;1.365836
9859.000000;1.364619
9858.000000;1.363503
9857.000000;1.363482
9856.000000;1.364674
9855.000000;1.366092
9854.000000;1.366670
9853.000000;1.366130
9852.000000;1.364722
9851.000000;1.362753
9850.000000;1.360741
9849.000000;1.359469
9848.000000;1.359305
9847.000000;1.359717
9846.000000;1.359917
9845.000000;1.359795
9844.000000;1.359832
9843.000000;1.360208
9842.000000;1.360448
9841.000000;1.359981
9840.000000;1.358823
9839.000000;1.357655
9838.000000;1.357196
9837.000000;1.357407
9836.000000;1.357367
9835.000000;1.356209
9834.000000;1.354115
9833.000000;1.351986
9832.000000;1.350286
9831.000000;1.348767
9830.000000;1.347306
9829.000000;1.346303
9828.000000;1.346025
9827.000000;1.346246
9826.000000;1.346828
9825.000000;1.347970
9824.000000;1.349430
9823.000000;1.350206
9822.000000;1.349720
9821.000000;1.348771
9820.000000;1.348492
9819.000000;1.348784
9818.000000;1.348604
9817.000000;1.347518
9816.000000;1.346118
9815.000000;1.344961
9814.000000;1.344001
9813.000000;1.343143
9812.000000;1.342590
9811.000000;1.342375
9810.000000;1.342133
9809.000000;1.341613
9808.000000;1.340987
9807.000000;1.340441
9806.000000;1.339871
9805.000000;1.339186
9804.000000;1.338546
9803.000000;1.338014
9802.000000;1.337280
9801.000000;1.336086
9800.000000;1.334740
9799.000000;1.333922
9798.000000;1.334064
9797.000000;1.335030
9796.000000;1.336268
9795.000000;1.337130
9794.000000;1.337210
9793.000000;1.336597
9792.000000;1.335778
9791.000000;1.335203
9790.000000;1.334930
9789.000000;1.334660
9788.000000;1.334028
9787.000000;1.332808
9786.000000;1.330975
9785.000000;1.328751
9784.000000;1.326622
9783.000000;1.325199
9782.000000;1.324930
9781.000000;1.325827
9780.000000;1.327368
9779.000000;1.328660
9778.000000;1.328880
9777.000000;1.327812
9776.000000;1.326056
9775.000000;1.324597
9774.000000;1.324024
9773.000000;1.324143
9772.000000;1.324339
9771.000000;1.324198
9770.000000;1.323629
9769.000000;1.322543
9768.000000;1.320856
9767.000000;1.318970
9766.000000;1.317808
9765.000000;1.317924
9764.000000;1.318750
9763.000000;1.319069
9762.000000;1.318283
9761.000000;1.316968
9760.000000;1.316130
9759.000000;1.316188
9758.000000;1.316744
9757.000000;1.317089
9756.000000;1.316858
9755.000000;1.316307
9754.000000;1.315990
9753.000000;1.316039
9752.000000;1.315854
9751.000000;1.314733
9750.000000;1.312791
9749.000000;1.311024
9748.000000;1.310362
9747.000000;1.310833
9746.000000;1.311653
9745.000000;1.311998
9744.000000;1.311650
9743.000000;1.310998
9742.000000;1.310450
9741.000000;1.309905
9740.000000;1.308917
9739.000000;1.307351
9738.000000;1.305666
9737.000000;1.304484
9736.000000;1.304071
9735.000000;1.304299
9734.000000;1.304874
9733.000000;1.305405
9732.000000;1.305547
9731.000000;1.305342
9730.000000;1.305153
9729.000000;1.305018
9728.000000;1.304404
9727.000000;1.302975
9726.000000;1.301322
9725.000000;1.300461
9724.000000;1.300741
9723.000000;1.301588
9722.000000;1.302182
9721.000000;1.302069
9720.000000;1.301246
9719.000000;1.300081
9718.000000;1.299065
9717.000000;1.298334
9716.000000;1.297529
9715.000000;1.296376
9714.000000;1.295139
9713.000000;1.294150
9712.000000;1.293229
9711.000000;1.292159
9710.000000;1.291414
9709.000000;1.291710
9708.000000;1.292884
9707.000000;1.293933
9706.000000;1.294224
9705.000000;1.294051
9704.000000;1.293888
9703.000000;1.293718
9702.000000;1.293332
9701.000000;1.292762
9700.000000;1.292176
9699.000000;1.291683
9698.000000;1.291359
9697.000000;1.291108
9696.000000;1.290487
9695.000000;1.289106
9694.000000;1.287266
9693.000000;1.285781
9692.000000;1.285115
9691.000000;1.285074
9690.000000;1.285236
9689.000000;1.285200
9688.000000;1.284529
9687.000000;1.283129
9686.000000;1.281725
9685.000000;1.281260
9684.000000;1.281722
9683.000000;1.282177
9682.000000;1.282106
9681.000000;1.281983
9680.000000;1.282235
9679.000000;1.282401
9678.000000;1.281839
9677.000000;1.280707
9676.000000;1.279669
9675.000000;1.278996
9674.000000;1.278464
9673.000000;1.277862
9672.000000;1.277145
9671.000000;1.276272
9670.000000;1.275314
9669.000000;1.274596
9668.000000;1.274425
9667.000000;1.274694
9666.000000;1.274898
9665.000000;1.274504
9664.000000;1.273363
9663.000000;1.271931
9662.000000;1.270962
9661.000000;1.270693
9660.000000;1.270448
9659.000000;1.269478
9658.000000;1.268078
9657.000000;1.267304
9656.000000;1.267633
9655.000000;1.268524
9654.000000;1.269321
9653.000000;1.269955
9652.000000;1.270525
9651.000000;1.270853
9650.000000;1.270817
9649.000000;1.270569
9648.000000;1.270021
9647.000000;1.268671
9646.000000;1.266437
9645.000000;1.264260
9644.000000;1.263324
9643.000000;1.263876
9642.000000;1.265089
9641.000000;1.265842
9640.000000;1.265420
9639.000000;1.263794
9638.000000;1.261631
9637.000000;1.259875
9636.000000;1.259084
9635.000000;1.259205
9634.000000;1.259923
9633.000000;1.260870
9632.000000;1.261450
9631.000000;1.261041
9630.000000;1.259669
9629.000000;1.258083
9628.000000;1.256872
9627.000000;1.255918
9626.000000;1.254966
9625.000000;1.254240
9624.000000;1.254015
9623.000000;1.253959
9622.000000;1.253505
9621.000000;1.252745
9620.000000;1.252452
9619.000000;1.253118
9618.000000;1.254275
9617.000000;1.254826
9616.000000;1.254039
9615.000000;1.252275
9614.000000;1.250715
9613.000000;1.250203
9612.000000;1.250388
9611.000000;1.250236
9610.000000;1.249337
9609.000000;1.248285
9608.000000;1.247714
9607.000000;1.247479
9606.000000;1.247029
9605.000000;1.246152
9604.000000;1.245068
9603.000000;1.244080
9602.000000;1.243387
9601.000000;1.243068
9600.000000;1.243084
9599.000000;1.243459
9598.000000;1.244338
9597.000000;1.245517
9596.000000;1.246075
9595.000000;1.245141
9594.000000;1.243127
9593.000000;1.241501
9592.000000;1.241129
9591.000000;1.241460
9590.000000;1.241554
9589.000000;1.241207
9588.000000;1.240680
9587.000000;1.240026
9586.000000;1.239282
9585.000000;1.238822
9584.000000;1.238823
9583.000000;1.238753
9582.000000;1.238005
9581.000000;1.236810
9580.000000;1.235926
9579.000000;1.235592
9578.000000;1.235316
9577.000000;1.234588
9576.000000;1.233380
9575.000000;1.232026
9574.000000;1.230961
9573.000000;1.230519
9572.000000;1.230656
9571.000000;1.230953
9570.000000;1.231107
9569.000000;1.231239
9568.000000;1.231495
9567.000000;1.231596
9566.000000;1.231145
9565.000000;1.230183
9564.000000;1.229148
9563.000000;1.228467
9562.000000;1.228382
9561.000000;1.228862
9560.000000;1.229413
9559.000000;1.229316
9558.000000;1.228423
9557.000000;1.227461
9556.000000;1.227230
9555.000000;1.227756
9554.000000;1.228510
9553.000000;1.229109
9552.000000;1.229401
9551.000000;1.229158
9550.000000;1.228224
9549.000000;1.226861
9548.000000;1.225542
9547.000000;1.224498
9546.000000;1.223703
9545.000000;1.223083
9544.000000;1.222448
9543.000000;1.221516
9542.000000;1.220393
9541.000000;1.219745
9540.000000;1.220044
9539.000000;1.220837
9538.000000;1.221231
9537.000000;1.220928
9536.000000;1.220295
9535.000000;1.219598
9534.000000;1.218814
9533.000000;1.218147
9532.000000;1.218040
9531.000000;1.218509
9530.000000;1.218908
9529.000000;1.218604
9528.000000;1.217591
9527.000000;1.216326
9526.000000;1.215232
9525.000000;1.214514
9524.000000;1.214193
9523.000000;1.214083
9522.000000;1.213918
9521.000000;1.213614
9520.000000;1.213271
9519.000000;1.212894
9518.000000;1.212318
9517.000000;1.211526
9516.000000;1.210880
9515.000000;1.210828
9514.000000;1.211402
9513.000000;1.212097
9512.000000;1.212240
9511.000000;1.211481
9510.000000;1.209948
9509.000000;1.208070
9508.000000;1.206368
9507.000000;1.205354
9506.000000;1.205299
9505.000000;1.205874
9504.000000;1.206219
9503.000000;1.205756
9502.000000;1.204855
9501.000000;1.204319
9500.000000;1.204312
9499.000000;1.204264
9498.000000;1.203865
9497.000000;1.203533
9496.000000;1.203636
9495.000000;1.203776
9494.000000;1.203304
9493.000000;1.202223
9492.000000;1.201139
9491.000000;1.200522
9490.000000;1.200429
9489.000000;1.200733
9488.000000;1.201185
9487.000000;1.201372
9486.000000;1.201014
9485.000000;1.200306
9484.000000;1.199684
9483.000000;1.199293
9482.000000;1.198937
9481.000000;1.198463
9480.000000;1.197916
9479.000000;1.197340
9478.000000;1.196701
9477.000000;1.196015
9476.000000;1.195346
9475.000000;1.194671
9474.000000;1.193915
9473.000000;1.193125
9472.000000;1.192441
9471.000000;1.191943
9470.000000;1.191644
9469.000000;1.191579
9468.000000;1.191733
9467.000000;1.191931
9466.000000;1.191949
9465.000000;1.191673
9464.000000;1.191036
9463.000000;1.189949
9462.000000;1.188468
9461.000000;1.186995
9460.000000;1.186050
9459.000000;1.185827
9458.000000;1.186051
9457.000000;1.186309
9456.000000;1.186374
9455.000000;1.186227
9454.000000;1.185908
9453.000000;1.185508
9452.000000;1.185254
9451.000000;1.185442
9450.000000;1.186153
9449.000000;1.187002
9448.000000;1.187328
9447.000000;1.186774
9446.000000;1.185610
9445.000000;1.184401
9444.000000;1.183507
9443.000000;1.183001
9442.000000;1.182845
9441.000000;1.182879
9440.000000;1.182763
9439.000000;1.182290
9438.000000;1.181738
9437.000000;1.181572
9436.000000;1.181800
9435.000000;1.181957
9434.000000;1.181736
9433.000000;1.181311
9432.000000;1.180950
9431.000000;1.180705
9430.000000;1.180580
9429.000000;1.180649
9428.000000;1.180771
9427.000000;1.180510
9426.000000;1.179579
9425.000000;1.178196
9424.000000;1.176851
9423.000000;1.175925
9422.000000;1.175596
9421.000000;1.175829
9420.000000;1.176282
9419.000000;1.176424
9418.000000;1.175938
9417.000000;1.174854
9416.000000;1.173359
9415.000000;1.171792
9414.000000;1.170802
9413.000000;1.170976
9412.000000;1.172042
9411.000000;1.172826
9410.000000;1.172355
9409.000000;1.170818
9408.000000;1.169191
9407.000000;1.168210
9406.000000;1.167969
9405.000000;1.168198
9404.000000;1.168546
9403.000000;1.168705
9402.000000;1.168611
9401.000000;1.168480
9400.000000;1.168517
9399.000000;1.168678
9398.000000;1.168777
9397.000000;1.168615
9396.000000;1.167930
9395.000000;1.166593
9394.000000;1.165058
9393.000000;1.164238
9392.000000;1.164613
9391.000000;1.165666
9390.000000;1.166481
9389.000000;1.166670
9388.000000;1.166419
9387.000000;1.165899
9386.000000;1.165119
9385.000000;1.164263
9384.000000;1.163717
9383.000000;1.163635
9382.000000;1.163697
9381.000000;1.163350
9380.000000;1.162239
9379.000000;1.160546
9378.000000;1.158995
9377.000000;1.158339
9376.000000;1.158643
9375.000000;1.159181
9374.000000;1.159188
9373.000000;1.158578
9372.000000;1.157760
9371.000000;1.157006
9370.000000;1.156321
9369.000000;1.155772
9368.000000;1.155532
9367.000000;1.155609
9366.000000;1.155757
9365.000000;1.155732
9364.000000;1.155514
9363.000000;1.155291
9362.000000;1.155293
9361.000000;1.155548
9360.000000;1.155722
9359.000000;1.155333
9358.000000;1.154290
9357.000000;1.153134
9356.000000;1.152586
9355.000000;1.152922
9354.000000;1.153795
9353.000000;1.154501
9352.000000;1.154388
9351.000000;1.153286
9350.000000;1.151701
9349.000000;1.150409
9348.000000;1.149735
9347.000000;1.149419
9346.000000;1.149211
9345.000000;1.149250
9344.000000;1.149646
9343.000000;1.150035
9342.000000;1.149884
9341.000000;1.149078
9340.000000;1.147930
9339.000000;1.146811
9338.000000;1.146018
9337.000000;1.145782
9336.000000;1.146029
9335.000000;1.146275
9334.000000;1.146099
9333.000000;1.145662
9332.000000;1.145414
9331.000000;1.145395
9330.000000;1.145177
9329.000000;1.144498
9328.000000;1.143576
9327.000000;1.142738
9326.000000;1.142064
9325.000000;1.141517
9324.000000;1.141151
9323.000000;1.141048
9322.000000;1.141200
9321.000000;1.141576
9320.000000;1.142181
9319.000000;1.142908
9318.000000;1.143416
9317.000000;1.143289
9316.000000;1.142382
9315.000000;1.141017
9314.000000;1.139855
9313.000000;1.139451
9312.000000;1.139779
9311.000000;1.140223
9310.000000;1.140115
9309.000000;1.139304
9308.000000;1.138171
9307.000000;1.137209
9306.000000;1.136664
9305.000000;1.136451
9304.000000;1.136234
9303.000000;1.135656
9302.000000;1.134704
9301.000000;1.133837
9300.000000;1.133582
9299.000000;1.133932
9298.000000;1.134309
9297.000000;1.134205
9296.000000;1.133731
9295.000000;1.133420
9294.000000;1.133555
9293.000000;1.133903
9292.000000;1.134099
9291.000000;1.134080
9290.000000;1.133993
9289.000000;1.133816
9288.000000;1.133313
9287.000000;1.132387
9286.000000;1.131236
9285.000000;1.130083
9284.000000;1.128995
9283.000000;1.128108
9282.000000;1.127774
9281.000000;1.128153
9280.000000;1.128769
9279.000000;1.128815
9278.000000;1.127980
9277.000000;1.126744
9276.000000;1.125815
9275.000000;1.125465
9274.000000;1.125455
9273.000000;1.125393
9272.000000;1.125090
9271.000000;1.124658
9270.000000;1.124316
9269.000000;1.124102
9268.000000;1.123822
9267.000000;1.123406
9266.000000;1.123148
9265.000000;1.123399
9264.000000;1.124079
9263.000000;1.124726
9262.000000;1.125000
9261.000000;1.124890
9260.000000;1.124469
9259.000000;1.123737
9258.000000;1.122785
9257.000000;1.121885
9256.000000;1.121300
9255.000000;1.121127
9254.000000;1.121322
9253.000000;1.121738
9252.000000;1.122102
9251.000000;1.122148
9250.000000;1.121803
9249.000000;1.121182
9248.000000;1.120438
9247.000000;1.119756
9246.000000;1.119357
9245.000000;1.119263
9244.000000;1.119139
9243.000000;1.118638
9242.000000;1.117826
9241.000000;1.117042
9240.000000;1.116447
9239.000000;1.116005
9238.000000;1.115788
9237.000000;1.115912
9236.000000;1.116211
9235.000000;1.116361
9234.000000;1.116320
9233.000000;1.116282
9232.000000;1.116221
9231.000000;1.115888
9230.000000;1.115306
9229.000000;1.114861
9228.000000;1.114770
9227.000000;1.114822
9226.000000;1.114718
9225.000000;1.114356
9224.000000;1.113743
9223.000000;1.112981
9222.000000;1.112412
9221.000000;1.112348
9220.000000;1.112569
9219.000000;1.112477
9218.000000;1.111848
9217.000000;1.111036
9216.000000;1.110348
9215.000000;1.109702
9214.000000;1.109109
9213.000000;1.108953
9212.000000;1.109464
9211.000000;1.110254
9210.000000;1.110690
9209.000000;1.110495
9208.000000;1.109796
9207.000000;1.108855
9206.000000;1.107989
9205.000000;1.107452
9204.000000;1.107137
9203.000000;1.106676
9202.000000;1.106036
9201.000000;1.105682
9200.000000;1.105923
9199.000000;1.106424
9198.000000;1.106652
9197.000000;1.106467
9196.000000;1.105978
9195.000000;1.105201
9194.000000;1.104283
9193.000000;1.103767
9192.000000;1.104111
9191.000000;1.105032
9190.000000;1.105702
9189.000000;1.105582
9188.000000;1.104820
9187.000000;1.103921
9186.000000;1.103300
9185.000000;1.103075
9184.000000;1.103036
9183.000000;1.102838
9182.000000;1.102425
9181.000000;1.102136
9180.000000;1.102239
9179.000000;1.102514
9178.000000;1.102480
9177.000000;1.101896
9176.000000;1.100873
9175.000000;1.099680
9174.000000;1.098686
9173.000000;1.098254
9172.000000;1.098438
9171.000000;1.098874
9170.000000;1.099178
9169.000000;1.099317
9168.000000;1.099422
9167.000000;1.099495
9166.000000;1.099519
9165.000000;1.099600
9164.000000;1.099688
9163.000000;1.099397
9162.000000;1.098486
9161.000000;1.097360
9160.000000;1.096699
9159.000000;1.096673
9158.000000;1.096883
9157.000000;1.096976
9156.000000;1.096952
9155.000000;1.096869
9154.000000;1.096614
9153.000000;1.096055
9152.000000;1.095172
9151.000000;1.094032
9150.000000;1.092847
9149.000000;1.092030
9148.000000;1.091901
9147.000000;1.092278
9146.000000;1.092600
9145.000000;1.092512
9144.000000;1.092154
9143.000000;1.091847
9142.000000;1.091719
9141.000000;1.091738
9140.000000;1.091879
9139.000000;1.092112
9138.000000;1.092311
9137.000000;1.092315
9136.000000;1.092086
9135.000000;1.091745
9134.000000;1.091455
9133.000000;1.091263
9132.000000;1.091066
9131.000000;1.090759
9130.000000;1.090386
9129.000000;1.090039
9128.000000;1.089631
9127.000000;1.088966
9126.000000;1.088075
9125.000000;1.087318
9124.000000;1.087022
9123.000000;1.087173
9122.000000;1.087562
9121.000000;1.088050
9120.000000;1.088506
9119.000000;1.088662
9118.000000;1.088279
9117.000000;1.087434
9116.000000;1.086459
9115.000000;1.085624
9114.000000;1.085014
9113.000000;1.084643
9112.000000;1.084481
9111.000000;1.084369
9110.000000;1.084071
9109.000000;1.083509
9108.000000;1.082865
9107.000000;1.082421
9106.000000;1.082335
9105.000000;1.082518
9104.000000;1.082715
9103.000000;1.082719
9102.000000;1.082552
9101.000000;1.082396
9100.000000;1.082375
9099.000000;1.082493
9098.000000;1.082733
9097.000000;1.083056
9096.000000;1.083260
9095.000000;1.083045
9094.000000;1.082332
9093.000000;1.081393
9092.000000;1.080581
9091.000000;1.080033
9090.000000;1.079696
9089.000000;1.079489
9088.000000;1.079315
9087.000000;1.079063
9086.000000;1.078737
9085.000000;1.078482
9084.000000;1.078395
9083.000000;1.078407
9082.000000;1.078446
9081.000000;1.078539
9080.000000;1.078632
9079.000000;1.078477
9078.000000;1.077959
9077.000000;1.077438
9076.000000;1.077464
9075.000000;1.078115
9074.000000;1.078815
9073.000000;1.078897
9072.000000;1.078245
9071.000000;1.077291
9070.000000;1.076502
9069.000000;1.075980
9068.000000;1.075558
9067.000000;1.075155
9066.000000;1.074891
9065.000000;1.074895
9064.000000;1.075115
9063.000000;1.075417
9062.000000;1.075737
9061.000000;1.076014
9060.000000;1.076058
9059.000000;1.075668
9058.000000;1.074880
9057.000000;1.073935
9056.000000;1.073026
9055.000000;1.072204
9054.000000;1.071543
9053.000000;1.071181
