Criado como novo conjunto de dados;"e2410_daniel_v2.spp","95947.1 Secs"
cm-1;Abs
10000.000000;0.111368
9999.000000;0.111639
9998.000000;0.112017
9997.000000;0.112628
9996.000000;0.113396
9995.000000;0.114150
9994.000000;0.114797
9993.000000;0.115362
9992.000000;0.115910
9991.000000;0.116480
9990.000000;0.117062
9989.000000;0.117621
9988.000000;0.118145
9987.000000;0.118682
9986.000000;0.119296
9985.000000;0.119981
9984.000000;0.120664
9983.000000;0.121301
9982.000000;0.121932
9981.000000;0.122600
9980.000000;0.123278
9979.000000;0.123912
9978.000000;0.124518
9977.000000;0.125177
9976.000000;0.125930
9975.000000;0.126726
9974.000000;0.127467
9973.000000;0.128110
9972.000000;0.128708
9971.000000;0.129347
9970.000000;0.130029
9969.000000;0.130643
9968.000000;0.131090
9967.000000;0.131431
9966.000000;0.131841
9965.000000;0.132442
9964.000000;0.133217
9963.000000;0.134076
9962.000000;0.134930
9961.000000;0.135675
9960.000000;0.136219
9959.000000;0.136579
9958.000000;0.136932
9957.000000;0.137461
9956.000000;0.138175
9955.000000;0.138926
9954.000000;0.139575
9953.000000;0.140105
9952.000000;0.140581
9951.000000;0.141081
9950.000000;0.141662
9949.000000;0.142338
9948.000000;0.143055
9947.000000;0.143734
9946.000000;0.144333
9945.000000;0.144879
9944.000000;0.145430
9943.000000;0.146035
9942.000000;0.146723
9941.000000;0.147490
9940.000000;0.148282
9939.000000;0.149030
9938.000000;0.149711
9937.000000;0.150369
9936.000000;0.151067
9935.000000;0.151841
9934.000000;0.152706
9933.000000;0.153653
9932.000000;0.154608
9931.000000;0.155429
9930.000000;0.156023
9929.000000;0.156474
9928.000000;0.156979
9927.000000;0.157624
9926.000000;0.158283
9925.000000;0.158798
9924.000000;0.159213
9923.000000;0.159732
9922.000000;0.160464
9921.000000;0.161332
9920.000000;0.162226
9919.000000;0.163141
9918.000000;0.164081
9917.000000;0.164937
9916.000000;0.165572
9915.000000;0.165985
9914.000000;0.166291
9913.000000;0.166579
9912.000000;0.166894
9911.000000;0.167320
9910.000000;0.167957
9909.000000;0.168790
9908.000000;0.169689
9907.000000;0.170570
9906.000000;0.171470
9905.000000;0.172432
9904.000000;0.173406
9903.000000;0.174301
9902.000000;0.175067
9901.000000;0.175676
9900.000000;0.176118
9899.000000;0.176476
9898.000000;0.176935
9897.000000;0.177617
9896.000000;0.178473
9895.000000;0.179389
9894.000000;0.180357
9893.000000;0.181423
9892.000000;0.182514
9891.000000;0.183425
9890.000000;0.184015
9889.000000;0.184348
9888.000000;0.184639
9887.000000;0.185103
9886.000000;0.185830
9885.000000;0.186735
9884.000000;0.187617
9883.000000;0.188351
9882.000000;0.189026
9881.000000;0.189830
9880.000000;0.190797
9879.000000;0.191758
9878.000000;0.192576
9877.000000;0.193305
9876.000000;0.194050
9875.000000;0.194762
9874.000000;0.195304
9873.000000;0.195677
9872.000000;0.196059
9871.000000;0.196600
9870.000000;0.197298
9869.000000;0.198103
9868.000000;0.199031
9867.000000;0.200074
9866.000000;0.201093
9865.000000;0.201930
9864.000000;0.202615
9863.000000;0.203348
9862.000000;0.204268
9861.000000;0.205312
9860.000000;0.206358
9859.000000;0.207395
9858.000000;0.208454
9857.000000;0.209444
9856.000000;0.210182
9855.000000;0.210622
9854.000000;0.210964
9853.000000;0.211459
9852.000000;0.212158
9851.000000;0.212920
9850.000000;0.213613
9849.000000;0.214234
9848.000000;0.214816
9847.000000;0.215332
9846.000000;0.215753
9845.000000;0.216159
9844.000000;0.216694
9843.000000;0.217429
9842.000000;0.218310
9841.000000;0.219250
9840.000000;0.220187
9839.000000;0.221076
9838.000000;0.221892
9837.000000;0.222672
9836.000000;0.223486
9835.000000;0.224316
9834.000000;0.225067
9833.000000;0.225727
9832.000000;0.226433
9831.000000;0.227283
9830.000000;0.228172
9829.000000;0.228925
9828.000000;0.229575
9827.000000;0.230327
9826.000000;0.231266
9825.000000;0.232241
9824.000000;0.233079
9823.000000;0.233789
9822.000000;0.234483
9821.000000;0.235216
9820.000000;0.235976
9819.000000;0.236789
9818.000000;0.237702
9817.000000;0.238709
9816.000000;0.239746
9815.000000;0.240722
9814.000000;0.241529
9813.000000;0.242087
9812.000000;0.242474
9811.000000;0.242953
9810.000000;0.243782
9809.000000;0.244989
9808.000000;0.246365
9807.000000;0.247622
9806.000000;0.248546
9805.000000;0.249079
9804.000000;0.249386
9803.000000;0.249791
9802.000000;0.250541
9801.000000;0.251616
9800.000000;0.252803
9799.000000;0.253897
9798.000000;0.254786
9797.000000;0.255423
9796.000000;0.255866
9795.000000;0.256320
9794.000000;0.256992
9793.000000;0.257876
9792.000000;0.258775
9791.000000;0.259547
9790.000000;0.260258
9789.000000;0.261087
9788.000000;0.262143
9787.000000;0.263376
9786.000000;0.264573
9785.000000;0.265477
9784.000000;0.266008
9783.000000;0.266375
9782.000000;0.266852
9781.000000;0.267484
9780.000000;0.268122
9779.000000;0.268727
9778.000000;0.269427
9777.000000;0.270273
9776.000000;0.271131
9775.000000;0.271923
9774.000000;0.272790
9773.000000;0.273871
9772.000000;0.275062
9771.000000;0.276147
9770.000000;0.277077
9769.000000;0.277953
9768.000000;0.278830
9767.000000;0.279700
9766.000000;0.280632
9765.000000;0.281736
9764.000000;0.282981
9763.000000;0.284191
9762.000000;0.285256
9761.000000;0.286227
9760.000000;0.287172
9759.000000;0.288058
9758.000000;0.288806
9757.000000;0.289396
9756.000000;0.289875
9755.000000;0.290314
9754.000000;0.290803
9753.000000;0.291412
9752.000000;0.292144
9751.000000;0.292960
9750.000000;0.293835
9749.000000;0.294737
9748.000000;0.295579
9747.000000;0.296303
9746.000000;0.296998
9745.000000;0.297823
9744.000000;0.298783
9743.000000;0.299692
9742.000000;0.300416
9741.000000;0.301054
9740.000000;0.301806
9739.000000;0.302745
9738.000000;0.303806
9737.000000;0.304910
9736.000000;0.306007
9735.000000;0.307041
9734.000000;0.307984
9733.000000;0.308878
9732.000000;0.309771
9731.000000;0.310638
9730.000000;0.311422
9729.000000;0.312167
9728.000000;0.313022
9727.000000;0.314096
9726.000000;0.315342
9725.000000;0.316602
9724.000000;0.317700
9723.000000;0.318517
9722.000000;0.319040
9721.000000;0.319373
9720.000000;0.319700
9719.000000;0.320195
9718.000000;0.320960
9717.000000;0.321983
9716.000000;0.323152
9715.000000;0.324324
9714.000000;0.325412
9713.000000;0.326399
9712.000000;0.327269
9711.000000;0.328009
9710.000000;0.328704
9709.000000;0.329524
9708.000000;0.330509
9707.000000;0.331449
9706.000000;0.332114
9705.000000;0.332581
9704.000000;0.333147
9703.000000;0.333953
9702.000000;0.334874
9701.000000;0.335808
9700.000000;0.336877
9699.000000;0.338190
9698.000000;0.339580
9697.000000;0.340740
9696.000000;0.341569
9695.000000;0.342221
9694.000000;0.342856
9693.000000;0.343498
9692.000000;0.344147
9691.000000;0.344867
9690.000000;0.345703
9689.000000;0.346606
9688.000000;0.347510
9687.000000;0.348461
9686.000000;0.349577
9685.000000;0.350896
9684.000000;0.352264
9683.000000;0.353384
9682.000000;0.354021
9681.000000;0.354224
9680.000000;0.354350
9679.000000;0.354816
9678.000000;0.355789
9677.000000;0.357102
9676.000000;0.358393
9675.000000;0.359314
9674.000000;0.359723
9673.000000;0.359806
9672.000000;0.360022
9671.000000;0.360774
9670.000000;0.362048
9669.000000;0.363426
9668.000000;0.364514
9667.000000;0.365314
9666.000000;0.366121
9665.000000;0.367121
9664.000000;0.368190
9663.000000;0.369074
9662.000000;0.369675
9661.000000;0.370133
9660.000000;0.370691
9659.000000;0.371509
9658.000000;0.372549
9657.000000;0.373592
9656.000000;0.374396
9655.000000;0.374930
9654.000000;0.375487
9653.000000;0.376486
9652.000000;0.378072
9651.000000;0.379895
9650.000000;0.381351
9649.000000;0.382094
9648.000000;0.382325
9647.000000;0.382578
9646.000000;0.383264
9645.000000;0.384393
9644.000000;0.385663
9643.000000;0.386763
9642.000000;0.387621
9641.000000;0.388398
9640.000000;0.389283
9639.000000;0.390307
9638.000000;0.391346
9637.000000;0.392216
9636.000000;0.392758
9635.000000;0.392920
9634.000000;0.392880
9633.000000;0.393050
9632.000000;0.393785
9631.000000;0.395053
9630.000000;0.396501
9629.000000;0.397865
9628.000000;0.399140
9627.000000;0.400298
9626.000000;0.401088
9625.000000;0.401336
9624.000000;0.401326
9623.000000;0.401612
9622.000000;0.402441
9621.000000;0.403526
9620.000000;0.404421
9619.000000;0.404998
9618.000000;0.405500
9617.000000;0.406214
9616.000000;0.407146
9615.000000;0.408018
9614.000000;0.408611
9613.000000;0.409086
9612.000000;0.409811
9611.000000;0.410833
9610.000000;0.411729
9609.000000;0.412169
9608.000000;0.412448
9607.000000;0.413127
9606.000000;0.414259
9605.000000;0.415338
9604.000000;0.416048
9603.000000;0.416671
9602.000000;0.417605
9601.000000;0.418833
9600.000000;0.420079
9599.000000;0.421226
9598.000000;0.422267
9597.000000;0.423059
9596.000000;0.423470
9595.000000;0.423689
9594.000000;0.424099
9593.000000;0.424834
9592.000000;0.425718
9591.000000;0.426610
9590.000000;0.427523
9589.000000;0.428397
9588.000000;0.429038
9587.000000;0.429404
9586.000000;0.429741
9585.000000;0.430295
9584.000000;0.431064
9583.000000;0.431939
9582.000000;0.432910
9581.000000;0.433949
9580.000000;0.434841
9579.000000;0.435400
9578.000000;0.435778
9577.000000;0.436348
9576.000000;0.437261
9575.000000;0.438317
9574.000000;0.439295
9573.000000;0.440210
9572.000000;0.441138
9571.000000;0.441936
9570.000000;0.442340
9569.000000;0.442306
9568.000000;0.442119
9567.000000;0.442170
9566.000000;0.442708
9565.000000;0.443751
9564.000000;0.445078
9563.000000;0.446300
9562.000000;0.447084
9561.000000;0.447418
9560.000000;0.447628
9559.000000;0.448060
9558.000000;0.448758
9557.000000;0.449459
9556.000000;0.449874
9555.000000;0.450011
9554.000000;0.450227
9553.000000;0.450920
9552.000000;0.452104
9551.000000;0.453321
9550.000000;0.454102
9549.000000;0.454467
9548.000000;0.454851
9547.000000;0.455535
9546.000000;0.456323
9545.000000;0.456840
9544.000000;0.456940
9543.000000;0.456735
9542.000000;0.456422
9541.000000;0.456272
9540.000000;0.456604
9539.000000;0.457497
9538.000000;0.458576
9537.000000;0.459342
9536.000000;0.459702
9535.000000;0.459976
9534.000000;0.460394
9533.000000;0.460857
9532.000000;0.461232
9531.000000;0.461635
9530.000000;0.462256
9529.000000;0.463069
9528.000000;0.463876
9527.000000;0.464551
9526.000000;0.465121
9525.000000;0.465631
9524.000000;0.466014
9523.000000;0.466093
9522.000000;0.465770
9521.000000;0.465301
9520.000000;0.465301
9519.000000;0.466232
9518.000000;0.467788
9517.000000;0.469044
9516.000000;0.469386
9515.000000;0.469170
9514.000000;0.469243
9513.000000;0.469964
9512.000000;0.470940
9511.000000;0.471623
9510.000000;0.471915
9509.000000;0.472132
9508.000000;0.472580
9507.000000;0.473271
9506.000000;0.473944
9505.000000;0.474277
9504.000000;0.474199
9503.000000;0.474027
9502.000000;0.474228
9501.000000;0.474959
9500.000000;0.475912
9499.000000;0.476629
9498.000000;0.476886
9497.000000;0.476740
9496.000000;0.476328
9495.000000;0.475777
9494.000000;0.475272
9493.000000;0.475054
9492.000000;0.475240
9491.000000;0.475710
9490.000000;0.476247
9489.000000;0.476804
9488.000000;0.477580
9487.000000;0.478722
9486.000000;0.479965
9485.000000;0.480671
9484.000000;0.480387
9483.000000;0.479362
9482.000000;0.478407
9481.000000;0.478182
9480.000000;0.478667
9479.000000;0.479361
9478.000000;0.479862
9477.000000;0.480149
9476.000000;0.480368
9475.000000;0.480580
9474.000000;0.480795
9473.000000;0.481075
9472.000000;0.481472
9471.000000;0.481919
9470.000000;0.482284
9469.000000;0.482501
9468.000000;0.482571
9467.000000;0.482479
9466.000000;0.482202
9465.000000;0.481764
9464.000000;0.481201
9463.000000;0.480577
9462.000000;0.480079
9461.000000;0.479985
9460.000000;0.480359
9459.000000;0.480866
9458.000000;0.481130
9457.000000;0.481233
9456.000000;0.481573
9455.000000;0.482202
9454.000000;0.482638
9453.000000;0.482482
9452.000000;0.481938
9451.000000;0.481505
9450.000000;0.481401
9449.000000;0.481553
9448.000000;0.481937
9447.000000;0.482560
9446.000000;0.483171
9445.000000;0.483383
9444.000000;0.483152
9443.000000;0.482851
9442.000000;0.482801
9441.000000;0.482926
9440.000000;0.482948
9439.000000;0.482732
9438.000000;0.482350
9437.000000;0.481967
9436.000000;0.481749
9435.000000;0.481746
9434.000000;0.481797
9433.000000;0.481663
9432.000000;0.481328
9431.000000;0.481035
9430.000000;0.480989
9429.000000;0.481132
9428.000000;0.481282
9427.000000;0.481341
9426.000000;0.481308
9425.000000;0.481219
9424.000000;0.481172
9423.000000;0.481269
9422.000000;0.481415
9421.000000;0.481295
9420.000000;0.480709
9419.000000;0.479841
9418.000000;0.479064
9417.000000;0.478575
9416.000000;0.478358
9415.000000;0.478390
9414.000000;0.478654
9413.000000;0.478943
9412.000000;0.478890
9411.000000;0.478300
9410.000000;0.477371
9409.000000;0.476505
9408.000000;0.475975
9407.000000;0.475804
9406.000000;0.475884
9405.000000;0.476081
9404.000000;0.476294
9403.000000;0.476476
9402.000000;0.476634
9401.000000;0.476725
9400.000000;0.476578
9399.000000;0.476003
9398.000000;0.475040
9397.000000;0.474051
9396.000000;0.473466
9395.000000;0.473394
9394.000000;0.473539
9393.000000;0.473494
9392.000000;0.473100
9391.000000;0.472527
9390.000000;0.472067
9389.000000;0.471894
9388.000000;0.471940
9387.000000;0.471950
9386.000000;0.471697
9385.000000;0.471206
9384.000000;0.470732
9383.000000;0.470495
9382.000000;0.470493
9381.000000;0.470626
9380.000000;0.470881
9379.000000;0.471248
9378.000000;0.471527
9377.000000;0.471392
9376.000000;0.470685
9375.000000;0.469568
9374.000000;0.468365
9373.000000;0.467337
9372.000000;0.466576
9371.000000;0.465999
9370.000000;0.465437
9369.000000;0.464843
9368.000000;0.464383
9367.000000;0.464255
9366.000000;0.464420
9365.000000;0.464617
9364.000000;0.464599
9363.000000;0.464233
9362.000000;0.463460
9361.000000;0.462373
9360.000000;0.461309
9359.000000;0.460621
9358.000000;0.460249
9357.000000;0.459744
9356.000000;0.458820
9355.000000;0.457723
9354.000000;0.456905
9353.000000;0.456489
9352.000000;0.456204
9351.000000;0.455768
9350.000000;0.455141
9349.000000;0.454491
9348.000000;0.454065
9347.000000;0.454018
9346.000000;0.454201
9345.000000;0.454163
9344.000000;0.453532
9343.000000;0.452423
9342.000000;0.451359
9341.000000;0.450816
9340.000000;0.450895
9339.000000;0.451341
9338.000000;0.451735
9337.000000;0.451702
9336.000000;0.451136
9335.000000;0.450284
9334.000000;0.449510
9333.000000;0.448959
9332.000000;0.448515
9331.000000;0.448058
9330.000000;0.447642
9329.000000;0.447361
9328.000000;0.447155
9327.000000;0.446845
9326.000000;0.446338
9325.000000;0.445741
9324.000000;0.445232
9323.000000;0.444821
9322.000000;0.444287
9321.000000;0.443417
9320.000000;0.442301
9319.000000;0.441271
9318.000000;0.440547
9317.000000;0.440038
9316.000000;0.439577
9315.000000;0.439192
9314.000000;0.438997
9313.000000;0.438929
9312.000000;0.438761
9311.000000;0.438372
9310.000000;0.437824
9309.000000;0.437166
9308.000000;0.436353
9307.000000;0.435393
9306.000000;0.434415
9305.000000;0.433512
9304.000000;0.432639
9303.000000;0.431740
9302.000000;0.430912
9301.000000;0.430356
9300.000000;0.430149
9299.000000;0.430104
9298.000000;0.429868
9297.000000;0.429216
9296.000000;0.428295
9295.000000;0.427482
9294.000000;0.426961
9293.000000;0.426545
9292.000000;0.426043
9291.000000;0.425625
9290.000000;0.425574
9289.000000;0.425739
9288.000000;0.425562
9287.000000;0.424731
9286.000000;0.423524
9285.000000;0.422402
9284.000000;0.421531
9283.000000;0.420859
9282.000000;0.420358
9281.000000;0.419933
9280.000000;0.419322
9279.000000;0.418423
9278.000000;0.417627
9277.000000;0.417485
9276.000000;0.418025
9275.000000;0.418651
9274.000000;0.418757
9273.000000;0.418177
9272.000000;0.417039
9271.000000;0.415546
9270.000000;0.414062
9269.000000;0.413090
9268.000000;0.412841
9267.000000;0.412954
9266.000000;0.412896
9265.000000;0.412579
9264.000000;0.412327
9263.000000;0.412259
9262.000000;0.412020
9261.000000;0.411249
9260.000000;0.410090
9259.000000;0.409042
9258.000000;0.408359
9257.000000;0.407788
9256.000000;0.406917
9255.000000;0.405677
9254.000000;0.404423
9253.000000;0.403601
9252.000000;0.403363
9251.000000;0.403486
9250.000000;0.403587
9249.000000;0.403400
9248.000000;0.402872
9247.000000;0.402077
9246.000000;0.401106
9245.000000;0.400074
9244.000000;0.399145
9243.000000;0.398444
9242.000000;0.397916
9241.000000;0.397342
9240.000000;0.396592
9239.000000;0.395809
9238.000000;0.395272
9237.000000;0.395063
9236.000000;0.394960
9235.000000;0.394701
9234.000000;0.394246
9233.000000;0.393727
9232.000000;0.393205
9231.000000;0.392580
9230.000000;0.391749
9229.000000;0.390762
9228.000000;0.389794
9227.000000;0.389007
9226.000000;0.388455
9225.000000;0.388068
9224.000000;0.387685
9223.000000;0.387164
9222.000000;0.386484
9221.000000;0.385766
9220.000000;0.385166
9219.000000;0.384758
9218.000000;0.384485
9217.000000;0.384202
9216.000000;0.383759
9215.000000;0.383079
9214.000000;0.382183
9213.000000;0.381159
9212.000000;0.380140
9211.000000;0.379283
9210.000000;0.378677
9209.000000;0.378214
9208.000000;0.377646
9207.000000;0.376874
9206.000000;0.376128
9205.000000;0.375707
9204.000000;0.375576
9203.000000;0.375368
9202.000000;0.374841
9201.000000;0.374155
9200.000000;0.373603
9199.000000;0.373219
9198.000000;0.372801
9197.000000;0.372241
9196.000000;0.371640
9195.000000;0.371134
9194.000000;0.370728
9193.000000;0.370321
9192.000000;0.369781
9191.000000;0.369009
9190.000000;0.368055
9189.000000;0.367173
9188.000000;0.366595
9187.000000;0.366247
9186.000000;0.365807
9185.000000;0.365110
9184.000000;0.364350
9183.000000;0.363792
9182.000000;0.363422
9181.000000;0.363008
9180.000000;0.362433
9179.000000;0.361827
9178.000000;0.361373
9177.000000;0.361104
9176.000000;0.360852
9175.000000;0.360345
9174.000000;0.359415
9173.000000;0.358218
9172.000000;0.357216
9171.000000;0.356791
9170.000000;0.356863
9169.000000;0.356966
9168.000000;0.356721
9167.000000;0.356144
9166.000000;0.355491
9165.000000;0.354927
9164.000000;0.354402
9163.000000;0.353767
9162.000000;0.352928
9161.000000;0.351922
9160.000000;0.350908
9159.000000;0.350044
9158.000000;0.349350
9157.000000;0.348753
9156.000000;0.348284
9155.000000;0.348094
9154.000000;0.348202
9153.000000;0.348298
9152.000000;0.347969
9151.000000;0.347124
9150.000000;0.346093
9149.000000;0.345283
9148.000000;0.344808
9147.000000;0.344462
9146.000000;0.343976
9145.000000;0.343255
9144.000000;0.342450
9143.000000;0.341827
9142.000000;0.341530
9141.000000;0.341417
9140.000000;0.341160
9139.000000;0.340543
9138.000000;0.339656
9137.000000;0.338801
9136.000000;0.338223
9135.000000;0.337938
9134.000000;0.337761
9133.000000;0.337474
9132.000000;0.336997
9131.000000;0.336446
9130.000000;0.335993
9129.000000;0.335642
9128.000000;0.335189
9127.000000;0.334451
9126.000000;0.333501
9125.000000;0.332616
9124.000000;0.331989
9123.000000;0.331572
9122.000000;0.331195
9121.000000;0.330761
9120.000000;0.330301
9119.000000;0.329894
9118.000000;0.329586
9117.000000;0.329347
9116.000000;0.329049
9115.000000;0.328517
9114.000000;0.327686
9113.000000;0.326716
9112.000000;0.325895
9111.000000;0.325396
9110.000000;0.325168
9109.000000;0.325037
9108.000000;0.324843
9107.000000;0.324467
9106.000000;0.323830
9105.000000;0.322953
9104.000000;0.322004
9103.000000;0.321196
9102.000000;0.320637
9101.000000;0.320300
9100.000000;0.320100
9099.000000;0.319936
9098.000000;0.319716
9097.000000;0.319415
9096.000000;0.319104
9095.000000;0.318817
9094.000000;0.318415
9093.000000;0.317688
9092.000000;0.316654
9091.000000;0.315637
9090.000000;0.314972
9089.000000;0.314685
9088.000000;0.314505
9087.000000;0.314123
9086.000000;0.313383
9085.000000;0.312333
9084.000000;0.311234
9083.000000;0.310474
9082.000000;0.310308
9081.000000;0.310606
9080.000000;0.310913
9079.000000;0.310816
9078.000000;0.310254
9077.000000;0.309515
9076.000000;0.308965
9075.000000;0.308733
9074.000000;0.308609
9073.000000;0.308277
9072.000000;0.307701
9071.000000;0.307187
9070.000000;0.306983
9069.000000;0.306916
9068.000000;0.306565
9067.000000;0.305782
9066.000000;0.304846
9065.000000;0.304111
9064.000000;0.303672
9063.000000;0.303413
9062.000000;0.303192
9061.000000;0.302871
9060.000000;0.302345
9059.000000;0.301669
9058.000000;0.301067
9057.000000;0.300680
9056.000000;0.300389
9055.000000;0.299994
9054.000000;0.299488
9053.000000;0.299020
