Criado como novo conjunto de dados;"e2410_daniel_v2.spp","107467.4 Secs"
cm-1;Abs
10000.000000;0.151963
9999.000000;0.152397
9998.000000;0.153058
9997.000000;0.153833
9996.000000;0.154467
9995.000000;0.154895
9994.000000;0.155324
9993.000000;0.155939
9992.000000;0.156664
9991.000000;0.157311
9990.000000;0.157861
9989.000000;0.158459
9988.000000;0.159157
9987.000000;0.159845
9986.000000;0.160456
9985.000000;0.161093
9984.000000;0.161862
9983.000000;0.162674
9982.000000;0.163330
9981.000000;0.163756
9980.000000;0.164085
9979.000000;0.164520
9978.000000;0.165190
9977.000000;0.166090
9976.000000;0.167100
9975.000000;0.168063
9974.000000;0.168912
9973.000000;0.169701
9972.000000;0.170478
9971.000000;0.171181
9970.000000;0.171736
9969.000000;0.172218
9968.000000;0.172797
9967.000000;0.173524
9966.000000;0.174270
9965.000000;0.174918
9964.000000;0.175522
9963.000000;0.176191
9962.000000;0.176915
9961.000000;0.177580
9960.000000;0.178144
9959.000000;0.178699
9958.000000;0.179359
9957.000000;0.180143
9956.000000;0.180971
9955.000000;0.181760
9954.000000;0.182481
9953.000000;0.183150
9952.000000;0.183769
9951.000000;0.184330
9950.000000;0.184875
9949.000000;0.185513
9948.000000;0.186295
9947.000000;0.187102
9946.000000;0.187733
9945.000000;0.188136
9944.000000;0.188479
9943.000000;0.188964
9942.000000;0.189647
9941.000000;0.190476
9940.000000;0.191413
9939.000000;0.192419
9938.000000;0.193390
9937.000000;0.194224
9936.000000;0.194942
9935.000000;0.195664
9934.000000;0.196448
9933.000000;0.197231
9932.000000;0.197923
9931.000000;0.198510
9930.000000;0.199039
9929.000000;0.199567
9928.000000;0.200156
9927.000000;0.200892
9926.000000;0.201845
9925.000000;0.202993
9924.000000;0.204184
9923.000000;0.205238
9922.000000;0.206108
9921.000000;0.206946
9920.000000;0.207916
9919.000000;0.208963
9918.000000;0.209818
9917.000000;0.210296
9916.000000;0.210488
9915.000000;0.210639
9914.000000;0.210913
9913.000000;0.211358
9912.000000;0.211999
9911.000000;0.212838
9910.000000;0.213775
9909.000000;0.214668
9908.000000;0.215488
9907.000000;0.216324
9906.000000;0.217224
9905.000000;0.218137
9904.000000;0.219014
9903.000000;0.219906
9902.000000;0.220873
9901.000000;0.221867
9900.000000;0.222749
9899.000000;0.223439
9898.000000;0.224016
9897.000000;0.224649
9896.000000;0.225432
9895.000000;0.226291
9894.000000;0.227099
9893.000000;0.227862
9892.000000;0.228722
9891.000000;0.229747
9890.000000;0.230809
9889.000000;0.231739
9888.000000;0.232529
9887.000000;0.233275
9886.000000;0.233998
9885.000000;0.234636
9884.000000;0.235209
9883.000000;0.235857
9882.000000;0.236700
9881.000000;0.237738
9880.000000;0.238903
9879.000000;0.240104
9878.000000;0.241207
9877.000000;0.242086
9876.000000;0.242739
9875.000000;0.243318
9874.000000;0.243989
9873.000000;0.244805
9872.000000;0.245684
9871.000000;0.246489
9870.000000;0.247154
9869.000000;0.247811
9868.000000;0.248726
9867.000000;0.250023
9866.000000;0.251486
9865.000000;0.252744
9864.000000;0.253649
9863.000000;0.254339
9862.000000;0.254930
9861.000000;0.255342
9860.000000;0.255510
9859.000000;0.255608
9858.000000;0.255943
9857.000000;0.256671
9856.000000;0.257706
9855.000000;0.258845
9854.000000;0.259912
9853.000000;0.260845
9852.000000;0.261713
9851.000000;0.262637
9850.000000;0.263646
9849.000000;0.264638
9848.000000;0.265528
9847.000000;0.266334
9846.000000;0.267090
9845.000000;0.267741
9844.000000;0.268216
9843.000000;0.268573
9842.000000;0.269002
9841.000000;0.269664
9840.000000;0.270584
9839.000000;0.271680
9838.000000;0.272864
9837.000000;0.274090
9836.000000;0.275325
9835.000000;0.276489
9834.000000;0.277442
9833.000000;0.278094
9832.000000;0.278501
9831.000000;0.278832
9830.000000;0.279269
9829.000000;0.279966
9828.000000;0.281024
9827.000000;0.282386
9826.000000;0.283794
9825.000000;0.284982
9824.000000;0.285912
9823.000000;0.286728
9822.000000;0.287495
9821.000000;0.288172
9820.000000;0.288836
9819.000000;0.289707
9818.000000;0.290845
9817.000000;0.291996
9816.000000;0.292889
9815.000000;0.293548
9814.000000;0.294157
9813.000000;0.294760
9812.000000;0.295282
9811.000000;0.295788
9810.000000;0.296508
9809.000000;0.297623
9808.000000;0.299145
9807.000000;0.300971
9806.000000;0.302879
9805.000000;0.304490
9804.000000;0.305437
9803.000000;0.305686
9802.000000;0.305608
9801.000000;0.305700
9800.000000;0.306288
9799.000000;0.307459
9798.000000;0.309079
9797.000000;0.310800
9796.000000;0.312213
9795.000000;0.313145
9794.000000;0.313777
9793.000000;0.314385
9792.000000;0.315030
9791.000000;0.315587
9790.000000;0.316041
9789.000000;0.316628
9788.000000;0.317593
9787.000000;0.318863
9786.000000;0.320070
9785.000000;0.320952
9784.000000;0.321679
9783.000000;0.322663
9782.000000;0.324010
9781.000000;0.325285
9780.000000;0.325970
9779.000000;0.326095
9778.000000;0.326263
9777.000000;0.327040
9776.000000;0.328429
9775.000000;0.330005
9774.000000;0.331377
9773.000000;0.332455
9772.000000;0.333385
9771.000000;0.334381
9770.000000;0.335575
9769.000000;0.336882
9768.000000;0.338045
9767.000000;0.338935
9766.000000;0.339753
9765.000000;0.340780
9764.000000;0.341941
9763.000000;0.342857
9762.000000;0.343373
9761.000000;0.343829
9760.000000;0.344645
9759.000000;0.345827
9758.000000;0.347052
9757.000000;0.348114
9756.000000;0.349059
9755.000000;0.349936
9754.000000;0.350692
9753.000000;0.351335
9752.000000;0.351982
9751.000000;0.352703
9750.000000;0.353496
9749.000000;0.354459
9748.000000;0.355744
9747.000000;0.357245
9746.000000;0.358542
9745.000000;0.359352
9744.000000;0.359883
9743.000000;0.360549
9742.000000;0.361478
9741.000000;0.362503
9740.000000;0.363534
9739.000000;0.364637
9738.000000;0.365762
9737.000000;0.366664
9736.000000;0.367200
9735.000000;0.367541
9734.000000;0.367989
9733.000000;0.368687
9732.000000;0.369574
9731.000000;0.370553
9730.000000;0.371604
9729.000000;0.372752
9728.000000;0.373954
9727.000000;0.375045
9726.000000;0.375864
9725.000000;0.376487
9724.000000;0.377262
9723.000000;0.378472
9722.000000;0.380001
9721.000000;0.381465
9720.000000;0.382637
9719.000000;0.383606
9718.000000;0.384541
9717.000000;0.385458
9716.000000;0.386270
9715.000000;0.386919
9714.000000;0.387400
9713.000000;0.387785
9712.000000;0.388267
9711.000000;0.389035
9710.000000;0.390061
9709.000000;0.391142
9708.000000;0.392197
9707.000000;0.393361
9706.000000;0.394715
9705.000000;0.396086
9704.000000;0.397272
9703.000000;0.398349
9702.000000;0.399577
9701.000000;0.401053
9700.000000;0.402575
9699.000000;0.403804
9698.000000;0.404474
9697.000000;0.404552
9696.000000;0.404376
9695.000000;0.404578
9694.000000;0.405636
9693.000000;0.407407
9692.000000;0.409212
9691.000000;0.410459
9690.000000;0.411137
9689.000000;0.411656
9688.000000;0.412298
9687.000000;0.412979
9686.000000;0.413533
9685.000000;0.414096
9684.000000;0.415055
9683.000000;0.416596
9682.000000;0.418414
9681.000000;0.419973
9680.000000;0.421049
9679.000000;0.421886
9678.000000;0.422827
9677.000000;0.423931
9676.000000;0.425045
9675.000000;0.426123
9674.000000;0.427239
9673.000000;0.428315
9672.000000;0.429057
9671.000000;0.429312
9670.000000;0.429374
9669.000000;0.429737
9668.000000;0.430567
9667.000000;0.431583
9666.000000;0.432517
9665.000000;0.433522
9664.000000;0.434935
9663.000000;0.436711
9662.000000;0.438324
9661.000000;0.439270
9660.000000;0.439560
9659.000000;0.439625
9658.000000;0.439892
9657.000000;0.440540
9656.000000;0.441501
9655.000000;0.442519
9654.000000;0.443275
9653.000000;0.443685
9652.000000;0.444070
9651.000000;0.444867
9650.000000;0.446151
9649.000000;0.447566
9648.000000;0.448744
9647.000000;0.449662
9646.000000;0.450544
9645.000000;0.451563
9644.000000;0.452728
9643.000000;0.453937
9642.000000;0.455002
9641.000000;0.455706
9640.000000;0.456011
9639.000000;0.456222
9638.000000;0.456796
9637.000000;0.457893
9636.000000;0.459180
9635.000000;0.460192
9634.000000;0.460863
9633.000000;0.461568
9632.000000;0.462618
9631.000000;0.463864
9630.000000;0.464934
9629.000000;0.465696
9628.000000;0.466276
9627.000000;0.466707
9626.000000;0.466876
9625.000000;0.466923
9624.000000;0.467353
9623.000000;0.468537
9622.000000;0.470253
9621.000000;0.471911
9620.000000;0.473103
9619.000000;0.473800
9618.000000;0.474177
9617.000000;0.474529
9616.000000;0.475229
9615.000000;0.476465
9614.000000;0.477977
9613.000000;0.479264
9612.000000;0.480062
9611.000000;0.480482
9610.000000;0.480761
9609.000000;0.481108
9608.000000;0.481702
9607.000000;0.482557
9606.000000;0.483398
9605.000000;0.483918
9604.000000;0.484174
9603.000000;0.484497
9602.000000;0.485067
9601.000000;0.485866
9600.000000;0.487011
9599.000000;0.488685
9598.000000;0.490626
9597.000000;0.492069
9596.000000;0.492475
9595.000000;0.492082
9594.000000;0.491511
9593.000000;0.491132
9592.000000;0.491074
9591.000000;0.491569
9590.000000;0.492841
9589.000000;0.494692
9588.000000;0.496516
9587.000000;0.497827
9586.000000;0.498604
9585.000000;0.499113
9584.000000;0.499567
9583.000000;0.500030
9582.000000;0.500525
9581.000000;0.501162
9580.000000;0.502091
9579.000000;0.503290
9578.000000;0.504437
9577.000000;0.505145
9576.000000;0.505367
9575.000000;0.505408
9574.000000;0.505487
9573.000000;0.505513
9572.000000;0.505424
9571.000000;0.505514
9570.000000;0.506148
9569.000000;0.507253
9568.000000;0.508360
9567.000000;0.509113
9566.000000;0.509560
9565.000000;0.509906
9564.000000;0.510200
9563.000000;0.510360
9562.000000;0.510399
9561.000000;0.510515
9560.000000;0.510939
9559.000000;0.511720
9558.000000;0.512674
9557.000000;0.513588
9556.000000;0.514424
9555.000000;0.515214
9554.000000;0.515809
9553.000000;0.515987
9552.000000;0.515875
9551.000000;0.515995
9550.000000;0.516685
9549.000000;0.517625
9548.000000;0.518207
9547.000000;0.518283
9546.000000;0.518279
9545.000000;0.518619
9544.000000;0.519305
9543.000000;0.520099
9542.000000;0.520839
9541.000000;0.521462
9540.000000;0.521881
9539.000000;0.522035
9538.000000;0.522007
9537.000000;0.521980
9536.000000;0.522086
9535.000000;0.522302
9534.000000;0.522464
9533.000000;0.522365
9532.000000;0.521951
9531.000000;0.521462
9530.000000;0.521338
9529.000000;0.521861
9528.000000;0.522859
9527.000000;0.523773
9526.000000;0.524099
9525.000000;0.523833
9524.000000;0.523463
9523.000000;0.523470
9522.000000;0.523891
9521.000000;0.524425
9520.000000;0.524899
9519.000000;0.525416
9518.000000;0.526007
9517.000000;0.526407
9516.000000;0.526376
9515.000000;0.526097
9514.000000;0.526023
9513.000000;0.526341
9512.000000;0.526793
9511.000000;0.527041
9510.000000;0.527060
9509.000000;0.527118
9508.000000;0.527473
9507.000000;0.528107
9506.000000;0.528680
9505.000000;0.528768
9504.000000;0.528245
9503.000000;0.527440
9502.000000;0.526838
9501.000000;0.526671
9500.000000;0.526894
9499.000000;0.527446
9498.000000;0.528325
9497.000000;0.529374
9496.000000;0.530216
9495.000000;0.530511
9494.000000;0.530195
9493.000000;0.529431
9492.000000;0.528463
9491.000000;0.527558
9490.000000;0.526955
9489.000000;0.526730
9488.000000;0.526765
9487.000000;0.526908
9486.000000;0.527141
9485.000000;0.527525
9484.000000;0.528048
9483.000000;0.528599
9482.000000;0.529002
9481.000000;0.529044
9480.000000;0.528562
9479.000000;0.527642
9478.000000;0.526689
9477.000000;0.526226
9476.000000;0.526545
9475.000000;0.527508
9474.000000;0.528591
9473.000000;0.529129
9472.000000;0.528714
9471.000000;0.527550
9470.000000;0.526380
9469.000000;0.525869
9468.000000;0.526019
9467.000000;0.526305
9466.000000;0.526345
9465.000000;0.526274
9464.000000;0.526386
9463.000000;0.526553
9462.000000;0.526242
9461.000000;0.525139
9460.000000;0.523626
9459.000000;0.522493
9458.000000;0.522228
9457.000000;0.522652
9456.000000;0.523183
9455.000000;0.523356
9454.000000;0.523083
9453.000000;0.522556
9452.000000;0.522009
9451.000000;0.521563
9450.000000;0.521230
9449.000000;0.521013
9448.000000;0.520948
9447.000000;0.520981
9446.000000;0.520864
9445.000000;0.520368
9444.000000;0.519647
9443.000000;0.519177
9442.000000;0.519168
9441.000000;0.519220
9440.000000;0.518820
9439.000000;0.518063
9438.000000;0.517571
9437.000000;0.517711
9436.000000;0.518254
9435.000000;0.518832
9434.000000;0.519350
9433.000000;0.519721
9432.000000;0.519578
9431.000000;0.518612
9430.000000;0.517070
9429.000000;0.515566
9428.000000;0.514463
9427.000000;0.513698
9426.000000;0.513114
9425.000000;0.512638
9424.000000;0.512173
9423.000000;0.511665
9422.000000;0.511316
9421.000000;0.511438
9420.000000;0.511936
9419.000000;0.512168
9418.000000;0.511511
9417.000000;0.509972
9416.000000;0.508147
9415.000000;0.506710
9414.000000;0.506007
9413.000000;0.505920
9412.000000;0.505961
9411.000000;0.505619
9410.000000;0.504829
9409.000000;0.504036
9408.000000;0.503692
9407.000000;0.503738
9406.000000;0.503715
9405.000000;0.503325
9404.000000;0.502736
9403.000000;0.502283
9402.000000;0.502013
9401.000000;0.501642
9400.000000;0.500927
9399.000000;0.499964
9398.000000;0.499039
9397.000000;0.498273
9396.000000;0.497575
9395.000000;0.496931
9394.000000;0.496538
9393.000000;0.496496
9392.000000;0.496540
9391.000000;0.496272
9390.000000;0.495595
9389.000000;0.494718
9388.000000;0.493829
9387.000000;0.493022
9386.000000;0.492437
9385.000000;0.492134
9384.000000;0.491800
9383.000000;0.490997
9382.000000;0.489826
9381.000000;0.488950
9380.000000;0.488766
9379.000000;0.488871
9378.000000;0.488626
9377.000000;0.487941
9376.000000;0.487161
9375.000000;0.486415
9374.000000;0.485535
9373.000000;0.484512
9372.000000;0.483597
9371.000000;0.482936
9370.000000;0.482413
9369.000000;0.481852
9368.000000;0.481141
9367.000000;0.480189
9366.000000;0.479026
9365.000000;0.477970
9364.000000;0.477426
9363.000000;0.477417
9362.000000;0.477518
9361.000000;0.477305
9360.000000;0.476685
9359.000000;0.475774
9358.000000;0.474721
9357.000000;0.473713
9356.000000;0.472912
9355.000000;0.472307
9354.000000;0.471795
9353.000000;0.471418
9352.000000;0.471295
9351.000000;0.471249
9350.000000;0.470817
9349.000000;0.469766
9348.000000;0.468393
9347.000000;0.467131
9346.000000;0.466104
9345.000000;0.465196
9344.000000;0.464355
9343.000000;0.463613
9342.000000;0.462941
9341.000000;0.462301
9340.000000;0.461741
9339.000000;0.461266
9338.000000;0.460727
9337.000000;0.460006
9336.000000;0.459236
9335.000000;0.458660
9334.000000;0.458307
9333.000000;0.457974
9332.000000;0.457497
9331.000000;0.456896
9330.000000;0.456262
9329.000000;0.455611
9328.000000;0.454851
9327.000000;0.453853
9326.000000;0.452603
9325.000000;0.451333
9324.000000;0.450369
9323.000000;0.449766
9322.000000;0.449217
9321.000000;0.448465
9320.000000;0.447646
9319.000000;0.447017
9318.000000;0.446482
9317.000000;0.445713
9316.000000;0.444717
9315.000000;0.443941
9314.000000;0.443699
9313.000000;0.443721
9312.000000;0.443438
9311.000000;0.442583
9310.000000;0.441360
9309.000000;0.440143
9308.000000;0.439201
9307.000000;0.438627
9306.000000;0.438297
9305.000000;0.437850
9304.000000;0.436937
9303.000000;0.435623
9302.000000;0.434451
9301.000000;0.433917
9300.000000;0.433896
9299.000000;0.433728
9298.000000;0.432980
9297.000000;0.431954
9296.000000;0.431275
9295.000000;0.431073
9294.000000;0.430821
9293.000000;0.430019
9292.000000;0.428799
9291.000000;0.427720
9290.000000;0.427145
9289.000000;0.426991
9288.000000;0.426963
9287.000000;0.426772
9286.000000;0.426187
9285.000000;0.425136
9284.000000;0.423845
9283.000000;0.422717
9282.000000;0.421957
9281.000000;0.421362
9280.000000;0.420518
9279.000000;0.419186
9278.000000;0.417502
9277.000000;0.415889
9276.000000;0.414768
9275.000000;0.414271
9274.000000;0.414173
9273.000000;0.414104
9272.000000;0.413831
9271.000000;0.413308
9270.000000;0.412568
9269.000000;0.411690
9268.000000;0.410852
9267.000000;0.410245
9266.000000;0.409878
9265.000000;0.409565
9264.000000;0.409128
9263.000000;0.408524
9262.000000;0.407765
9261.000000;0.406869
9260.000000;0.405931
9259.000000;0.405139
9258.000000;0.404610
9257.000000;0.404272
9256.000000;0.403953
9255.000000;0.403521
9254.000000;0.402895
9253.000000;0.402033
9252.000000;0.400987
9251.000000;0.399902
9250.000000;0.398858
9249.000000;0.397790
9248.000000;0.396639
9247.000000;0.395511
9246.000000;0.394602
9245.000000;0.394015
9244.000000;0.393713
9243.000000;0.393574
9242.000000;0.393383
9241.000000;0.392877
9240.000000;0.391945
9239.000000;0.390805
9238.000000;0.389840
9237.000000;0.389232
9236.000000;0.388818
9235.000000;0.388270
9234.000000;0.387360
9233.000000;0.386118
9232.000000;0.384856
9231.000000;0.384019
9230.000000;0.383843
9229.000000;0.384091
9228.000000;0.384203
9227.000000;0.383780
9226.000000;0.382869
9225.000000;0.381803
9224.000000;0.380860
9223.000000;0.380108
9222.000000;0.379463
9221.000000;0.378823
9220.000000;0.378187
9219.000000;0.377654
9218.000000;0.377273
9217.000000;0.376924
9216.000000;0.376437
9215.000000;0.375804
9214.000000;0.375133
9213.000000;0.374410
9212.000000;0.373510
9211.000000;0.372503
9210.000000;0.371723
9209.000000;0.371359
9208.000000;0.371136
9207.000000;0.370609
9206.000000;0.369724
9205.000000;0.368853
9204.000000;0.368299
9203.000000;0.367947
9202.000000;0.367470
9201.000000;0.366715
9200.000000;0.365797
9199.000000;0.364902
9198.000000;0.364071
9197.000000;0.363199
9196.000000;0.362229
9195.000000;0.361349
9194.000000;0.360901
9193.000000;0.361005
9192.000000;0.361305
9191.000000;0.361213
9190.000000;0.360434
9189.000000;0.359211
9188.000000;0.358053
9187.000000;0.357283
9186.000000;0.356811
9185.000000;0.356252
9184.000000;0.355285
9183.000000;0.354017
9182.000000;0.352968
9181.000000;0.352558
9180.000000;0.352645
9179.000000;0.352701
9178.000000;0.352417
9177.000000;0.351921
9176.000000;0.351375
9175.000000;0.350659
9174.000000;0.349650
9173.000000;0.348568
9172.000000;0.347768
9171.000000;0.347259
9170.000000;0.346703
9169.000000;0.345884
9168.000000;0.344918
9167.000000;0.343969
9166.000000;0.343033
9165.000000;0.342110
9164.000000;0.341414
9163.000000;0.341183
9162.000000;0.341359
9161.000000;0.341591
9160.000000;0.341554
9159.000000;0.341156
9158.000000;0.340501
9157.000000;0.339775
9156.000000;0.339147
9155.000000;0.338621
9154.000000;0.337967
9153.000000;0.336931
9152.000000;0.335613
9151.000000;0.334487
9150.000000;0.333918
9149.000000;0.333753
9148.000000;0.333530
9147.000000;0.333048
9146.000000;0.332508
9145.000000;0.332075
9144.000000;0.331562
9143.000000;0.330701
9142.000000;0.329564
9141.000000;0.328480
9140.000000;0.327595
9139.000000;0.326764
9138.000000;0.325896
9137.000000;0.325179
9136.000000;0.324835
9135.000000;0.324785
9134.000000;0.324704
9133.000000;0.324336
9132.000000;0.323660
9131.000000;0.322809
9130.000000;0.321958
9129.000000;0.321286
9128.000000;0.320916
9127.000000;0.320807
9126.000000;0.320747
9125.000000;0.320508
9124.000000;0.320040
9123.000000;0.319514
9122.000000;0.319133
9121.000000;0.318894
9120.000000;0.318542
9119.000000;0.317847
9118.000000;0.316896
9117.000000;0.316051
9116.000000;0.315573
9115.000000;0.315351
9114.000000;0.315049
9113.000000;0.314459
9112.000000;0.313666
9111.000000;0.312909
9110.000000;0.312369
9109.000000;0.312034
9108.000000;0.311699
9107.000000;0.311116
9106.000000;0.310229
9105.000000;0.309279
9104.000000;0.308623
9103.000000;0.308408
9102.000000;0.308463
9101.000000;0.308475
9100.000000;0.308236
9099.000000;0.307751
9098.000000;0.307172
9097.000000;0.306644
9096.000000;0.306126
9095.000000;0.305397
9094.000000;0.304321
9093.000000;0.303107
9092.000000;0.302196
9091.000000;0.301795
9090.000000;0.301618
9089.000000;0.301222
9088.000000;0.300537
9087.000000;0.299926
9086.000000;0.299704
9085.000000;0.299763
9084.000000;0.299740
9083.000000;0.299426
9082.000000;0.298893
9081.000000;0.298286
9080.000000;0.297676
9079.000000;0.297114
9078.000000;0.296675
9077.000000;0.296334
9076.000000;0.295916
9075.000000;0.295278
9074.000000;0.294516
9073.000000;0.293860
9072.000000;0.293400
9071.000000;0.292986
9070.000000;0.292437
9069.000000;0.291743
9068.000000;0.291039
9067.000000;0.290428
9066.000000;0.289882
9065.000000;0.289302
9064.000000;0.288642
9063.000000;0.287971
9062.000000;0.287417
9061.000000;0.287042
9060.000000;0.286798
9059.000000;0.286602
9058.000000;0.286407
9057.000000;0.286175
9056.000000;0.285824
9055.000000;0.285290
9054.000000;0.284650
9053.000000;0.284077
