Criado como novo conjunto de dados;"e2410_daniel_v2.spp","30423.3 Secs"
cm-1;Abs
10000.000000;0.637992
9999.000000;0.637639
9998.000000;0.637285
9997.000000;0.636932
9996.000000;0.636579
9995.000000;0.636228
9994.000000;0.635874
9993.000000;0.635524
9992.000000;0.635169
9991.000000;0.634824
9990.000000;0.634460
9989.000000;0.634159
9988.000000;0.633726
9987.000000;0.632759
9986.000000;0.631497
9985.000000;0.630650
9984.000000;0.630502
9983.000000;0.630651
9982.000000;0.630692
9981.000000;0.630576
9980.000000;0.630283
9979.000000;0.629737
9978.000000;0.629090
9977.000000;0.628540
9976.000000;0.627903
9975.000000;0.626899
9974.000000;0.625792
9973.000000;0.625115
9972.000000;0.624856
9971.000000;0.624556
9970.000000;0.624145
9969.000000;0.623950
9968.000000;0.623895
9967.000000;0.623467
9966.000000;0.622563
9965.000000;0.621674
9964.000000;0.621111
9963.000000;0.620701
9962.000000;0.620340
9961.000000;0.620163
9960.000000;0.620035
9959.000000;0.619514
9958.000000;0.618525
9957.000000;0.617539
9956.000000;0.616944
9955.000000;0.616667
9954.000000;0.616464
9953.000000;0.616109
9952.000000;0.615328
9951.000000;0.614093
9950.000000;0.612983
9949.000000;0.612650
9948.000000;0.612929
9947.000000;0.613010
9946.000000;0.612514
9945.000000;0.611786
9944.000000;0.611153
9943.000000;0.610529
9942.000000;0.609847
9941.000000;0.609256
9940.000000;0.608747
9939.000000;0.608139
9938.000000;0.607518
9937.000000;0.607173
9936.000000;0.607037
9935.000000;0.606717
9934.000000;0.606144
9933.000000;0.605661
9932.000000;0.605408
9931.000000;0.605143
9930.000000;0.604718
9929.000000;0.604242
9928.000000;0.603724
9927.000000;0.603068
9926.000000;0.602436
9925.000000;0.602106
9924.000000;0.601940
9923.000000;0.601510
9922.000000;0.600747
9921.000000;0.599984
9920.000000;0.599355
9919.000000;0.598711
9918.000000;0.598105
9917.000000;0.597797
9916.000000;0.597729
9915.000000;0.597529
9914.000000;0.597084
9913.000000;0.596623
9912.000000;0.596229
9911.000000;0.595764
9910.000000;0.595272
9909.000000;0.594950
9908.000000;0.594709
9907.000000;0.594281
9906.000000;0.593723
9905.000000;0.593299
9904.000000;0.592924
9903.000000;0.592280
9902.000000;0.591446
9901.000000;0.590813
9900.000000;0.590399
9899.000000;0.589861
9898.000000;0.589193
9897.000000;0.588787
9896.000000;0.588739
9895.000000;0.588667
9894.000000;0.588323
9893.000000;0.587850
9892.000000;0.587336
9891.000000;0.586650
9890.000000;0.585792
9889.000000;0.584931
9888.000000;0.584052
9887.000000;0.583043
9886.000000;0.582152
9885.000000;0.581837
9884.000000;0.582086
9883.000000;0.582341
9882.000000;0.582160
9881.000000;0.581565
9880.000000;0.580744
9879.000000;0.579883
9878.000000;0.579288
9877.000000;0.579153
9876.000000;0.579194
9875.000000;0.578938
9874.000000;0.578366
9873.000000;0.577831
9872.000000;0.577423
9871.000000;0.576912
9870.000000;0.576241
9869.000000;0.575576
9868.000000;0.574908
9867.000000;0.574130
9866.000000;0.573451
9865.000000;0.573198
9864.000000;0.573219
9863.000000;0.573013
9862.000000;0.572438
9861.000000;0.571787
9860.000000;0.571211
9859.000000;0.570616
9858.000000;0.570069
9857.000000;0.569744
9856.000000;0.569471
9855.000000;0.568899
9854.000000;0.568127
9853.000000;0.567628
9852.000000;0.567524
9851.000000;0.567447
9850.000000;0.567127
9849.000000;0.566611
9848.000000;0.565929
9847.000000;0.565075
9846.000000;0.564314
9845.000000;0.563968
9844.000000;0.563884
9843.000000;0.563610
9842.000000;0.563075
9841.000000;0.562575
9840.000000;0.562128
9839.000000;0.561460
9838.000000;0.560626
9837.000000;0.560021
9836.000000;0.559713
9835.000000;0.559329
9834.000000;0.558699
9833.000000;0.558080
9832.000000;0.557646
9831.000000;0.557293
9830.000000;0.557011
9829.000000;0.556930
9828.000000;0.556900
9827.000000;0.556533
9826.000000;0.555780
9825.000000;0.555005
9824.000000;0.554412
9823.000000;0.553849
9822.000000;0.553226
9821.000000;0.552643
9820.000000;0.552058
9819.000000;0.551306
9818.000000;0.550502
9817.000000;0.549990
9816.000000;0.549811
9815.000000;0.549651
9814.000000;0.549359
9813.000000;0.549078
9812.000000;0.548837
9811.000000;0.548453
9810.000000;0.547919
9809.000000;0.547441
9808.000000;0.547025
9807.000000;0.546414
9806.000000;0.545511
9805.000000;0.544502
9804.000000;0.543578
9803.000000;0.542840
9802.000000;0.542449
9801.000000;0.542445
9800.000000;0.542515
9799.000000;0.542290
9798.000000;0.541830
9797.000000;0.541418
9796.000000;0.541019
9795.000000;0.540422
9794.000000;0.539763
9793.000000;0.539398
9792.000000;0.539297
9791.000000;0.539092
9790.000000;0.538657
9789.000000;0.538177
9788.000000;0.537706
9787.000000;0.537165
9786.000000;0.536733
9785.000000;0.536667
9784.000000;0.536745
9783.000000;0.536413
9782.000000;0.535544
9781.000000;0.534576
9780.000000;0.533871
9779.000000;0.533423
9778.000000;0.533152
9777.000000;0.533009
9776.000000;0.532755
9775.000000;0.532101
9774.000000;0.531142
9773.000000;0.530245
9772.000000;0.529549
9771.000000;0.528968
9770.000000;0.528581
9769.000000;0.528542
9768.000000;0.528647
9767.000000;0.528481
9766.000000;0.527990
9765.000000;0.527472
9764.000000;0.527039
9763.000000;0.526534
9762.000000;0.525934
9761.000000;0.525354
9760.000000;0.524723
9759.000000;0.523911
9758.000000;0.523109
9757.000000;0.522640
9756.000000;0.522451
9755.000000;0.522257
9754.000000;0.522046
9753.000000;0.521964
9752.000000;0.521815
9751.000000;0.521264
9750.000000;0.520449
9749.000000;0.519810
9748.000000;0.519381
9747.000000;0.518827
9746.000000;0.518160
9745.000000;0.517764
9744.000000;0.517681
9743.000000;0.517473
9742.000000;0.516891
9741.000000;0.516186
9740.000000;0.515641
9739.000000;0.515261
9738.000000;0.514961
9737.000000;0.514647
9736.000000;0.514108
9735.000000;0.513265
9734.000000;0.512491
9733.000000;0.512210
9732.000000;0.512257
9731.000000;0.512133
9730.000000;0.511789
9729.000000;0.511597
9728.000000;0.511584
9727.000000;0.511343
9726.000000;0.510716
9725.000000;0.509970
9724.000000;0.509243
9723.000000;0.508401
9722.000000;0.507526
9721.000000;0.506949
9720.000000;0.506679
9719.000000;0.506328
9718.000000;0.505746
9717.000000;0.505227
9716.000000;0.504940
9715.000000;0.504658
9714.000000;0.504217
9713.000000;0.503768
9712.000000;0.503400
9711.000000;0.502931
9710.000000;0.502250
9709.000000;0.501514
9708.000000;0.500870
9707.000000;0.500323
9706.000000;0.499927
9705.000000;0.499747
9704.000000;0.499609
9703.000000;0.499233
9702.000000;0.498672
9701.000000;0.498249
9700.000000;0.498046
9699.000000;0.497830
9698.000000;0.497481
9697.000000;0.497094
9696.000000;0.496674
9695.000000;0.496109
9694.000000;0.495484
9693.000000;0.495007
9692.000000;0.494639
9691.000000;0.494158
9690.000000;0.493566
9689.000000;0.493049
9688.000000;0.492577
9687.000000;0.491980
9686.000000;0.491365
9685.000000;0.491021
9684.000000;0.490897
9683.000000;0.490645
9682.000000;0.490168
9681.000000;0.489697
9680.000000;0.489306
9679.000000;0.488790
9678.000000;0.488095
9677.000000;0.487432
9676.000000;0.486914
9675.000000;0.486457
9674.000000;0.486060
9673.000000;0.485829
9672.000000;0.485700
9671.000000;0.485474
9670.000000;0.485128
9669.000000;0.484759
9668.000000;0.484302
9667.000000;0.483663
9666.000000;0.483025
9665.000000;0.482630
9664.000000;0.482352
9663.000000;0.481918
9662.000000;0.481427
9661.000000;0.481192
9660.000000;0.481142
9659.000000;0.480882
9658.000000;0.480304
9657.000000;0.479645
9656.000000;0.478994
9655.000000;0.478243
9654.000000;0.477518
9653.000000;0.477130
9652.000000;0.477062
9651.000000;0.476978
9650.000000;0.476748
9649.000000;0.476510
9648.000000;0.476197
9647.000000;0.475546
9646.000000;0.474632
9645.000000;0.473902
9644.000000;0.473589
9643.000000;0.473489
9642.000000;0.473370
9641.000000;0.473180
9640.000000;0.472813
9639.000000;0.472129
9638.000000;0.471282
9637.000000;0.470651
9636.000000;0.470356
9635.000000;0.470186
9634.000000;0.469991
9633.000000;0.469784
9632.000000;0.469471
9631.000000;0.468905
9630.000000;0.468206
9629.000000;0.467639
9628.000000;0.467195
9627.000000;0.466663
9626.000000;0.466094
9625.000000;0.465735
9624.000000;0.465561
9623.000000;0.465298
9622.000000;0.464910
9621.000000;0.464613
9620.000000;0.464402
9619.000000;0.464028
9618.000000;0.463468
9617.000000;0.462959
9616.000000;0.462549
9615.000000;0.462047
9614.000000;0.461470
9613.000000;0.461066
9612.000000;0.460842
9611.000000;0.460519
9610.000000;0.460011
9609.000000;0.459546
9608.000000;0.459222
9607.000000;0.458860
9606.000000;0.458402
9605.000000;0.458035
9604.000000;0.457813
9603.000000;0.457508
9602.000000;0.456960
9601.000000;0.456284
9600.000000;0.455642
9599.000000;0.455093
9598.000000;0.454693
9597.000000;0.454443
9596.000000;0.454142
9595.000000;0.453570
9594.000000;0.452830
9593.000000;0.452240
9592.000000;0.451908
9591.000000;0.451712
9590.000000;0.451589
9589.000000;0.451518
9588.000000;0.451314
9587.000000;0.450801
9586.000000;0.450159
9585.000000;0.449689
9584.000000;0.449326
9583.000000;0.448772
9582.000000;0.448075
9581.000000;0.447621
9580.000000;0.447535
9579.000000;0.447517
9578.000000;0.447301
9577.000000;0.446924
9576.000000;0.446506
9575.000000;0.446106
9574.000000;0.445827
9573.000000;0.445723
9572.000000;0.445596
9571.000000;0.445173
9570.000000;0.444485
9569.000000;0.443779
9568.000000;0.443132
9567.000000;0.442476
9566.000000;0.441883
9565.000000;0.441489
9564.000000;0.441192
9563.000000;0.440798
9562.000000;0.440390
9561.000000;0.440194
9560.000000;0.440159
9559.000000;0.440024
9558.000000;0.439717
9557.000000;0.439308
9556.000000;0.438717
9555.000000;0.437875
9554.000000;0.437082
9553.000000;0.436733
9552.000000;0.436723
9551.000000;0.436581
9550.000000;0.436123
9549.000000;0.435567
9548.000000;0.435036
9547.000000;0.434427
9546.000000;0.433786
9545.000000;0.433338
9544.000000;0.433094
9543.000000;0.432812
9542.000000;0.432376
9541.000000;0.431890
9540.000000;0.431405
9539.000000;0.430906
9538.000000;0.430527
9537.000000;0.430420
9536.000000;0.430418
9535.000000;0.430209
9534.000000;0.429795
9533.000000;0.429420
9532.000000;0.429100
9531.000000;0.428629
9530.000000;0.428018
9529.000000;0.427493
9528.000000;0.427086
9527.000000;0.426614
9526.000000;0.426086
9525.000000;0.425735
9524.000000;0.425622
9523.000000;0.425544
9522.000000;0.425328
9521.000000;0.424935
9520.000000;0.424316
9519.000000;0.423529
9518.000000;0.422886
9517.000000;0.422635
9516.000000;0.422563
9515.000000;0.422283
9514.000000;0.421820
9513.000000;0.421509
9512.000000;0.421384
9511.000000;0.421138
9510.000000;0.420658
9509.000000;0.420167
9508.000000;0.419820
9507.000000;0.419551
9506.000000;0.419305
9505.000000;0.419080
9504.000000;0.418755
9503.000000;0.418251
9502.000000;0.417787
9501.000000;0.417601
9500.000000;0.417486
9499.000000;0.417028
9498.000000;0.416267
9497.000000;0.415665
9496.000000;0.415428
9495.000000;0.415309
9494.000000;0.415085
9493.000000;0.414791
9492.000000;0.414438
9491.000000;0.413920
9490.000000;0.413285
9489.000000;0.412739
9488.000000;0.412318
9487.000000;0.411880
9486.000000;0.411443
9485.000000;0.411188
9484.000000;0.411115
9483.000000;0.411004
9482.000000;0.410743
9481.000000;0.410398
9480.000000;0.409976
9479.000000;0.409416
9478.000000;0.408796
9477.000000;0.408255
9476.000000;0.407762
9475.000000;0.407223
9474.000000;0.406742
9473.000000;0.406447
9472.000000;0.406174
9471.000000;0.405676
9470.000000;0.405042
9469.000000;0.404574
9468.000000;0.404322
9467.000000;0.404138
9466.000000;0.404050
9465.000000;0.404189
9464.000000;0.404393
9463.000000;0.404320
9462.000000;0.403928
9461.000000;0.403478
9460.000000;0.403073
9459.000000;0.402604
9458.000000;0.402086
9457.000000;0.401663
9456.000000;0.401311
9455.000000;0.400886
9454.000000;0.400441
9453.000000;0.400126
9452.000000;0.399837
9451.000000;0.399368
9450.000000;0.398836
9449.000000;0.398543
9448.000000;0.398467
9447.000000;0.398282
9446.000000;0.397864
9445.000000;0.397380
9444.000000;0.396915
9443.000000;0.396409
9442.000000;0.395957
9441.000000;0.395755
9440.000000;0.395735
9439.000000;0.395624
9438.000000;0.395366
9437.000000;0.395120
9436.000000;0.394867
9435.000000;0.394413
9434.000000;0.393767
9433.000000;0.393152
9432.000000;0.392639
9431.000000;0.392134
9430.000000;0.391695
9429.000000;0.391489
9428.000000;0.391424
9427.000000;0.391213
9426.000000;0.390807
9425.000000;0.390413
9424.000000;0.390113
9423.000000;0.389801
9422.000000;0.389496
9421.000000;0.389326
9420.000000;0.389212
9419.000000;0.388922
9418.000000;0.388432
9417.000000;0.387929
9416.000000;0.387468
9415.000000;0.387003
9414.000000;0.386670
9413.000000;0.386650
9412.000000;0.386772
9411.000000;0.386653
9410.000000;0.386229
9409.000000;0.385773
9408.000000;0.385395
9407.000000;0.384914
9406.000000;0.384256
9405.000000;0.383573
9404.000000;0.382944
9403.000000;0.382311
9402.000000;0.381764
9401.000000;0.381507
9400.000000;0.381516
9399.000000;0.381527
9398.000000;0.381412
9397.000000;0.381259
9396.000000;0.381076
9395.000000;0.380750
9394.000000;0.380310
9393.000000;0.379909
9392.000000;0.379533
9391.000000;0.379053
9390.000000;0.378545
9389.000000;0.378240
9388.000000;0.378139
9387.000000;0.378015
9386.000000;0.377793
9385.000000;0.377612
9384.000000;0.377490
9383.000000;0.377263
9382.000000;0.376888
9381.000000;0.376504
9380.000000;0.376167
9379.000000;0.375819
9378.000000;0.375501
9377.000000;0.375322
9376.000000;0.375197
9375.000000;0.374904
9374.000000;0.374417
9373.000000;0.373906
9372.000000;0.373446
9371.000000;0.372986
9370.000000;0.372587
9369.000000;0.372379
9368.000000;0.372307
9367.000000;0.372169
9366.000000;0.371901
9365.000000;0.371577
9364.000000;0.371196
9363.000000;0.370718
9362.000000;0.370230
9361.000000;0.369824
9360.000000;0.369393
9359.000000;0.368821
9358.000000;0.368272
9357.000000;0.367981
9356.000000;0.367873
9355.000000;0.367707
9354.000000;0.367487
9353.000000;0.367386
9352.000000;0.367345
9351.000000;0.367122
9350.000000;0.366674
9349.000000;0.366161
9348.000000;0.365623
9347.000000;0.364992
9346.000000;0.364371
9345.000000;0.363963
9344.000000;0.363763
9343.000000;0.363618
9342.000000;0.363522
9341.000000;0.363544
9340.000000;0.363543
9339.000000;0.363315
9338.000000;0.362933
9337.000000;0.362634
9336.000000;0.362411
9335.000000;0.362088
9334.000000;0.361680
9333.000000;0.361351
9332.000000;0.361074
9331.000000;0.360707
9330.000000;0.360308
9329.000000;0.360028
9328.000000;0.359762
9327.000000;0.359300
9326.000000;0.358741
9325.000000;0.358369
9324.000000;0.358169
9323.000000;0.357898
9322.000000;0.357569
9321.000000;0.357420
9320.000000;0.357410
9319.000000;0.357206
9318.000000;0.356711
9317.000000;0.356224
9316.000000;0.355982
9315.000000;0.355910
9314.000000;0.355874
9313.000000;0.355841
9312.000000;0.355716
9311.000000;0.355343
9310.000000;0.354761
9309.000000;0.354190
9308.000000;0.353739
9307.000000;0.353352
9306.000000;0.353031
9305.000000;0.352827
9304.000000;0.352625
9303.000000;0.352243
9302.000000;0.351747
9301.000000;0.351392
9300.000000;0.351270
9299.000000;0.351267
9298.000000;0.351312
9297.000000;0.351383
9296.000000;0.351314
9295.000000;0.350937
9294.000000;0.350399
9293.000000;0.350009
9292.000000;0.349787
9291.000000;0.349473
9290.000000;0.348965
9289.000000;0.348443
9288.000000;0.348048
9287.000000;0.347743
9286.000000;0.347503
9285.000000;0.347338
9284.000000;0.347150
9283.000000;0.346833
9282.000000;0.346503
9281.000000;0.346371
9280.000000;0.346392
9279.000000;0.346312
9278.000000;0.346018
9277.000000;0.345592
9276.000000;0.345066
9275.000000;0.344426
9274.000000;0.343811
9273.000000;0.343428
9272.000000;0.343268
9271.000000;0.343176
9270.000000;0.343130
9269.000000;0.343188
9268.000000;0.343240
9267.000000;0.343095
9266.000000;0.342784
9265.000000;0.342476
9264.000000;0.342172
9263.000000;0.341770
9262.000000;0.341349
9261.000000;0.341069
9260.000000;0.340846
9259.000000;0.340465
9258.000000;0.339955
9257.000000;0.339549
9256.000000;0.339288
9255.000000;0.339007
9254.000000;0.338664
9253.000000;0.338376
9252.000000;0.338144
9251.000000;0.337849
9250.000000;0.337523
9249.000000;0.337307
9248.000000;0.337171
9247.000000;0.336958
9246.000000;0.336665
9245.000000;0.336411
9244.000000;0.336149
9243.000000;0.335738
9242.000000;0.335244
9241.000000;0.334895
9240.000000;0.334724
9239.000000;0.334549
9238.000000;0.334267
9237.000000;0.333941
9236.000000;0.333622
9235.000000;0.333335
9234.000000;0.333190
9233.000000;0.333206
9232.000000;0.333140
9231.000000;0.332751
9230.000000;0.332186
9229.000000;0.331786
9228.000000;0.331603
9227.000000;0.331421
9226.000000;0.331183
9225.000000;0.331034
9224.000000;0.330983
9223.000000;0.330874
9222.000000;0.330675
9221.000000;0.330502
9220.000000;0.330348
9219.000000;0.330088
9218.000000;0.329745
9217.000000;0.329471
9216.000000;0.329262
9215.000000;0.328978
9214.000000;0.328608
9213.000000;0.328252
9212.000000;0.327899
9211.000000;0.327479
9210.000000;0.327092
9209.000000;0.326905
9208.000000;0.326855
9207.000000;0.326730
9206.000000;0.326506
9205.000000;0.326322
9204.000000;0.326171
9203.000000;0.325928
9202.000000;0.325614
9201.000000;0.325361
9200.000000;0.325147
9199.000000;0.324851
9198.000000;0.324532
9197.000000;0.324356
9196.000000;0.324285
9195.000000;0.324122
9194.000000;0.323837
9193.000000;0.323556
9192.000000;0.323273
9191.000000;0.322884
9190.000000;0.322461
9189.000000;0.322194
9188.000000;0.322061
9187.000000;0.321844
9186.000000;0.321472
9185.000000;0.321089
9184.000000;0.320783
9183.000000;0.320509
9182.000000;0.320263
9181.000000;0.320097
9180.000000;0.319970
9179.000000;0.319808
9178.000000;0.319655
9177.000000;0.319581
9176.000000;0.319502
9175.000000;0.319327
9174.000000;0.319161
9173.000000;0.319117
9172.000000;0.319048
9171.000000;0.318727
9170.000000;0.318209
9169.000000;0.317737
9168.000000;0.317373
9167.000000;0.317024
9166.000000;0.316729
9165.000000;0.316590
9164.000000;0.316520
9163.000000;0.316342
9162.000000;0.316111
9161.000000;0.316014
9160.000000;0.316005
9159.000000;0.315855
9158.000000;0.315511
9157.000000;0.315132
9156.000000;0.314792
9155.000000;0.314438
9154.000000;0.314105
9153.000000;0.313894
9152.000000;0.313764
9151.000000;0.313590
9150.000000;0.313394
9149.000000;0.313272
9148.000000;0.313160
9147.000000;0.312931
9146.000000;0.312642
9145.000000;0.312434
9144.000000;0.312275
9143.000000;0.312045
9142.000000;0.311791
9141.000000;0.311639
9140.000000;0.311550
9139.000000;0.311410
9138.000000;0.311259
9137.000000;0.311135
9136.000000;0.310853
9135.000000;0.310240
9134.000000;0.309503
9133.000000;0.309031
9132.000000;0.308898
9131.000000;0.308867
9130.000000;0.308786
9129.000000;0.308678
9128.000000;0.308510
9127.000000;0.308213
9126.000000;0.307891
9125.000000;0.307711
9124.000000;0.307625
9123.000000;0.307474
9122.000000;0.307280
9121.000000;0.307150
9120.000000;0.307004
9119.000000;0.306699
9118.000000;0.306344
9117.000000;0.306156
9116.000000;0.306086
9115.000000;0.305924
9114.000000;0.305670
9113.000000;0.305487
9112.000000;0.305338
9111.000000;0.305056
9110.000000;0.304703
9109.000000;0.304514
9108.000000;0.304487
9107.000000;0.304369
9106.000000;0.304070
9105.000000;0.303743
9104.000000;0.303480
9103.000000;0.303225
9102.000000;0.302994
9101.000000;0.302885
9100.000000;0.302830
9099.000000;0.302641
9098.000000;0.302312
9097.000000;0.302041
9096.000000;0.301935
9095.000000;0.301920
9094.000000;0.301910
9093.000000;0.301856
9092.000000;0.301659
9091.000000;0.301278
9090.000000;0.300865
9089.000000;0.300568
9088.000000;0.300298
9087.000000;0.299919
9086.000000;0.299554
9085.000000;0.299421
9084.000000;0.299463
9083.000000;0.299439
9082.000000;0.299290
9081.000000;0.299111
9080.000000;0.298863
9079.000000;0.298451
9078.000000;0.298027
9077.000000;0.297869
9076.000000;0.297959
9075.000000;0.297999
9074.000000;0.297846
9073.000000;0.297627
9072.000000;0.297427
9071.000000;0.297174
9070.000000;0.296847
9069.000000;0.296540
9068.000000;0.296277
9067.000000;0.295988
9066.000000;0.295686
9065.000000;0.295457
9064.000000;0.295282
9063.000000;0.295081
9062.000000;0.294874
9061.000000;0.294724
9060.000000;0.294578
9059.000000;0.294377
9058.000000;0.294223
9057.000000;0.294213
9056.000000;0.294210
9055.000000;0.294030
9054.000000;0.293756
9053.000000;0.293590
