Criado como novo conjunto de dados;"e2410_daniel_v2.spp","71825.8 Secs"
cm-1;Abs
10000.000000;1.294632
9999.000000;1.293704
9998.000000;1.292821
9997.000000;1.291929
9996.000000;1.291329
9995.000000;1.291361
9994.000000;1.291787
9993.000000;1.291956
9992.000000;1.291517
9991.000000;1.290799
9990.000000;1.290249
9989.000000;1.289852
9988.000000;1.289358
9987.000000;1.288858
9986.000000;1.288710
9985.000000;1.288939
9984.000000;1.289116
9983.000000;1.288928
9982.000000;1.288563
9981.000000;1.288346
9980.000000;1.288196
9979.000000;1.287662
9978.000000;1.286379
9977.000000;1.284391
9976.000000;1.282202
9975.000000;1.280570
9974.000000;1.280039
9973.000000;1.280494
9972.000000;1.281248
9971.000000;1.281648
9970.000000;1.281477
9969.000000;1.280767
9968.000000;1.279639
9967.000000;1.278493
9966.000000;1.277961
9965.000000;1.278262
9964.000000;1.278734
9963.000000;1.278473
9962.000000;1.277421
9961.000000;1.276431
9960.000000;1.276157
9959.000000;1.276265
9958.000000;1.275930
9957.000000;1.274886
9956.000000;1.273697
9955.000000;1.273037
9954.000000;1.272971
9953.000000;1.273012
9952.000000;1.272698
9951.000000;1.271924
9950.000000;1.270826
9949.000000;1.269630
9948.000000;1.268714
9947.000000;1.268541
9946.000000;1.269161
9945.000000;1.269836
9944.000000;1.269581
9943.000000;1.268219
9942.000000;1.266626
9941.000000;1.265769
9940.000000;1.265766
9939.000000;1.266027
9938.000000;1.266023
9937.000000;1.265648
9936.000000;1.264973
9935.000000;1.264050
9934.000000;1.263027
9933.000000;1.262209
9932.000000;1.261811
9931.000000;1.261644
9930.000000;1.261197
9929.000000;1.260164
9928.000000;1.258915
9927.000000;1.258275
9926.000000;1.258661
9925.000000;1.259526
9924.000000;1.259812
9923.000000;1.258944
9922.000000;1.257200
9921.000000;1.255214
9920.000000;1.253502
9919.000000;1.252468
9918.000000;1.252340
9917.000000;1.252827
9916.000000;1.253161
9915.000000;1.252841
9914.000000;1.252120
9913.000000;1.251508
9912.000000;1.251026
9911.000000;1.250301
9910.000000;1.249206
9909.000000;1.248034
9908.000000;1.247106
9907.000000;1.246516
9906.000000;1.246261
9905.000000;1.246306
9904.000000;1.246487
9903.000000;1.246563
9902.000000;1.246390
9901.000000;1.245965
9900.000000;1.245349
9899.000000;1.244692
9898.000000;1.244253
9897.000000;1.244208
9896.000000;1.244425
9895.000000;1.244551
9894.000000;1.244304
9893.000000;1.243669
9892.000000;1.242855
9891.000000;1.242106
9890.000000;1.241442
9889.000000;1.240584
9888.000000;1.239305
9887.000000;1.237855
9886.000000;1.236779
9885.000000;1.236281
9884.000000;1.236070
9883.000000;1.235888
9882.000000;1.235760
9881.000000;1.235575
9880.000000;1.234914
9879.000000;1.233715
9878.000000;1.232713
9877.000000;1.232685
9876.000000;1.233427
9875.000000;1.233929
9874.000000;1.233535
9873.000000;1.232534
9872.000000;1.231648
9871.000000;1.231320
9870.000000;1.231514
9869.000000;1.231849
9868.000000;1.231841
9867.000000;1.231277
9866.000000;1.230354
9865.000000;1.229315
9864.000000;1.228089
9863.000000;1.226571
9862.000000;1.225065
9861.000000;1.224098
9860.000000;1.223810
9859.000000;1.223845
9858.000000;1.223800
9857.000000;1.223510
9856.000000;1.223001
9855.000000;1.222447
9854.000000;1.222110
9853.000000;1.222054
9852.000000;1.221960
9851.000000;1.221545
9850.000000;1.221058
9849.000000;1.220943
9848.000000;1.221056
9847.000000;1.220684
9846.000000;1.219434
9845.000000;1.217747
9844.000000;1.216394
9843.000000;1.215782
9842.000000;1.215816
9841.000000;1.216101
9840.000000;1.216135
9839.000000;1.215602
9838.000000;1.214665
9837.000000;1.213834
9836.000000;1.213477
9835.000000;1.213562
9834.000000;1.213822
9833.000000;1.213972
9832.000000;1.213831
9831.000000;1.213487
9830.000000;1.213309
9829.000000;1.213496
9828.000000;1.213646
9827.000000;1.213098
9826.000000;1.211702
9825.000000;1.209928
9824.000000;1.208236
9823.000000;1.206734
9822.000000;1.205515
9821.000000;1.204862
9820.000000;1.204918
9819.000000;1.205473
9818.000000;1.206244
9817.000000;1.207083
9816.000000;1.207710
9815.000000;1.207579
9814.000000;1.206353
9813.000000;1.204401
9812.000000;1.202538
9811.000000;1.201346
9810.000000;1.200849
9809.000000;1.200689
9808.000000;1.200462
9807.000000;1.200010
9806.000000;1.199556
9805.000000;1.199512
9804.000000;1.200040
9803.000000;1.200798
9802.000000;1.201166
9801.000000;1.200696
9800.000000;1.199415
9799.000000;1.197796
9798.000000;1.196419
9797.000000;1.195544
9796.000000;1.194972
9795.000000;1.194426
9794.000000;1.193966
9793.000000;1.193841
9792.000000;1.194008
9791.000000;1.194039
9790.000000;1.193551
9789.000000;1.192551
9788.000000;1.191342
9787.000000;1.190273
9786.000000;1.189586
9785.000000;1.189326
9784.000000;1.189346
9783.000000;1.189475
9782.000000;1.189617
9781.000000;1.189559
9780.000000;1.188908
9779.000000;1.187554
9778.000000;1.186076
9777.000000;1.185265
9776.000000;1.185222
9775.000000;1.185261
9774.000000;1.184757
9773.000000;1.183772
9772.000000;1.182789
9771.000000;1.182224
9770.000000;1.182259
9769.000000;1.182776
9768.000000;1.183245
9767.000000;1.183017
9766.000000;1.181978
9765.000000;1.180677
9764.000000;1.179662
9763.000000;1.178951
9762.000000;1.178257
9761.000000;1.177484
9760.000000;1.176829
9759.000000;1.176561
9758.000000;1.176800
9757.000000;1.177301
9756.000000;1.177413
9755.000000;1.176570
9754.000000;1.174981
9753.000000;1.173571
9752.000000;1.173085
9751.000000;1.173472
9750.000000;1.174176
9749.000000;1.174680
9748.000000;1.174611
9747.000000;1.173754
9746.000000;1.172313
9745.000000;1.170911
9744.000000;1.170012
9743.000000;1.169513
9742.000000;1.169085
9741.000000;1.168661
9740.000000;1.168324
9739.000000;1.167956
9738.000000;1.167364
9737.000000;1.166606
9736.000000;1.165871
9735.000000;1.165169
9734.000000;1.164456
9733.000000;1.163942
9732.000000;1.163922
9731.000000;1.164323
9730.000000;1.164657
9729.000000;1.164435
9728.000000;1.163511
9727.000000;1.162136
9726.000000;1.160908
9725.000000;1.160474
9724.000000;1.160944
9723.000000;1.161634
9722.000000;1.161671
9721.000000;1.160854
9720.000000;1.159650
9719.000000;1.158504
9718.000000;1.157537
9717.000000;1.156867
9716.000000;1.156680
9715.000000;1.156821
9714.000000;1.156701
9713.000000;1.155909
9712.000000;1.154699
9711.000000;1.153671
9710.000000;1.153139
9709.000000;1.152993
9708.000000;1.152950
9707.000000;1.152710
9706.000000;1.152053
9705.000000;1.151045
9704.000000;1.150134
9703.000000;1.149796
9702.000000;1.150062
9701.000000;1.150531
9700.000000;1.150799
9699.000000;1.150743
9698.000000;1.150393
9697.000000;1.149791
9696.000000;1.149063
9695.000000;1.148456
9694.000000;1.148149
9693.000000;1.148064
9692.000000;1.147965
9691.000000;1.147710
9690.000000;1.147323
9689.000000;1.146867
9688.000000;1.146369
9687.000000;1.145865
9686.000000;1.145392
9685.000000;1.144905
9684.000000;1.144283
9683.000000;1.143465
9682.000000;1.142551
9681.000000;1.141719
9680.000000;1.141068
9679.000000;1.140572
9678.000000;1.140121
9677.000000;1.139616
9676.000000;1.139072
9675.000000;1.138633
9674.000000;1.138366
9673.000000;1.138039
9672.000000;1.137281
9671.000000;1.136079
9670.000000;1.134965
9669.000000;1.134513
9668.000000;1.134713
9667.000000;1.134982
9666.000000;1.134793
9665.000000;1.134134
9664.000000;1.133334
9663.000000;1.132652
9662.000000;1.132183
9661.000000;1.132025
9660.000000;1.132299
9659.000000;1.132924
9658.000000;1.133454
9657.000000;1.133321
9656.000000;1.132369
9655.000000;1.131103
9654.000000;1.130263
9653.000000;1.130116
9652.000000;1.130283
9651.000000;1.130258
9650.000000;1.129888
9649.000000;1.129253
9648.000000;1.128341
9647.000000;1.127159
9646.000000;1.126022
9645.000000;1.125397
9644.000000;1.125409
9643.000000;1.125772
9642.000000;1.126224
9641.000000;1.126745
9640.000000;1.127257
9639.000000;1.127414
9638.000000;1.126921
9637.000000;1.125881
9636.000000;1.124634
9635.000000;1.123365
9634.000000;1.122098
9633.000000;1.120948
9632.000000;1.120135
9631.000000;1.119689
9630.000000;1.119351
9629.000000;1.118814
9628.000000;1.117998
9627.000000;1.117044
9626.000000;1.116137
9625.000000;1.115394
9624.000000;1.114873
9623.000000;1.114600
9622.000000;1.114562
9621.000000;1.114708
9620.000000;1.114993
9619.000000;1.115400
9618.000000;1.115879
9617.000000;1.116194
9616.000000;1.115934
9615.000000;1.114858
9614.000000;1.113259
9613.000000;1.111838
9612.000000;1.111086
9611.000000;1.110831
9610.000000;1.110523
9609.000000;1.109913
9608.000000;1.109275
9607.000000;1.108916
9606.000000;1.108685
9605.000000;1.108209
9604.000000;1.107507
9603.000000;1.107069
9602.000000;1.107230
9601.000000;1.107703
9600.000000;1.107913
9599.000000;1.107671
9598.000000;1.107237
9597.000000;1.106801
9596.000000;1.106262
9595.000000;1.105551
9594.000000;1.104879
9593.000000;1.104488
9592.000000;1.104340
9591.000000;1.104219
9590.000000;1.103989
9589.000000;1.103570
9588.000000;1.102832
9587.000000;1.101745
9586.000000;1.100561
9585.000000;1.099598
9584.000000;1.098900
9583.000000;1.098308
9582.000000;1.097820
9581.000000;1.097632
9580.000000;1.097752
9579.000000;1.097818
9578.000000;1.097483
9577.000000;1.096878
9576.000000;1.096495
9575.000000;1.096620
9574.000000;1.096977
9573.000000;1.096998
9572.000000;1.096426
9571.000000;1.095570
9570.000000;1.094951
9569.000000;1.094734
9568.000000;1.094634
9567.000000;1.094345
9566.000000;1.093871
9565.000000;1.093326
9564.000000;1.092591
9563.000000;1.091447
9562.000000;1.090026
9561.000000;1.088887
9560.000000;1.088488
9559.000000;1.088735
9558.000000;1.089162
9557.000000;1.089467
9556.000000;1.089678
9555.000000;1.089829
9554.000000;1.089718
9553.000000;1.089164
9552.000000;1.088346
9551.000000;1.087626
9550.000000;1.087030
9549.000000;1.086171
9548.000000;1.084843
9547.000000;1.083471
9546.000000;1.082749
9545.000000;1.082919
9544.000000;1.083623
9543.000000;1.084373
9542.000000;1.084874
9541.000000;1.084912
9540.000000;1.084269
9539.000000;1.082932
9538.000000;1.081242
9537.000000;1.079704
9536.000000;1.078726
9535.000000;1.078486
9534.000000;1.078800
9533.000000;1.079119
9532.000000;1.078970
9531.000000;1.078497
9530.000000;1.078287
9529.000000;1.078514
9528.000000;1.078609
9527.000000;1.077991
9526.000000;1.076878
9525.000000;1.076030
9524.000000;1.075883
9523.000000;1.076250
9522.000000;1.076709
9521.000000;1.076967
9520.000000;1.076885
9519.000000;1.076418
9518.000000;1.075567
9517.000000;1.074324
9516.000000;1.072765
9515.000000;1.071279
9514.000000;1.070433
9513.000000;1.070387
9512.000000;1.070657
9511.000000;1.070718
9510.000000;1.070616
9509.000000;1.070651
9508.000000;1.070673
9507.000000;1.070190
9506.000000;1.069121
9505.000000;1.067998
9504.000000;1.067338
9503.000000;1.067191
9502.000000;1.067333
9501.000000;1.067535
9500.000000;1.067544
9499.000000;1.067168
9498.000000;1.066549
9497.000000;1.066083
9496.000000;1.065918
9495.000000;1.065744
9494.000000;1.065254
9493.000000;1.064587
9492.000000;1.064135
9491.000000;1.064039
9490.000000;1.064042
9489.000000;1.063764
9488.000000;1.063028
9487.000000;1.062012
9486.000000;1.061147
9485.000000;1.060786
9484.000000;1.060907
9483.000000;1.061162
9482.000000;1.061181
9481.000000;1.060736
9480.000000;1.059739
9479.000000;1.058326
9478.000000;1.056982
9477.000000;1.056294
9476.000000;1.056442
9475.000000;1.057011
9474.000000;1.057385
9473.000000;1.057233
9472.000000;1.056614
9471.000000;1.055776
9470.000000;1.054974
9469.000000;1.054391
9468.000000;1.054119
9467.000000;1.054191
9466.000000;1.054550
9465.000000;1.054918
9464.000000;1.054800
9463.000000;1.053880
9462.000000;1.052424
9461.000000;1.051110
9460.000000;1.050442
9459.000000;1.050463
9458.000000;1.050979
9457.000000;1.051741
9456.000000;1.052333
9455.000000;1.052201
9454.000000;1.051090
9453.000000;1.049381
9452.000000;1.047817
9451.000000;1.046911
9450.000000;1.046682
9449.000000;1.046796
9448.000000;1.046846
9447.000000;1.046595
9446.000000;1.046110
9445.000000;1.045653
9444.000000;1.045356
9443.000000;1.045032
9442.000000;1.044399
9441.000000;1.043462
9440.000000;1.042583
9439.000000;1.042172
9438.000000;1.042286
9437.000000;1.042525
9436.000000;1.042326
9435.000000;1.041423
9434.000000;1.040114
9433.000000;1.039047
9432.000000;1.038741
9431.000000;1.039223
9430.000000;1.040059
9429.000000;1.040673
9428.000000;1.040724
9427.000000;1.040280
9426.000000;1.039665
9425.000000;1.039137
9424.000000;1.038752
9423.000000;1.038495
9422.000000;1.038340
9421.000000;1.038131
9420.000000;1.037566
9419.000000;1.036528
9418.000000;1.035351
9417.000000;1.034554
9416.000000;1.034350
9415.000000;1.034551
9414.000000;1.034893
9413.000000;1.035227
9412.000000;1.035412
9411.000000;1.035257
9410.000000;1.034709
9409.000000;1.033951
9408.000000;1.033239
9407.000000;1.032737
9406.000000;1.032534
9405.000000;1.032661
9404.000000;1.032972
9403.000000;1.033092
9402.000000;1.032645
9401.000000;1.031593
9400.000000;1.030304
9399.000000;1.029281
9398.000000;1.028784
9397.000000;1.028689
9396.000000;1.028688
9395.000000;1.028593
9394.000000;1.028420
9393.000000;1.028217
9392.000000;1.027980
9391.000000;1.027756
9390.000000;1.027656
9389.000000;1.027648
9388.000000;1.027483
9387.000000;1.026954
9386.000000;1.026146
9385.000000;1.025319
9384.000000;1.024615
9383.000000;1.024021
9382.000000;1.023511
9381.000000;1.023096
9380.000000;1.022797
9379.000000;1.022703
9378.000000;1.022925
9377.000000;1.023376
9376.000000;1.023684
9375.000000;1.023539
9374.000000;1.023021
9373.000000;1.022423
9372.000000;1.021862
9371.000000;1.021297
9370.000000;1.020803
9369.000000;1.020515
9368.000000;1.020339
9367.000000;1.019973
9366.000000;1.019264
9365.000000;1.018328
9364.000000;1.017363
9363.000000;1.016570
9362.000000;1.016208
9361.000000;1.016386
9360.000000;1.016773
9359.000000;1.016821
9358.000000;1.016412
9357.000000;1.016005
9356.000000;1.016013
9355.000000;1.016277
9354.000000;1.016314
9353.000000;1.015889
9352.000000;1.015156
9351.000000;1.014356
9350.000000;1.013618
9349.000000;1.012984
9348.000000;1.012470
9347.000000;1.012056
9346.000000;1.011680
9345.000000;1.011275
9344.000000;1.010838
9343.000000;1.010499
9342.000000;1.010454
9341.000000;1.010703
9340.000000;1.010909
9339.000000;1.010657
9338.000000;1.009908
9337.000000;1.009055
9336.000000;1.008497
9335.000000;1.008281
9334.000000;1.008166
9333.000000;1.007908
9332.000000;1.007446
9331.000000;1.006955
9330.000000;1.006744
9329.000000;1.006977
9328.000000;1.007452
9327.000000;1.007743
9326.000000;1.007573
9325.000000;1.006954
9324.000000;1.006022
9323.000000;1.004972
9322.000000;1.004131
9321.000000;1.003812
9320.000000;1.003961
9319.000000;1.004127
9318.000000;1.003924
9317.000000;1.003408
9316.000000;1.002878
9315.000000;1.002457
9314.000000;1.002050
9313.000000;1.001624
9312.000000;1.001341
9311.000000;1.001336
9310.000000;1.001470
9309.000000;1.001374
9308.000000;1.000776
9307.000000;0.999800
9306.000000;0.998859
9305.000000;0.998224
9304.000000;0.997798
9303.000000;0.997374
9302.000000;0.997006
9301.000000;0.996947
9300.000000;0.997256
9299.000000;0.997669
9298.000000;0.997881
9297.000000;0.997789
9296.000000;0.997448
9295.000000;0.996939
9294.000000;0.996361
9293.000000;0.995827
9292.000000;0.995429
9291.000000;0.995221
9290.000000;0.995206
9289.000000;0.995215
9288.000000;0.994932
9287.000000;0.994238
9286.000000;0.993470
9285.000000;0.993105
9284.000000;0.993170
9283.000000;0.993228
9282.000000;0.992966
9281.000000;0.992528
9280.000000;0.992158
9279.000000;0.991824
9278.000000;0.991392
9277.000000;0.990971
9276.000000;0.990821
9275.000000;0.990996
9274.000000;0.991254
9273.000000;0.991283
9272.000000;0.990907
9271.000000;0.990160
9270.000000;0.989319
9269.000000;0.988790
9268.000000;0.988792
9267.000000;0.989119
9266.000000;0.989294
9265.000000;0.989009
9264.000000;0.988382
9263.000000;0.987773
9262.000000;0.987422
9261.000000;0.987271
9260.000000;0.987122
9259.000000;0.986887
9258.000000;0.986593
9257.000000;0.986177
9256.000000;0.985438
9255.000000;0.984350
9254.000000;0.983287
9253.000000;0.982757
9252.000000;0.982894
9251.000000;0.983354
9250.000000;0.983685
9249.000000;0.983668
9248.000000;0.983324
9247.000000;0.982799
9246.000000;0.982296
9245.000000;0.981948
9244.000000;0.981683
9243.000000;0.981322
9242.000000;0.980853
9241.000000;0.980455
9240.000000;0.980223
9239.000000;0.980034
9238.000000;0.979739
9237.000000;0.979361
9236.000000;0.979023
9235.000000;0.978818
9234.000000;0.978793
9233.000000;0.978951
9232.000000;0.979177
9231.000000;0.979285
9230.000000;0.979223
9229.000000;0.979118
9228.000000;0.979061
9227.000000;0.978928
9226.000000;0.978513
9225.000000;0.977753
9224.000000;0.976790
9223.000000;0.975858
9222.000000;0.975155
9221.000000;0.974743
9220.000000;0.974519
9219.000000;0.974356
9218.000000;0.974258
9217.000000;0.974298
9216.000000;0.974445
9215.000000;0.974567
9214.000000;0.974594
9213.000000;0.974504
9212.000000;0.974185
9211.000000;0.973523
9210.000000;0.972689
9209.000000;0.972070
9208.000000;0.971818
9207.000000;0.971673
9206.000000;0.971388
9205.000000;0.971101
9204.000000;0.971087
9203.000000;0.971281
9202.000000;0.971304
9201.000000;0.970918
9200.000000;0.970255
9199.000000;0.969612
9198.000000;0.969194
9197.000000;0.969049
9196.000000;0.969099
9195.000000;0.969157
9194.000000;0.969020
9193.000000;0.968603
9192.000000;0.967976
9191.000000;0.967296
9190.000000;0.966747
9189.000000;0.966497
9188.000000;0.966589
9187.000000;0.966864
9186.000000;0.967049
9185.000000;0.966959
9184.000000;0.966619
9183.000000;0.966221
9182.000000;0.965944
9181.000000;0.965799
9180.000000;0.965625
9179.000000;0.965271
9178.000000;0.964786
9177.000000;0.964389
9176.000000;0.964223
9175.000000;0.964183
9174.000000;0.964043
9173.000000;0.963719
9172.000000;0.963364
9171.000000;0.963176
9170.000000;0.963163
9169.000000;0.963106
9168.000000;0.962812
9167.000000;0.962343
9166.000000;0.961942
9165.000000;0.961738
9164.000000;0.961626
9163.000000;0.961449
9162.000000;0.961179
9161.000000;0.960849
9160.000000;0.960476
9159.000000;0.960148
9158.000000;0.960057
9157.000000;0.960260
9156.000000;0.960500
9155.000000;0.960455
9154.000000;0.960106
9153.000000;0.959677
9152.000000;0.959282
9151.000000;0.958863
9150.000000;0.958446
9149.000000;0.958162
9148.000000;0.957993
9147.000000;0.957748
9146.000000;0.957379
9145.000000;0.957085
9144.000000;0.957024
9143.000000;0.957108
9142.000000;0.957186
9141.000000;0.957239
9140.000000;0.957262
9139.000000;0.957143
9138.000000;0.956792
9137.000000;0.956247
9136.000000;0.955556
9135.000000;0.954718
9134.000000;0.953899
9133.000000;0.953480
9132.000000;0.953673
9131.000000;0.954143
9130.000000;0.954265
9129.000000;0.953760
9128.000000;0.952923
9127.000000;0.952250
9126.000000;0.951971
9125.000000;0.951962
9124.000000;0.951931
9123.000000;0.951650
9122.000000;0.951103
9121.000000;0.950468
9120.000000;0.949961
9119.000000;0.949670
9118.000000;0.949545
9117.000000;0.949514
9116.000000;0.949555
9115.000000;0.949689
9114.000000;0.949918
9113.000000;0.950159
9112.000000;0.950226
9111.000000;0.949963
9110.000000;0.949418
9109.000000;0.948823
9108.000000;0.948348
9107.000000;0.947944
9106.000000;0.947469
9105.000000;0.946924
9104.000000;0.946492
9103.000000;0.946337
9102.000000;0.946392
9101.000000;0.946372
9100.000000;0.946053
9099.000000;0.945579
9098.000000;0.945378
9097.000000;0.945697
9096.000000;0.946272
9095.000000;0.946633
9094.000000;0.946653
9093.000000;0.946590
9092.000000;0.946553
9091.000000;0.946255
9090.000000;0.945440
9089.000000;0.944355
9088.000000;0.943532
9087.000000;0.943201
9086.000000;0.943163
9085.000000;0.943177
9084.000000;0.943227
9083.000000;0.943344
9082.000000;0.943382
9081.000000;0.943166
9080.000000;0.942776
9079.000000;0.942518
9078.000000;0.942553
9077.000000;0.942659
9076.000000;0.942464
9075.000000;0.941878
9074.000000;0.941179
9073.000000;0.940669
9072.000000;0.940382
9071.000000;0.940220
9070.000000;0.940218
9069.000000;0.940491
9068.000000;0.940931
9067.000000;0.941166
9066.000000;0.940925
9065.000000;0.940321
9064.000000;0.939701
9063.000000;0.939304
9062.000000;0.939113
9061.000000;0.938959
9060.000000;0.938688
9059.000000;0.938227
9058.000000;0.937593
9057.000000;0.936858
9056.000000;0.936153
9055.000000;0.935707
9054.000000;0.935775
9053.000000;0.936355
