Criado como novo conjunto de dados;"e2410_daniel_v2.spp","71465.7 Secs"
cm-1;Abs
10000.000000;1.466057
9999.000000;1.464122
9998.000000;1.462195
9997.000000;1.460278
9996.000000;1.458367
9995.000000;1.456466
9994.000000;1.454573
9993.000000;1.452689
9992.000000;1.450814
9991.000000;1.448945
9990.000000;1.447078
9989.000000;1.445372
9988.000000;1.444664
9987.000000;1.445230
9986.000000;1.446040
9985.000000;1.445847
9984.000000;1.444264
9983.000000;1.442130
9982.000000;1.440627
9981.000000;1.440170
9980.000000;1.440159
9979.000000;1.439765
9978.000000;1.438782
9977.000000;1.437665
9976.000000;1.436945
9975.000000;1.436724
9974.000000;1.436618
9973.000000;1.436118
9972.000000;1.435117
9971.000000;1.434125
9970.000000;1.433825
9969.000000;1.434384
9968.000000;1.435307
9967.000000;1.435905
9966.000000;1.435709
9965.000000;1.434525
9964.000000;1.432539
9963.000000;1.430518
9962.000000;1.429439
9961.000000;1.429597
9960.000000;1.430221
9959.000000;1.430215
9958.000000;1.429127
9957.000000;1.427267
9956.000000;1.425200
9955.000000;1.423504
9954.000000;1.422816
9953.000000;1.423518
9952.000000;1.425206
9951.000000;1.426749
9950.000000;1.427163
9949.000000;1.426448
9948.000000;1.425456
9947.000000;1.425005
9946.000000;1.425193
9945.000000;1.425519
9944.000000;1.425446
9943.000000;1.424690
9942.000000;1.423138
9941.000000;1.420888
9940.000000;1.418530
9939.000000;1.417024
9938.000000;1.416903
9937.000000;1.417705
9936.000000;1.418482
9935.000000;1.418727
9934.000000;1.418466
9933.000000;1.417699
9932.000000;1.416372
9931.000000;1.414895
9930.000000;1.414040
9929.000000;1.414089
9928.000000;1.414488
9927.000000;1.414514
9926.000000;1.413929
9925.000000;1.412844
9924.000000;1.411443
9923.000000;1.410056
9922.000000;1.409033
9921.000000;1.408287
9920.000000;1.407384
9919.000000;1.406328
9918.000000;1.405810
9917.000000;1.406297
9916.000000;1.407292
9915.000000;1.407927
9914.000000;1.407947
9913.000000;1.407650
9912.000000;1.407170
9911.000000;1.406436
9910.000000;1.405614
9909.000000;1.404965
9908.000000;1.404345
9907.000000;1.403353
9906.000000;1.402032
9905.000000;1.400992
9904.000000;1.400643
9903.000000;1.400618
9902.000000;1.400181
9901.000000;1.399100
9900.000000;1.397913
9899.000000;1.397375
9898.000000;1.397718
9897.000000;1.398457
9896.000000;1.398921
9895.000000;1.398902
9894.000000;1.398708
9893.000000;1.398610
9892.000000;1.398452
9891.000000;1.397861
9890.000000;1.396670
9889.000000;1.395087
9888.000000;1.393594
9887.000000;1.392685
9886.000000;1.392505
9885.000000;1.392663
9884.000000;1.392614
9883.000000;1.392240
9882.000000;1.391784
9881.000000;1.391287
9880.000000;1.390504
9879.000000;1.389458
9878.000000;1.388600
9877.000000;1.388191
9876.000000;1.387912
9875.000000;1.387360
9874.000000;1.386627
9873.000000;1.386021
9872.000000;1.385482
9871.000000;1.384686
9870.000000;1.383635
9869.000000;1.382782
9868.000000;1.382582
9867.000000;1.383077
9866.000000;1.383830
9865.000000;1.384126
9864.000000;1.383467
9863.000000;1.382069
9862.000000;1.380729
9861.000000;1.380056
9860.000000;1.380013
9859.000000;1.380286
9858.000000;1.380741
9857.000000;1.381301
9856.000000;1.381713
9855.000000;1.381735
9854.000000;1.381364
9853.000000;1.380633
9852.000000;1.379462
9851.000000;1.378001
9850.000000;1.376818
9849.000000;1.376321
9848.000000;1.376217
9847.000000;1.375938
9846.000000;1.375428
9845.000000;1.375064
9844.000000;1.374970
9843.000000;1.374912
9842.000000;1.374787
9841.000000;1.374627
9840.000000;1.374073
9839.000000;1.372477
9838.000000;1.369868
9837.000000;1.367363
9836.000000;1.366182
9835.000000;1.366422
9834.000000;1.367079
9833.000000;1.367205
9832.000000;1.366746
9831.000000;1.366237
9830.000000;1.365959
9829.000000;1.365641
9828.000000;1.364935
9827.000000;1.363939
9826.000000;1.363110
9825.000000;1.362721
9824.000000;1.362588
9823.000000;1.362339
9822.000000;1.361852
9821.000000;1.361378
9820.000000;1.361290
9819.000000;1.361705
9818.000000;1.362259
9817.000000;1.362262
9816.000000;1.361239
9815.000000;1.359363
9814.000000;1.357323
9813.000000;1.355717
9812.000000;1.354685
9811.000000;1.354087
9810.000000;1.353780
9809.000000;1.353606
9808.000000;1.353340
9807.000000;1.352882
9806.000000;1.352454
9805.000000;1.352418
9804.000000;1.352872
9803.000000;1.353492
9802.000000;1.353753
9801.000000;1.353307
9800.000000;1.352217
9799.000000;1.350938
9798.000000;1.350076
9797.000000;1.350038
9796.000000;1.350739
9795.000000;1.351543
9794.000000;1.351596
9793.000000;1.350466
9792.000000;1.348553
9791.000000;1.346705
9790.000000;1.345378
9789.000000;1.344344
9788.000000;1.343259
9787.000000;1.342241
9786.000000;1.341623
9785.000000;1.341403
9784.000000;1.341291
9783.000000;1.341137
9782.000000;1.340933
9781.000000;1.340441
9780.000000;1.339284
9779.000000;1.337534
9778.000000;1.335916
9777.000000;1.335261
9776.000000;1.335811
9775.000000;1.337013
9774.000000;1.337884
9773.000000;1.337770
9772.000000;1.336991
9771.000000;1.336567
9770.000000;1.337021
9769.000000;1.337661
9768.000000;1.337471
9767.000000;1.336519
9766.000000;1.335888
9765.000000;1.336179
9764.000000;1.336686
9763.000000;1.336237
9762.000000;1.334452
9761.000000;1.331995
9760.000000;1.329955
9759.000000;1.329148
9758.000000;1.329605
9757.000000;1.330477
9756.000000;1.330726
9755.000000;1.330098
9754.000000;1.329178
9753.000000;1.328474
9752.000000;1.327889
9751.000000;1.327238
9750.000000;1.326786
9749.000000;1.326942
9748.000000;1.327673
9747.000000;1.328495
9746.000000;1.328902
9745.000000;1.328654
9744.000000;1.327856
9743.000000;1.326900
9742.000000;1.326177
9741.000000;1.325694
9740.000000;1.325107
9739.000000;1.324214
9738.000000;1.323171
9737.000000;1.322201
9736.000000;1.321381
9735.000000;1.320739
9734.000000;1.320217
9733.000000;1.319515
9732.000000;1.318397
9731.000000;1.317176
9730.000000;1.316458
9729.000000;1.316285
9728.000000;1.316026
9727.000000;1.315299
9726.000000;1.314493
9725.000000;1.314089
9724.000000;1.313988
9723.000000;1.313877
9722.000000;1.313862
9721.000000;1.314279
9720.000000;1.315105
9719.000000;1.315928
9718.000000;1.316328
9717.000000;1.316035
9716.000000;1.314938
9715.000000;1.313229
9714.000000;1.311378
9713.000000;1.309763
9712.000000;1.308505
9711.000000;1.307770
9710.000000;1.307851
9709.000000;1.308666
9708.000000;1.309471
9707.000000;1.309493
9706.000000;1.308716
9705.000000;1.307740
9704.000000;1.306999
9703.000000;1.306383
9702.000000;1.305495
9701.000000;1.304137
9700.000000;1.302602
9699.000000;1.301545
9698.000000;1.301404
9697.000000;1.301905
9696.000000;1.302405
9695.000000;1.302725
9694.000000;1.303182
9693.000000;1.303689
9692.000000;1.303478
9691.000000;1.302142
9690.000000;1.300448
9689.000000;1.299504
9688.000000;1.299446
9687.000000;1.299498
9686.000000;1.299112
9685.000000;1.298468
9684.000000;1.297889
9683.000000;1.297361
9682.000000;1.296745
9681.000000;1.296111
9680.000000;1.295664
9679.000000;1.295524
9678.000000;1.295556
9677.000000;1.295316
9676.000000;1.294309
9675.000000;1.292560
9674.000000;1.290823
9673.000000;1.289913
9672.000000;1.289900
9671.000000;1.290212
9670.000000;1.290439
9669.000000;1.290676
9668.000000;1.291020
9667.000000;1.291140
9666.000000;1.290625
9665.000000;1.289557
9664.000000;1.288449
9663.000000;1.287628
9662.000000;1.286940
9661.000000;1.286132
9660.000000;1.285299
9659.000000;1.284727
9658.000000;1.284363
9657.000000;1.283815
9656.000000;1.282997
9655.000000;1.282367
9654.000000;1.282274
9653.000000;1.282374
9652.000000;1.282137
9651.000000;1.281661
9650.000000;1.281419
9649.000000;1.281307
9648.000000;1.280593
9647.000000;1.278965
9646.000000;1.277051
9645.000000;1.275691
9644.000000;1.275127
9643.000000;1.275131
9642.000000;1.275440
9641.000000;1.275735
9640.000000;1.275577
9639.000000;1.274795
9638.000000;1.273773
9637.000000;1.273059
9636.000000;1.272809
9635.000000;1.272764
9634.000000;1.272590
9633.000000;1.272145
9632.000000;1.271606
9631.000000;1.271421
9630.000000;1.271865
9629.000000;1.272592
9628.000000;1.272940
9627.000000;1.272754
9626.000000;1.272481
9625.000000;1.272311
9624.000000;1.271746
9623.000000;1.270341
9622.000000;1.268473
9621.000000;1.266963
9620.000000;1.266257
9619.000000;1.266288
9618.000000;1.266811
9617.000000;1.267505
9616.000000;1.267968
9615.000000;1.267990
9614.000000;1.267727
9613.000000;1.267390
9612.000000;1.266947
9611.000000;1.266339
9610.000000;1.265718
9609.000000;1.265189
9608.000000;1.264585
9607.000000;1.263752
9606.000000;1.262828
9605.000000;1.262000
9604.000000;1.261230
9603.000000;1.260481
9602.000000;1.259916
9601.000000;1.259539
9600.000000;1.258962
9599.000000;1.257957
9598.000000;1.256939
9597.000000;1.256418
9596.000000;1.256189
9595.000000;1.255594
9594.000000;1.254523
9593.000000;1.253606
9592.000000;1.253362
9591.000000;1.253597
9590.000000;1.253766
9589.000000;1.253572
9588.000000;1.253071
9587.000000;1.252417
9586.000000;1.251686
9585.000000;1.250903
9584.000000;1.250155
9583.000000;1.249685
9582.000000;1.249724
9581.000000;1.250131
9580.000000;1.250375
9579.000000;1.250066
9578.000000;1.249392
9577.000000;1.248769
9576.000000;1.248228
9575.000000;1.247486
9574.000000;1.246594
9573.000000;1.246087
9572.000000;1.246319
9571.000000;1.246883
9570.000000;1.246976
9569.000000;1.246287
9568.000000;1.245323
9567.000000;1.244816
9566.000000;1.244972
9565.000000;1.245410
9564.000000;1.245692
9563.000000;1.245654
9562.000000;1.245220
9561.000000;1.244258
9560.000000;1.242836
9559.000000;1.241410
9558.000000;1.240451
9557.000000;1.240051
9556.000000;1.240092
9555.000000;1.240509
9554.000000;1.240987
9553.000000;1.240686
9552.000000;1.238982
9551.000000;1.236528
9550.000000;1.234906
9549.000000;1.235036
9548.000000;1.236334
9547.000000;1.237557
9546.000000;1.238000
9545.000000;1.237687
9544.000000;1.236877
9543.000000;1.235893
9542.000000;1.235139
9541.000000;1.234816
9540.000000;1.234695
9539.000000;1.234406
9538.000000;1.233828
9537.000000;1.233070
9536.000000;1.232275
9535.000000;1.231599
9534.000000;1.231147
9533.000000;1.230779
9532.000000;1.230200
9531.000000;1.229396
9530.000000;1.228701
9529.000000;1.228312
9528.000000;1.228044
9527.000000;1.227726
9526.000000;1.227517
9525.000000;1.227583
9524.000000;1.227759
9523.000000;1.227787
9522.000000;1.227655
9521.000000;1.227464
9520.000000;1.227172
9519.000000;1.226717
9518.000000;1.226184
9517.000000;1.225628
9516.000000;1.224965
9515.000000;1.224230
9514.000000;1.223690
9513.000000;1.223439
9512.000000;1.223151
9511.000000;1.222506
9510.000000;1.221682
9509.000000;1.221102
9508.000000;1.220880
9507.000000;1.220765
9506.000000;1.220528
9505.000000;1.220171
9504.000000;1.219843
9503.000000;1.219736
9502.000000;1.219937
9501.000000;1.220232
9500.000000;1.220149
9499.000000;1.219329
9498.000000;1.217814
9497.000000;1.216018
9496.000000;1.214576
9495.000000;1.214068
9494.000000;1.214502
9493.000000;1.215084
9492.000000;1.214990
9491.000000;1.214371
9490.000000;1.214058
9489.000000;1.214241
9488.000000;1.214191
9487.000000;1.213514
9486.000000;1.212893
9485.000000;1.213028
9484.000000;1.213531
9483.000000;1.213556
9482.000000;1.213027
9481.000000;1.212430
9480.000000;1.211775
9479.000000;1.210685
9478.000000;1.209413
9477.000000;1.208840
9476.000000;1.209262
9475.000000;1.209879
9474.000000;1.209798
9473.000000;1.209093
9472.000000;1.208498
9471.000000;1.208368
9470.000000;1.208271
9469.000000;1.207537
9468.000000;1.206003
9467.000000;1.204207
9466.000000;1.202896
9465.000000;1.202386
9464.000000;1.202486
9463.000000;1.202960
9462.000000;1.203771
9461.000000;1.204755
9460.000000;1.205393
9459.000000;1.205257
9458.000000;1.204512
9457.000000;1.203682
9456.000000;1.203029
9455.000000;1.202445
9454.000000;1.201822
9453.000000;1.201205
9452.000000;1.200638
9451.000000;1.200144
9450.000000;1.199810
9449.000000;1.199677
9448.000000;1.199548
9447.000000;1.199100
9446.000000;1.198165
9445.000000;1.196833
9444.000000;1.195437
9443.000000;1.194510
9442.000000;1.194510
9441.000000;1.195321
9440.000000;1.196174
9439.000000;1.196321
9438.000000;1.195721
9437.000000;1.194897
9436.000000;1.194311
9435.000000;1.194085
9434.000000;1.194104
9433.000000;1.194087
9432.000000;1.193689
9431.000000;1.192847
9430.000000;1.191942
9429.000000;1.191409
9428.000000;1.191276
9427.000000;1.191267
9426.000000;1.191194
9425.000000;1.190961
9424.000000;1.190371
9423.000000;1.189295
9422.000000;1.187980
9421.000000;1.186901
9420.000000;1.186274
9419.000000;1.185923
9418.000000;1.185613
9417.000000;1.185326
9416.000000;1.185234
9415.000000;1.185526
9414.000000;1.186174
9413.000000;1.186756
9412.000000;1.186679
9411.000000;1.185807
9410.000000;1.184708
9409.000000;1.184065
9408.000000;1.183980
9407.000000;1.184081
9406.000000;1.184114
9405.000000;1.184082
9404.000000;1.183920
9403.000000;1.183450
9402.000000;1.182701
9401.000000;1.181941
9400.000000;1.181335
9399.000000;1.180831
9398.000000;1.180464
9397.000000;1.180502
9396.000000;1.181111
9395.000000;1.182023
9394.000000;1.182690
9393.000000;1.182717
9392.000000;1.182070
9391.000000;1.180884
9390.000000;1.179266
9389.000000;1.177364
9388.000000;1.175563
9387.000000;1.174383
9386.000000;1.174017
9385.000000;1.174079
9384.000000;1.173969
9383.000000;1.173471
9382.000000;1.172798
9381.000000;1.172156
9380.000000;1.171568
9379.000000;1.171148
9378.000000;1.171197
9377.000000;1.171865
9376.000000;1.172918
9375.000000;1.173964
9374.000000;1.174700
9373.000000;1.174867
9372.000000;1.174272
9371.000000;1.173045
9370.000000;1.171669
9369.000000;1.170625
9368.000000;1.170099
9367.000000;1.169981
9366.000000;1.169876
9365.000000;1.169171
9364.000000;1.167550
9363.000000;1.165574
9362.000000;1.164333
9361.000000;1.164279
9360.000000;1.164760
9359.000000;1.164913
9358.000000;1.164681
9357.000000;1.164603
9356.000000;1.164945
9355.000000;1.165451
9354.000000;1.165760
9353.000000;1.165667
9352.000000;1.165101
9351.000000;1.164216
9350.000000;1.163426
9349.000000;1.163095
9348.000000;1.163203
9347.000000;1.163475
9346.000000;1.163647
9345.000000;1.163447
9344.000000;1.162582
9343.000000;1.161078
9342.000000;1.159490
9341.000000;1.158492
9340.000000;1.158376
9339.000000;1.159075
9338.000000;1.160375
9337.000000;1.161819
9336.000000;1.162666
9335.000000;1.162427
9334.000000;1.161389
9333.000000;1.160286
9332.000000;1.159542
9331.000000;1.159097
9330.000000;1.158775
9329.000000;1.158427
9328.000000;1.157796
9327.000000;1.156639
9326.000000;1.155081
9325.000000;1.153655
9324.000000;1.152943
9323.000000;1.153220
9322.000000;1.154241
9321.000000;1.155219
9320.000000;1.155291
9319.000000;1.154331
9318.000000;1.153150
9317.000000;1.152599
9316.000000;1.152675
9315.000000;1.152787
9314.000000;1.152674
9313.000000;1.152608
9312.000000;1.152772
9311.000000;1.152935
9310.000000;1.152823
9309.000000;1.152442
9308.000000;1.151891
9307.000000;1.151138
9306.000000;1.150151
9305.000000;1.149072
9304.000000;1.148136
9303.000000;1.147518
9302.000000;1.147243
9301.000000;1.147154
9300.000000;1.146988
9299.000000;1.146627
9298.000000;1.146223
9297.000000;1.145999
9296.000000;1.146000
9295.000000;1.146145
9294.000000;1.146360
9293.000000;1.146484
9292.000000;1.146219
9291.000000;1.145415
9290.000000;1.144332
9289.000000;1.143422
9288.000000;1.142926
9287.000000;1.142819
9286.000000;1.143012
9285.000000;1.143341
9284.000000;1.143472
9283.000000;1.143116
9282.000000;1.142318
9281.000000;1.141369
9280.000000;1.140492
9279.000000;1.139851
9278.000000;1.139741
9277.000000;1.140393
9276.000000;1.141527
9275.000000;1.142419
9274.000000;1.142567
9273.000000;1.142133
9272.000000;1.141640
9271.000000;1.141366
9270.000000;1.141152
9269.000000;1.140723
9268.000000;1.140082
9267.000000;1.139535
9266.000000;1.139298
9265.000000;1.139163
9264.000000;1.138685
9263.000000;1.137739
9262.000000;1.136684
9261.000000;1.135879
9260.000000;1.135247
9259.000000;1.134525
9258.000000;1.133766
9257.000000;1.133311
9256.000000;1.133317
9255.000000;1.133583
9254.000000;1.133856
9253.000000;1.134071
9252.000000;1.134220
9251.000000;1.134191
9250.000000;1.133854
9249.000000;1.133260
9248.000000;1.132627
9247.000000;1.132108
9246.000000;1.131626
9245.000000;1.131028
9244.000000;1.130388
9243.000000;1.130024
9242.000000;1.130088
9241.000000;1.130277
9240.000000;1.130162
9239.000000;1.129759
9238.000000;1.129510
9237.000000;1.129664
9236.000000;1.129950
9235.000000;1.129884
9234.000000;1.129194
9233.000000;1.127929
9232.000000;1.126452
9231.000000;1.125366
9230.000000;1.125115
9229.000000;1.125520
9228.000000;1.125989
9227.000000;1.126254
9226.000000;1.126566
9225.000000;1.127032
9224.000000;1.127222
9223.000000;1.126734
9222.000000;1.125801
9221.000000;1.124966
9220.000000;1.124421
9219.000000;1.124032
9218.000000;1.123766
9217.000000;1.123666
9216.000000;1.123544
9215.000000;1.123088
9214.000000;1.122258
9213.000000;1.121309
9212.000000;1.120475
9211.000000;1.119837
9210.000000;1.119425
9209.000000;1.119237
9208.000000;1.119235
9207.000000;1.119444
9206.000000;1.119892
9205.000000;1.120325
9204.000000;1.120239
9203.000000;1.119474
9202.000000;1.118563
9201.000000;1.118203
9200.000000;1.118504
9199.000000;1.118991
9198.000000;1.119164
9197.000000;1.118835
9196.000000;1.118130
9195.000000;1.117477
9194.000000;1.117400
9193.000000;1.117960
9192.000000;1.118537
9191.000000;1.118470
9190.000000;1.117804
9189.000000;1.117061
9188.000000;1.116447
9187.000000;1.115749
9186.000000;1.114943
9185.000000;1.114443
9184.000000;1.114607
9183.000000;1.115278
9182.000000;1.115925
9181.000000;1.116093
9180.000000;1.115718
9179.000000;1.115158
9178.000000;1.114856
9177.000000;1.114826
9176.000000;1.114601
9175.000000;1.113892
9174.000000;1.113067
9173.000000;1.112689
9172.000000;1.112725
9171.000000;1.112611
9170.000000;1.112037
9169.000000;1.111330
9168.000000;1.111036
9167.000000;1.111379
9166.000000;1.112092
9165.000000;1.112524
9164.000000;1.112017
9163.000000;1.110535
9162.000000;1.108884
9161.000000;1.107991
9160.000000;1.107987
9159.000000;1.108261
9158.000000;1.108346
9157.000000;1.108333
9156.000000;1.108428
9155.000000;1.108517
9154.000000;1.108375
9153.000000;1.107996
9152.000000;1.107542
9151.000000;1.107155
9150.000000;1.106923
9149.000000;1.106823
9148.000000;1.106624
9147.000000;1.106055
9146.000000;1.105205
9145.000000;1.104538
9144.000000;1.104420
9143.000000;1.104733
9142.000000;1.105036
9141.000000;1.104963
9140.000000;1.104446
9139.000000;1.103729
9138.000000;1.103201
9137.000000;1.103080
9136.000000;1.103178
9135.000000;1.103118
9134.000000;1.102773
9133.000000;1.102367
9132.000000;1.102122
9131.000000;1.101970
9130.000000;1.101623
9129.000000;1.100836
9128.000000;1.099641
9127.000000;1.098468
9126.000000;1.097927
9125.000000;1.098231
9124.000000;1.098905
9123.000000;1.099301
9122.000000;1.099371
9121.000000;1.099613
9120.000000;1.100289
9119.000000;1.101062
9118.000000;1.101475
9117.000000;1.101365
9116.000000;1.100675
9115.000000;1.099280
9114.000000;1.097367
9113.000000;1.095707
9112.000000;1.095124
9111.000000;1.095718
9110.000000;1.096823
9109.000000;1.097697
9108.000000;1.098080
9107.000000;1.098085
9106.000000;1.097810
9105.000000;1.097190
9104.000000;1.096180
9103.000000;1.094960
9102.000000;1.093916
9101.000000;1.093377
9100.000000;1.093367
9099.000000;1.093639
9098.000000;1.093913
9097.000000;1.094018
9096.000000;1.093855
9095.000000;1.093411
9094.000000;1.092830
9093.000000;1.092363
9092.000000;1.092151
9091.000000;1.092112
9090.000000;1.092078
9089.000000;1.091951
9088.000000;1.091714
9087.000000;1.091397
9086.000000;1.091091
9085.000000;1.090906
9084.000000;1.090852
9083.000000;1.090796
9082.000000;1.090593
9081.000000;1.090230
9080.000000;1.089831
9079.000000;1.089563
9078.000000;1.089507
9077.000000;1.089539
9076.000000;1.089348
9075.000000;1.088716
9074.000000;1.087798
9073.000000;1.087008
9072.000000;1.086577
9071.000000;1.086362
9070.000000;1.086128
9069.000000;1.085854
9068.000000;1.085652
9067.000000;1.085562
9066.000000;1.085601
9065.000000;1.085898
9064.000000;1.086524
9063.000000;1.087190
9062.000000;1.087393
9061.000000;1.086961
9060.000000;1.086304
9059.000000;1.085964
9058.000000;1.086055
9057.000000;1.086252
9056.000000;1.086227
9055.000000;1.085916
9054.000000;1.085432
9053.000000;1.084917
