Criado como novo conjunto de dados;"e2410_daniel_v2.spp","56885.0 Secs"
cm-1;Abs
10000.000000;1.214976
9999.000000;1.213833
9998.000000;1.212567
9997.000000;1.211789
9996.000000;1.211757
9995.000000;1.212161
9994.000000;1.212378
9993.000000;1.212062
9992.000000;1.211423
9991.000000;1.210838
9990.000000;1.210323
9989.000000;1.209544
9988.000000;1.208275
9987.000000;1.206673
9986.000000;1.205129
9985.000000;1.203990
9984.000000;1.203426
9983.000000;1.203389
9982.000000;1.203594
9981.000000;1.203618
9980.000000;1.203178
9979.000000;1.202384
9978.000000;1.201658
9977.000000;1.201328
9976.000000;1.201275
9975.000000;1.201074
9974.000000;1.200518
9973.000000;1.199874
9972.000000;1.199530
9971.000000;1.199479
9970.000000;1.199325
9969.000000;1.198740
9968.000000;1.197744
9967.000000;1.196532
9966.000000;1.195258
9965.000000;1.194045
9964.000000;1.192982
9963.000000;1.192051
9962.000000;1.191216
9961.000000;1.190667
9960.000000;1.190746
9959.000000;1.191485
9958.000000;1.192344
9957.000000;1.192606
9956.000000;1.192024
9955.000000;1.190939
9954.000000;1.189829
9953.000000;1.188913
9952.000000;1.188161
9951.000000;1.187535
9950.000000;1.187096
9949.000000;1.186901
9948.000000;1.186877
9947.000000;1.186823
9946.000000;1.186559
9945.000000;1.186098
9944.000000;1.185608
9943.000000;1.185236
9942.000000;1.184976
9941.000000;1.184681
9940.000000;1.184148
9939.000000;1.183239
9938.000000;1.182029
9937.000000;1.180790
9936.000000;1.179764
9935.000000;1.178941
9934.000000;1.178151
9933.000000;1.177348
9932.000000;1.176701
9931.000000;1.176412
9930.000000;1.176546
9929.000000;1.176982
9928.000000;1.177350
9927.000000;1.177106
9926.000000;1.175961
9925.000000;1.174358
9924.000000;1.173233
9923.000000;1.173090
9922.000000;1.173465
9921.000000;1.173493
9920.000000;1.172883
9919.000000;1.172106
9918.000000;1.171650
9917.000000;1.171409
9916.000000;1.170920
9915.000000;1.170013
9914.000000;1.169034
9913.000000;1.168449
9912.000000;1.168387
9911.000000;1.168580
9910.000000;1.168651
9909.000000;1.168375
9908.000000;1.167714
9907.000000;1.166755
9906.000000;1.165667
9905.000000;1.164638
9904.000000;1.163803
9903.000000;1.163231
9902.000000;1.162979
9901.000000;1.163031
9900.000000;1.163146
9899.000000;1.162892
9898.000000;1.162014
9897.000000;1.160720
9896.000000;1.159455
9895.000000;1.158432
9894.000000;1.157600
9893.000000;1.157031
9892.000000;1.157016
9891.000000;1.157613
9890.000000;1.158307
9889.000000;1.158388
9888.000000;1.157654
9887.000000;1.156566
9886.000000;1.155687
9885.000000;1.155140
9884.000000;1.154681
9883.000000;1.154116
9882.000000;1.153508
9881.000000;1.153012
9880.000000;1.152654
9879.000000;1.152336
9878.000000;1.151974
9877.000000;1.151546
9876.000000;1.151034
9875.000000;1.150449
9874.000000;1.149894
9873.000000;1.149511
9872.000000;1.149307
9871.000000;1.149143
9870.000000;1.148899
9869.000000;1.148557
9868.000000;1.148108
9867.000000;1.147467
9866.000000;1.146596
9865.000000;1.145638
9864.000000;1.144814
9863.000000;1.144235
9862.000000;1.143898
9861.000000;1.143794
9860.000000;1.143873
9859.000000;1.143946
9858.000000;1.143780
9857.000000;1.143308
9856.000000;1.142637
9855.000000;1.141810
9854.000000;1.140699
9853.000000;1.139238
9852.000000;1.137722
9851.000000;1.136765
9850.000000;1.136820
9849.000000;1.137666
9848.000000;1.138452
9847.000000;1.138422
9846.000000;1.137625
9845.000000;1.136709
9844.000000;1.136027
9843.000000;1.135261
9842.000000;1.134095
9841.000000;1.132891
9840.000000;1.132320
9839.000000;1.132520
9838.000000;1.133036
9837.000000;1.133481
9836.000000;1.133780
9835.000000;1.133755
9834.000000;1.133014
9833.000000;1.131535
9832.000000;1.129966
9831.000000;1.128992
9830.000000;1.128626
9829.000000;1.128390
9828.000000;1.128018
9827.000000;1.127648
9826.000000;1.127407
9825.000000;1.127155
9824.000000;1.126694
9823.000000;1.126027
9822.000000;1.125333
9821.000000;1.124807
9820.000000;1.124522
9819.000000;1.124368
9818.000000;1.124110
9817.000000;1.123598
9816.000000;1.122890
9815.000000;1.122141
9814.000000;1.121446
9813.000000;1.120858
9812.000000;1.120431
9811.000000;1.120126
9810.000000;1.119796
9809.000000;1.119392
9808.000000;1.119087
9807.000000;1.119025
9806.000000;1.119030
9805.000000;1.118750
9804.000000;1.118042
9803.000000;1.117046
9802.000000;1.115948
9801.000000;1.114854
9800.000000;1.113856
9799.000000;1.113019
9798.000000;1.112302
9797.000000;1.111647
9796.000000;1.111127
9795.000000;1.110825
9794.000000;1.110619
9793.000000;1.110292
9792.000000;1.109818
9791.000000;1.109304
9790.000000;1.108663
9789.000000;1.107724
9788.000000;1.106717
9787.000000;1.106245
9786.000000;1.106496
9785.000000;1.106827
9784.000000;1.106469
9783.000000;1.105476
9782.000000;1.104577
9781.000000;1.104181
9780.000000;1.103945
9779.000000;1.103329
9778.000000;1.102236
9777.000000;1.101031
9776.000000;1.100186
9775.000000;1.100011
9774.000000;1.100481
9773.000000;1.101177
9772.000000;1.101536
9771.000000;1.101319
9770.000000;1.100754
9769.000000;1.100187
9768.000000;1.099760
9767.000000;1.099476
9766.000000;1.099331
9765.000000;1.099207
9764.000000;1.098798
9763.000000;1.097888
9762.000000;1.096667
9761.000000;1.095596
9760.000000;1.094976
9759.000000;1.094763
9758.000000;1.094706
9757.000000;1.094556
9756.000000;1.094147
9755.000000;1.093449
9754.000000;1.092596
9753.000000;1.091797
9752.000000;1.091163
9751.000000;1.090617
9750.000000;1.089979
9749.000000;1.089147
9748.000000;1.088216
9747.000000;1.087445
9746.000000;1.087060
9745.000000;1.087077
9744.000000;1.087333
9743.000000;1.087608
9742.000000;1.087670
9741.000000;1.087276
9740.000000;1.086362
9739.000000;1.085228
9738.000000;1.084377
9737.000000;1.084084
9736.000000;1.084231
9735.000000;1.084542
9734.000000;1.084788
9733.000000;1.084729
9732.000000;1.084163
9731.000000;1.083217
9730.000000;1.082359
9729.000000;1.081865
9728.000000;1.081443
9727.000000;1.080578
9726.000000;1.079170
9725.000000;1.077621
9724.000000;1.076437
9723.000000;1.075930
9722.000000;1.076135
9721.000000;1.076715
9720.000000;1.077021
9719.000000;1.076594
9718.000000;1.075654
9717.000000;1.074840
9716.000000;1.074482
9715.000000;1.074313
9714.000000;1.073887
9713.000000;1.073048
9712.000000;1.071968
9711.000000;1.070943
9710.000000;1.070227
9709.000000;1.069914
9708.000000;1.069902
9707.000000;1.070057
9706.000000;1.070326
9705.000000;1.070581
9704.000000;1.070517
9703.000000;1.069973
9702.000000;1.069284
9701.000000;1.068942
9700.000000;1.068934
9699.000000;1.068782
9698.000000;1.068269
9697.000000;1.067727
9696.000000;1.067459
9695.000000;1.067240
9694.000000;1.066652
9693.000000;1.065625
9692.000000;1.064405
9691.000000;1.063210
9690.000000;1.062197
9689.000000;1.061568
9688.000000;1.061405
9687.000000;1.061465
9686.000000;1.061404
9685.000000;1.061184
9684.000000;1.061033
9683.000000;1.061030
9682.000000;1.060929
9681.000000;1.060423
9680.000000;1.059470
9679.000000;1.058341
9678.000000;1.057410
9677.000000;1.056849
9676.000000;1.056478
9675.000000;1.055950
9674.000000;1.055139
9673.000000;1.054313
9672.000000;1.053849
9671.000000;1.053841
9670.000000;1.054013
9669.000000;1.053960
9668.000000;1.053464
9667.000000;1.052671
9666.000000;1.051979
9665.000000;1.051662
9664.000000;1.051575
9663.000000;1.051338
9662.000000;1.050834
9661.000000;1.050352
9660.000000;1.050160
9659.000000;1.050130
9658.000000;1.049918
9657.000000;1.049380
9656.000000;1.048658
9655.000000;1.047965
9654.000000;1.047422
9653.000000;1.047053
9652.000000;1.046778
9651.000000;1.046466
9650.000000;1.046080
9649.000000;1.045734
9648.000000;1.045510
9647.000000;1.045250
9646.000000;1.044652
9645.000000;1.043621
9644.000000;1.042438
9643.000000;1.041568
9642.000000;1.041227
9641.000000;1.041140
9640.000000;1.040777
9639.000000;1.039949
9638.000000;1.039087
9637.000000;1.038803
9636.000000;1.039173
9635.000000;1.039640
9634.000000;1.039604
9633.000000;1.038927
9632.000000;1.037875
9631.000000;1.036835
9630.000000;1.036211
9629.000000;1.036279
9628.000000;1.036879
9627.000000;1.037379
9626.000000;1.037216
9625.000000;1.036412
9624.000000;1.035417
9623.000000;1.034526
9622.000000;1.033652
9621.000000;1.032657
9620.000000;1.031696
9619.000000;1.031137
9618.000000;1.031202
9617.000000;1.031675
9616.000000;1.031976
9615.000000;1.031636
9614.000000;1.030711
9613.000000;1.029664
9612.000000;1.028855
9611.000000;1.028302
9610.000000;1.027901
9609.000000;1.027602
9608.000000;1.027281
9607.000000;1.026697
9606.000000;1.025791
9605.000000;1.024872
9604.000000;1.024324
9603.000000;1.024222
9602.000000;1.024362
9601.000000;1.024504
9600.000000;1.024418
9599.000000;1.023900
9598.000000;1.022982
9597.000000;1.022035
9596.000000;1.021433
9595.000000;1.021164
9594.000000;1.020937
9593.000000;1.020592
9592.000000;1.020196
9591.000000;1.019810
9590.000000;1.019388
9589.000000;1.018912
9588.000000;1.018411
9587.000000;1.017878
9586.000000;1.017348
9585.000000;1.017038
9584.000000;1.017184
9583.000000;1.017671
9582.000000;1.018033
9581.000000;1.017878
9580.000000;1.017235
9579.000000;1.016397
9578.000000;1.015578
9577.000000;1.014785
9576.000000;1.013931
9575.000000;1.013003
9574.000000;1.012132
9573.000000;1.011520
9572.000000;1.011253
9571.000000;1.011195
9570.000000;1.011097
9569.000000;1.010816
9568.000000;1.010388
9567.000000;1.009947
9566.000000;1.009610
9565.000000;1.009390
9564.000000;1.009153
9563.000000;1.008714
9562.000000;1.008085
9561.000000;1.007549
9560.000000;1.007354
9559.000000;1.007368
9558.000000;1.007181
9557.000000;1.006578
9556.000000;1.005798
9555.000000;1.005276
9554.000000;1.005202
9553.000000;1.005350
9552.000000;1.005293
9551.000000;1.004790
9550.000000;1.004013
9549.000000;1.003420
9548.000000;1.003341
9547.000000;1.003665
9546.000000;1.003911
9545.000000;1.003618
9544.000000;1.002711
9543.000000;1.001561
9542.000000;1.000692
9541.000000;1.000365
9540.000000;1.000377
9539.000000;1.000267
9538.000000;0.999741
9537.000000;0.998870
9536.000000;0.997958
9535.000000;0.997321
9534.000000;0.997137
9533.000000;0.997312
9532.000000;0.997456
9531.000000;0.997174
9530.000000;0.996471
9529.000000;0.995730
9528.000000;0.995228
9527.000000;0.994870
9526.000000;0.994472
9525.000000;0.994077
9524.000000;0.993765
9523.000000;0.993366
9522.000000;0.992682
9521.000000;0.991892
9520.000000;0.991421
9519.000000;0.991357
9518.000000;0.991309
9517.000000;0.990914
9516.000000;0.990270
9515.000000;0.989716
9514.000000;0.989364
9513.000000;0.989055
9512.000000;0.988705
9511.000000;0.988445
9510.000000;0.988364
9509.000000;0.988261
9508.000000;0.987807
9507.000000;0.986969
9506.000000;0.986121
9505.000000;0.985679
9504.000000;0.985680
9503.000000;0.985790
9502.000000;0.985631
9501.000000;0.985021
9500.000000;0.984040
9499.000000;0.983048
9498.000000;0.982571
9497.000000;0.982855
9496.000000;0.983477
9495.000000;0.983677
9494.000000;0.983196
9493.000000;0.982545
9492.000000;0.982279
9491.000000;0.982280
9490.000000;0.982008
9489.000000;0.981257
9488.000000;0.980345
9487.000000;0.979643
9486.000000;0.979210
9485.000000;0.978875
9484.000000;0.978429
9483.000000;0.977712
9482.000000;0.976739
9481.000000;0.975784
9480.000000;0.975151
9479.000000;0.974828
9478.000000;0.974505
9477.000000;0.973979
9476.000000;0.973357
9475.000000;0.972841
9474.000000;0.972496
9473.000000;0.972314
9472.000000;0.972363
9471.000000;0.972689
9470.000000;0.973159
9469.000000;0.973514
9468.000000;0.973586
9467.000000;0.973390
9466.000000;0.973015
9465.000000;0.972502
9464.000000;0.971840
9463.000000;0.971044
9462.000000;0.970228
9461.000000;0.969561
9460.000000;0.969162
9459.000000;0.969015
9458.000000;0.968962
9457.000000;0.968784
9456.000000;0.968333
9455.000000;0.967681
9454.000000;0.967106
9453.000000;0.966799
9452.000000;0.966587
9451.000000;0.966116
9450.000000;0.965332
9449.000000;0.964610
9448.000000;0.964291
9447.000000;0.964260
9446.000000;0.964124
9445.000000;0.963720
9444.000000;0.963255
9443.000000;0.962976
9442.000000;0.962891
9441.000000;0.962818
9440.000000;0.962563
9439.000000;0.962033
9438.000000;0.961300
9437.000000;0.960577
9436.000000;0.960038
9435.000000;0.959668
9434.000000;0.959340
9433.000000;0.959001
9432.000000;0.958645
9431.000000;0.958175
9430.000000;0.957470
9429.000000;0.956614
9428.000000;0.955917
9427.000000;0.955586
9426.000000;0.955491
9425.000000;0.955322
9424.000000;0.954940
9423.000000;0.954506
9422.000000;0.954276
9421.000000;0.954314
9420.000000;0.954390
9419.000000;0.954145
9418.000000;0.953413
9417.000000;0.952399
9416.000000;0.951524
9415.000000;0.951077
9414.000000;0.951021
9413.000000;0.951101
9412.000000;0.951080
9411.000000;0.950875
9410.000000;0.950529
9409.000000;0.950144
9408.000000;0.949818
9407.000000;0.949623
9406.000000;0.949558
9405.000000;0.949500
9404.000000;0.949238
9403.000000;0.948643
9402.000000;0.947839
9401.000000;0.947136
9400.000000;0.946746
9399.000000;0.946610
9398.000000;0.946523
9397.000000;0.946364
9396.000000;0.946142
9395.000000;0.945893
9394.000000;0.945628
9393.000000;0.945361
9392.000000;0.945085
9391.000000;0.944722
9390.000000;0.944157
9389.000000;0.943353
9388.000000;0.942419
9387.000000;0.941568
9386.000000;0.941031
9385.000000;0.940934
9384.000000;0.941189
9383.000000;0.941541
9382.000000;0.941777
9381.000000;0.941867
9380.000000;0.941834
9379.000000;0.941551
9378.000000;0.940841
9377.000000;0.939776
9376.000000;0.938733
9375.000000;0.938086
9374.000000;0.937897
9373.000000;0.937952
9372.000000;0.937989
9371.000000;0.937833
9370.000000;0.937399
9369.000000;0.936721
9368.000000;0.935970
9367.000000;0.935321
9366.000000;0.934759
9365.000000;0.934130
9364.000000;0.933404
9363.000000;0.932791
9362.000000;0.932506
9361.000000;0.932499
9360.000000;0.932537
9359.000000;0.932488
9358.000000;0.932369
9357.000000;0.932159
9356.000000;0.931759
9355.000000;0.931201
9354.000000;0.930715
9353.000000;0.930474
9352.000000;0.930382
9351.000000;0.930233
9350.000000;0.929957
9349.000000;0.929599
9348.000000;0.929182
9347.000000;0.928734
9346.000000;0.928364
9345.000000;0.928176
9344.000000;0.928178
9343.000000;0.928376
9342.000000;0.928832
9341.000000;0.929432
9340.000000;0.929773
9339.000000;0.929550
9338.000000;0.928963
9337.000000;0.928454
9336.000000;0.928077
9335.000000;0.927471
9334.000000;0.926492
9333.000000;0.925491
9332.000000;0.924845
9331.000000;0.924519
9330.000000;0.924283
9329.000000;0.924079
9328.000000;0.923953
9327.000000;0.923814
9326.000000;0.923533
9325.000000;0.923142
9324.000000;0.922718
9323.000000;0.922142
9322.000000;0.921206
9321.000000;0.919928
9320.000000;0.918626
9319.000000;0.917697
9318.000000;0.917377
9317.000000;0.917601
9316.000000;0.917990
9315.000000;0.918094
9314.000000;0.917788
9313.000000;0.917372
9312.000000;0.917202
9311.000000;0.917338
9310.000000;0.917643
9309.000000;0.918019
9308.000000;0.918348
9307.000000;0.918388
9306.000000;0.917988
9305.000000;0.917356
9304.000000;0.916835
9303.000000;0.916462
9302.000000;0.915986
9301.000000;0.915313
9300.000000;0.914674
9299.000000;0.914310
9298.000000;0.914175
9297.000000;0.914050
9296.000000;0.913760
9295.000000;0.913248
9294.000000;0.912596
9293.000000;0.912059
9292.000000;0.911916
9291.000000;0.912148
9290.000000;0.912362
9289.000000;0.912162
9288.000000;0.911569
9287.000000;0.910965
9286.000000;0.910661
9285.000000;0.910599
9284.000000;0.910462
9283.000000;0.910003
9282.000000;0.909254
9281.000000;0.908472
9280.000000;0.907939
9279.000000;0.907806
9278.000000;0.908056
9277.000000;0.908520
9276.000000;0.908902
9275.000000;0.908898
9274.000000;0.908423
9273.000000;0.907744
9272.000000;0.907292
9271.000000;0.907275
9270.000000;0.907481
9269.000000;0.907466
9268.000000;0.906974
9267.000000;0.906163
9266.000000;0.905426
9265.000000;0.904983
9264.000000;0.904696
9263.000000;0.904325
9262.000000;0.903865
9261.000000;0.903516
9260.000000;0.903319
9259.000000;0.903040
9258.000000;0.902511
9257.000000;0.901918
9256.000000;0.901582
9255.000000;0.901528
9254.000000;0.901497
9253.000000;0.901343
9252.000000;0.901189
9251.000000;0.901126
9250.000000;0.900994
9249.000000;0.900605
9248.000000;0.900037
9247.000000;0.899530
9246.000000;0.899179
9245.000000;0.898937
9244.000000;0.898859
9243.000000;0.899097
9242.000000;0.899555
9241.000000;0.899770
9240.000000;0.899349
9239.000000;0.898429
9238.000000;0.897523
9237.000000;0.896959
9236.000000;0.896665
9235.000000;0.896483
9234.000000;0.896430
9233.000000;0.896538
9232.000000;0.896644
9231.000000;0.896538
9230.000000;0.896212
9229.000000;0.895821
9228.000000;0.895443
9227.000000;0.895034
9226.000000;0.894548
9225.000000;0.893976
9224.000000;0.893279
9223.000000;0.892465
9222.000000;0.891704
9221.000000;0.891259
9220.000000;0.891258
9219.000000;0.891621
9218.000000;0.892150
9217.000000;0.892588
9216.000000;0.892680
9215.000000;0.892348
9214.000000;0.891810
9213.000000;0.891376
9212.000000;0.891126
9211.000000;0.890914
9210.000000;0.890640
9209.000000;0.890335
9208.000000;0.889992
9207.000000;0.889533
9206.000000;0.888969
9205.000000;0.888410
9204.000000;0.887890
9203.000000;0.887349
9202.000000;0.886835
9201.000000;0.886514
9200.000000;0.886406
9199.000000;0.886321
9198.000000;0.886148
9197.000000;0.886016
9196.000000;0.886039
9195.000000;0.886094
9194.000000;0.885999
9193.000000;0.885761
9192.000000;0.885483
9191.000000;0.885145
9190.000000;0.884653
9189.000000;0.884051
9188.000000;0.883522
9187.000000;0.883190
9186.000000;0.883024
9185.000000;0.882920
9184.000000;0.882799
9183.000000;0.882658
9182.000000;0.882546
9181.000000;0.882472
9180.000000;0.882357
9179.000000;0.882169
9178.000000;0.882059
9177.000000;0.882175
9176.000000;0.882301
9175.000000;0.881945
9174.000000;0.880938
9173.000000;0.879765
9172.000000;0.879110
9171.000000;0.879182
9170.000000;0.879600
9169.000000;0.879838
9168.000000;0.879644
9167.000000;0.879145
9166.000000;0.878710
9165.000000;0.878635
9164.000000;0.878818
9163.000000;0.878817
9162.000000;0.878344
9161.000000;0.877624
9160.000000;0.877092
9159.000000;0.876874
9158.000000;0.876758
9157.000000;0.876587
9156.000000;0.876429
9155.000000;0.876361
9154.000000;0.876322
9153.000000;0.876244
9152.000000;0.876160
9151.000000;0.876102
9150.000000;0.876008
9149.000000;0.875803
9148.000000;0.875470
9147.000000;0.874999
9146.000000;0.874375
9145.000000;0.873690
9144.000000;0.873174
9143.000000;0.873018
9142.000000;0.873164
9141.000000;0.873339
9140.000000;0.873282
9139.000000;0.872928
9138.000000;0.872383
9137.000000;0.871786
9136.000000;0.871229
9135.000000;0.870771
9134.000000;0.870452
9133.000000;0.870240
9132.000000;0.870041
9131.000000;0.869823
9130.000000;0.869671
9129.000000;0.869645
9128.000000;0.869631
9127.000000;0.869463
9126.000000;0.869158
9125.000000;0.868883
9124.000000;0.868697
9123.000000;0.868527
9122.000000;0.868401
9121.000000;0.868463
9120.000000;0.868661
9119.000000;0.868642
9118.000000;0.868140
9117.000000;0.867314
9116.000000;0.866556
9115.000000;0.866067
9114.000000;0.865812
9113.000000;0.865730
9112.000000;0.865786
9111.000000;0.865849
9110.000000;0.865743
9109.000000;0.865449
9108.000000;0.865118
9107.000000;0.864853
9106.000000;0.864602
9105.000000;0.864285
9104.000000;0.863939
9103.000000;0.863692
9102.000000;0.863633
9101.000000;0.863674
9100.000000;0.863557
9099.000000;0.863111
9098.000000;0.862516
9097.000000;0.862172
9096.000000;0.862205
9095.000000;0.862262
9094.000000;0.861958
9093.000000;0.861416
9092.000000;0.861100
9091.000000;0.861213
9090.000000;0.861484
9089.000000;0.861575
9088.000000;0.861458
9087.000000;0.861301
9086.000000;0.861194
9085.000000;0.861085
9084.000000;0.860878
9083.000000;0.860451
9082.000000;0.859693
9081.000000;0.858656
9080.000000;0.857649
9079.000000;0.857057
9078.000000;0.857041
9077.000000;0.857424
9076.000000;0.857850
9075.000000;0.858038
9074.000000;0.857899
9073.000000;0.857482
9072.000000;0.856875
9071.000000;0.856199
9070.000000;0.855637
9069.000000;0.855356
9068.000000;0.855370
9067.000000;0.855532
9066.000000;0.855695
9065.000000;0.855826
9064.000000;0.855921
9063.000000;0.855915
9062.000000;0.855759
9061.000000;0.855513
9060.000000;0.855271
9059.000000;0.855020
9058.000000;0.854685
9057.000000;0.854267
9056.000000;0.853849
9055.000000;0.853482
9054.000000;0.853171
9053.000000;0.852922
