Criado como novo conjunto de dados;"e2410_daniel_v2.spp","24123.0 Secs"
cm-1;Abs
10000.000000;0.603873
9999.000000;0.603304
9998.000000;0.602749
9997.000000;0.602082
9996.000000;0.601325
9995.000000;0.600545
9994.000000;0.599788
9993.000000;0.599198
9992.000000;0.598884
9991.000000;0.598738
9990.000000;0.598538
9989.000000;0.598242
9988.000000;0.597938
9987.000000;0.597584
9986.000000;0.597034
9985.000000;0.596331
9984.000000;0.595706
9983.000000;0.595240
9982.000000;0.594762
9981.000000;0.594142
9980.000000;0.593473
9979.000000;0.592886
9978.000000;0.592364
9977.000000;0.591855
9976.000000;0.591411
9975.000000;0.591121
9974.000000;0.590963
9973.000000;0.590780
9972.000000;0.590379
9971.000000;0.589680
9970.000000;0.588836
9969.000000;0.588194
9968.000000;0.588019
9967.000000;0.588233
9966.000000;0.588473
9965.000000;0.588391
9964.000000;0.587867
9963.000000;0.587000
9962.000000;0.586005
9961.000000;0.585071
9960.000000;0.584251
9959.000000;0.583506
9958.000000;0.582869
9957.000000;0.582444
9956.000000;0.582185
9955.000000;0.581834
9954.000000;0.581191
9953.000000;0.580355
9952.000000;0.579565
9951.000000;0.578917
9950.000000;0.578360
9949.000000;0.577865
9948.000000;0.577449
9947.000000;0.577097
9946.000000;0.576799
9945.000000;0.576588
9944.000000;0.576423
9943.000000;0.576130
9942.000000;0.575595
9941.000000;0.574952
9940.000000;0.574434
9939.000000;0.574090
9938.000000;0.573768
9937.000000;0.573304
9936.000000;0.572628
9935.000000;0.571804
9934.000000;0.571054
9933.000000;0.570649
9932.000000;0.570609
9931.000000;0.570617
9930.000000;0.570345
9929.000000;0.569805
9928.000000;0.569236
9927.000000;0.568762
9926.000000;0.568350
9925.000000;0.567981
9924.000000;0.567651
9923.000000;0.567221
9922.000000;0.566465
9921.000000;0.565343
9920.000000;0.564111
9919.000000;0.563137
9918.000000;0.562616
9917.000000;0.562428
9916.000000;0.562239
9915.000000;0.561796
9914.000000;0.561157
9913.000000;0.560555
9912.000000;0.560077
9911.000000;0.559604
9910.000000;0.559097
9909.000000;0.558715
9908.000000;0.558564
9907.000000;0.558509
9906.000000;0.558344
9905.000000;0.558013
9904.000000;0.557524
9903.000000;0.556844
9902.000000;0.556021
9901.000000;0.555258
9900.000000;0.554729
9899.000000;0.554402
9898.000000;0.554152
9897.000000;0.553871
9896.000000;0.553416
9895.000000;0.552664
9894.000000;0.551785
9893.000000;0.551221
9892.000000;0.551171
9891.000000;0.551276
9890.000000;0.551054
9889.000000;0.550468
9888.000000;0.549845
9887.000000;0.549358
9886.000000;0.548896
9885.000000;0.548358
9884.000000;0.547783
9883.000000;0.547232
9882.000000;0.546747
9881.000000;0.546386
9880.000000;0.546115
9879.000000;0.545722
9878.000000;0.545039
9877.000000;0.544203
9876.000000;0.543495
9875.000000;0.542980
9874.000000;0.542502
9873.000000;0.541960
9872.000000;0.541388
9871.000000;0.540793
9870.000000;0.540153
9869.000000;0.539573
9868.000000;0.539223
9867.000000;0.539083
9866.000000;0.538931
9865.000000;0.538594
9864.000000;0.538084
9863.000000;0.537479
9862.000000;0.536820
9861.000000;0.536168
9860.000000;0.535602
9859.000000;0.535116
9858.000000;0.534619
9857.000000;0.534062
9856.000000;0.533523
9855.000000;0.533116
9854.000000;0.532864
9853.000000;0.532661
9852.000000;0.532344
9851.000000;0.531853
9850.000000;0.531326
9849.000000;0.530931
9848.000000;0.530621
9847.000000;0.530163
9846.000000;0.529479
9845.000000;0.528788
9844.000000;0.528323
9843.000000;0.528033
9842.000000;0.527715
9841.000000;0.527297
9840.000000;0.526836
9839.000000;0.526325
9838.000000;0.525678
9837.000000;0.524873
9836.000000;0.524012
9835.000000;0.523242
9834.000000;0.522673
9833.000000;0.522315
9832.000000;0.522024
9831.000000;0.521606
9830.000000;0.521038
9829.000000;0.520495
9828.000000;0.520105
9827.000000;0.519804
9826.000000;0.519453
9825.000000;0.518982
9824.000000;0.518356
9823.000000;0.517577
9822.000000;0.516826
9821.000000;0.516397
9820.000000;0.516356
9819.000000;0.516403
9818.000000;0.516205
9817.000000;0.515722
9816.000000;0.515111
9815.000000;0.514480
9814.000000;0.513903
9813.000000;0.513485
9812.000000;0.513203
9811.000000;0.512828
9810.000000;0.512209
9809.000000;0.511540
9808.000000;0.511142
9807.000000;0.511050
9806.000000;0.510982
9805.000000;0.510664
9804.000000;0.510026
9803.000000;0.509182
9802.000000;0.508361
9801.000000;0.507787
9800.000000;0.507458
9799.000000;0.507121
9798.000000;0.506595
9797.000000;0.506031
9796.000000;0.505684
9795.000000;0.505556
9794.000000;0.505409
9793.000000;0.505067
9792.000000;0.504528
9791.000000;0.503868
9790.000000;0.503221
9789.000000;0.502748
9788.000000;0.502465
9787.000000;0.502149
9786.000000;0.501594
9785.000000;0.500906
9784.000000;0.500376
9783.000000;0.500115
9782.000000;0.499989
9781.000000;0.499844
9780.000000;0.499618
9779.000000;0.499248
9778.000000;0.498657
9777.000000;0.497847
9776.000000;0.496909
9775.000000;0.495946
9774.000000;0.495076
9773.000000;0.494431
9772.000000;0.494030
9771.000000;0.493697
9770.000000;0.493246
9769.000000;0.492704
9768.000000;0.492241
9767.000000;0.491927
9766.000000;0.491700
9765.000000;0.491508
9764.000000;0.491337
9763.000000;0.491114
9762.000000;0.490740
9761.000000;0.490212
9760.000000;0.489637
9759.000000;0.489113
9758.000000;0.488662
9757.000000;0.488250
9756.000000;0.487809
9755.000000;0.487286
9754.000000;0.486724
9753.000000;0.486248
9752.000000;0.485908
9751.000000;0.485605
9750.000000;0.485223
9749.000000;0.484761
9748.000000;0.484266
9747.000000;0.483741
9746.000000;0.483184
9745.000000;0.482635
9744.000000;0.482136
9743.000000;0.481696
9742.000000;0.481359
9741.000000;0.481163
9740.000000;0.481002
9739.000000;0.480675
9738.000000;0.480146
9737.000000;0.479593
9736.000000;0.479142
9735.000000;0.478698
9734.000000;0.478150
9733.000000;0.477574
9732.000000;0.477098
9731.000000;0.476722
9730.000000;0.476399
9729.000000;0.476137
9728.000000;0.475882
9727.000000;0.475450
9726.000000;0.474755
9725.000000;0.473955
9724.000000;0.473221
9723.000000;0.472516
9722.000000;0.471766
9721.000000;0.471096
9720.000000;0.470670
9719.000000;0.470422
9718.000000;0.470170
9717.000000;0.469893
9716.000000;0.469681
9715.000000;0.469501
9714.000000;0.469238
9713.000000;0.468914
9712.000000;0.468631
9711.000000;0.468338
9710.000000;0.467876
9709.000000;0.467245
9708.000000;0.466625
9707.000000;0.466109
9706.000000;0.465631
9705.000000;0.465156
9704.000000;0.464755
9703.000000;0.464451
9702.000000;0.464134
9701.000000;0.463700
9700.000000;0.463175
9699.000000;0.462647
9698.000000;0.462148
9697.000000;0.461628
9696.000000;0.461025
9695.000000;0.460369
9694.000000;0.459807
9693.000000;0.459453
9692.000000;0.459175
9691.000000;0.458676
9690.000000;0.457883
9689.000000;0.457115
9688.000000;0.456716
9687.000000;0.456611
9686.000000;0.456426
9685.000000;0.455972
9684.000000;0.455414
9683.000000;0.454970
9682.000000;0.454648
9681.000000;0.454309
9680.000000;0.453868
9679.000000;0.453351
9678.000000;0.452861
9677.000000;0.452506
9676.000000;0.452319
9675.000000;0.452200
9674.000000;0.451990
9673.000000;0.451607
9672.000000;0.451094
9671.000000;0.450548
9670.000000;0.450048
9669.000000;0.449607
9668.000000;0.449153
9667.000000;0.448570
9666.000000;0.447826
9665.000000;0.447043
9664.000000;0.446421
9663.000000;0.446107
9662.000000;0.446097
9661.000000;0.446201
9660.000000;0.446123
9659.000000;0.445662
9658.000000;0.444871
9657.000000;0.443962
9656.000000;0.443095
9655.000000;0.442346
9654.000000;0.441818
9653.000000;0.441596
9652.000000;0.441562
9651.000000;0.441444
9650.000000;0.441116
9649.000000;0.440700
9648.000000;0.440302
9647.000000;0.439849
9646.000000;0.439265
9645.000000;0.438666
9644.000000;0.438224
9643.000000;0.437963
9642.000000;0.437785
9641.000000;0.437603
9640.000000;0.437361
9639.000000;0.437028
9638.000000;0.436678
9637.000000;0.436443
9636.000000;0.436324
9635.000000;0.436143
9634.000000;0.435765
9633.000000;0.435233
9632.000000;0.434619
9631.000000;0.433911
9630.000000;0.433158
9629.000000;0.432559
9628.000000;0.432240
9627.000000;0.432042
9626.000000;0.431693
9625.000000;0.431124
9624.000000;0.430496
9623.000000;0.430001
9622.000000;0.429725
9621.000000;0.429609
9620.000000;0.429451
9619.000000;0.429039
9618.000000;0.428387
9617.000000;0.427744
9616.000000;0.427279
9615.000000;0.426887
9614.000000;0.426406
9613.000000;0.425886
9612.000000;0.425481
9611.000000;0.425195
9610.000000;0.424889
9609.000000;0.424480
9608.000000;0.423994
9607.000000;0.423482
9606.000000;0.423001
9605.000000;0.422636
9604.000000;0.422395
9603.000000;0.422132
9602.000000;0.421672
9601.000000;0.421010
9600.000000;0.420305
9599.000000;0.419728
9598.000000;0.419361
9597.000000;0.419165
9596.000000;0.419013
9595.000000;0.418796
9594.000000;0.418532
9593.000000;0.418281
9592.000000;0.417970
9591.000000;0.417453
9590.000000;0.416767
9589.000000;0.416169
9588.000000;0.415851
9587.000000;0.415768
9586.000000;0.415785
9585.000000;0.415810
9584.000000;0.415698
9583.000000;0.415243
9582.000000;0.414423
9581.000000;0.413497
9580.000000;0.412721
9579.000000;0.412093
9578.000000;0.411514
9577.000000;0.411007
9576.000000;0.410635
9575.000000;0.410335
9574.000000;0.410019
9573.000000;0.409717
9572.000000;0.409453
9571.000000;0.409092
9570.000000;0.408473
9569.000000;0.407645
9568.000000;0.406827
9567.000000;0.406203
9566.000000;0.405831
9565.000000;0.405663
9564.000000;0.405514
9563.000000;0.405156
9562.000000;0.404571
9561.000000;0.404006
9560.000000;0.403675
9559.000000;0.403513
9558.000000;0.403332
9557.000000;0.403061
9556.000000;0.402707
9555.000000;0.402225
9554.000000;0.401643
9553.000000;0.401162
9552.000000;0.400943
9551.000000;0.400866
9550.000000;0.400677
9549.000000;0.400316
9548.000000;0.399923
9547.000000;0.399601
9546.000000;0.399334
9545.000000;0.399088
9544.000000;0.398814
9543.000000;0.398415
9542.000000;0.397847
9541.000000;0.397232
9540.000000;0.396745
9539.000000;0.396415
9538.000000;0.396162
9537.000000;0.395935
9536.000000;0.395700
9535.000000;0.395386
9534.000000;0.394961
9533.000000;0.394513
9532.000000;0.394126
9531.000000;0.393738
9530.000000;0.393262
9529.000000;0.392763
9528.000000;0.392379
9527.000000;0.392133
9526.000000;0.391932
9525.000000;0.391689
9524.000000;0.391334
9523.000000;0.390789
9522.000000;0.390091
9521.000000;0.389460
9520.000000;0.389101
9519.000000;0.388959
9518.000000;0.388812
9517.000000;0.388546
9516.000000;0.388234
9515.000000;0.387958
9514.000000;0.387700
9513.000000;0.387387
9512.000000;0.386969
9511.000000;0.386482
9510.000000;0.386056
9509.000000;0.385793
9508.000000;0.385590
9507.000000;0.385207
9506.000000;0.384575
9505.000000;0.383914
9504.000000;0.383424
9503.000000;0.383037
9502.000000;0.382585
9501.000000;0.382089
9500.000000;0.381682
9499.000000;0.381350
9498.000000;0.380972
9497.000000;0.380545
9496.000000;0.380186
9495.000000;0.379928
9494.000000;0.379675
9493.000000;0.379367
9492.000000;0.379031
9491.000000;0.378683
9490.000000;0.378304
9489.000000;0.377894
9488.000000;0.377473
9487.000000;0.377027
9486.000000;0.376553
9485.000000;0.376106
9484.000000;0.375745
9483.000000;0.375450
9482.000000;0.375175
9481.000000;0.374923
9480.000000;0.374699
9479.000000;0.374468
9478.000000;0.374223
9477.000000;0.374007
9476.000000;0.373791
9475.000000;0.373444
9474.000000;0.372920
9473.000000;0.372377
9472.000000;0.371986
9471.000000;0.371710
9470.000000;0.371390
9469.000000;0.370973
9468.000000;0.370503
9467.000000;0.370002
9466.000000;0.369502
9465.000000;0.369138
9464.000000;0.369018
9463.000000;0.369023
9462.000000;0.368873
9461.000000;0.368392
9460.000000;0.367645
9459.000000;0.366852
9458.000000;0.366247
9457.000000;0.365950
9456.000000;0.365851
9455.000000;0.365672
9454.000000;0.365244
9453.000000;0.364690
9452.000000;0.364233
9451.000000;0.363922
9450.000000;0.363657
9449.000000;0.363403
9448.000000;0.363199
9447.000000;0.363015
9446.000000;0.362746
9445.000000;0.362353
9444.000000;0.361889
9443.000000;0.361418
9442.000000;0.361001
9441.000000;0.360740
9440.000000;0.360687
9439.000000;0.360707
9438.000000;0.360559
9437.000000;0.360162
9436.000000;0.359680
9435.000000;0.359318
9434.000000;0.359080
9433.000000;0.358761
9432.000000;0.358171
9431.000000;0.357370
9430.000000;0.356650
9429.000000;0.356274
9428.000000;0.356227
9427.000000;0.356259
9426.000000;0.356161
9425.000000;0.355897
9424.000000;0.355512
9423.000000;0.355045
9422.000000;0.354582
9421.000000;0.354243
9420.000000;0.354024
9419.000000;0.353758
9418.000000;0.353308
9417.000000;0.352711
9416.000000;0.352097
9415.000000;0.351573
9414.000000;0.351249
9413.000000;0.351204
9412.000000;0.351328
9411.000000;0.351310
9410.000000;0.350915
9409.000000;0.350219
9408.000000;0.349479
9407.000000;0.348884
9406.000000;0.348499
9405.000000;0.348315
9404.000000;0.348230
9403.000000;0.348074
9402.000000;0.347763
9401.000000;0.347372
9400.000000;0.346988
9399.000000;0.346606
9398.000000;0.346241
9397.000000;0.346006
9396.000000;0.345941
9395.000000;0.345880
9394.000000;0.345638
9393.000000;0.345234
9392.000000;0.344822
9391.000000;0.344469
9390.000000;0.344149
9389.000000;0.343849
9388.000000;0.343562
9387.000000;0.343226
9386.000000;0.342802
9385.000000;0.342356
9384.000000;0.341965
9383.000000;0.341602
9382.000000;0.341223
9381.000000;0.340858
9380.000000;0.340517
9379.000000;0.340096
9378.000000;0.339523
9377.000000;0.338927
9376.000000;0.338518
9375.000000;0.338354
9374.000000;0.338337
9373.000000;0.338369
9372.000000;0.338371
9371.000000;0.338204
9370.000000;0.337753
9369.000000;0.337079
9368.000000;0.336397
9367.000000;0.335887
9366.000000;0.335588
9365.000000;0.335426
9364.000000;0.335267
9363.000000;0.334992
9362.000000;0.334621
9361.000000;0.334323
9360.000000;0.334207
9359.000000;0.334163
9358.000000;0.334001
9357.000000;0.333683
9356.000000;0.333339
9355.000000;0.333073
9354.000000;0.332877
9353.000000;0.332673
9352.000000;0.332375
9351.000000;0.331940
9350.000000;0.331431
9349.000000;0.330980
9348.000000;0.330649
9347.000000;0.330369
9346.000000;0.330080
9345.000000;0.329836
9344.000000;0.329693
9343.000000;0.329578
9342.000000;0.329360
9341.000000;0.329000
9340.000000;0.328545
9339.000000;0.328057
9338.000000;0.327615
9337.000000;0.327311
9336.000000;0.327129
9335.000000;0.326937
9334.000000;0.326671
9333.000000;0.326443
9332.000000;0.326356
9331.000000;0.326288
9330.000000;0.326005
9329.000000;0.325449
9328.000000;0.324801
9327.000000;0.324268
9326.000000;0.323916
9325.000000;0.323673
9324.000000;0.323414
9323.000000;0.323043
9322.000000;0.322564
9321.000000;0.322075
9320.000000;0.321673
9319.000000;0.321398
9318.000000;0.321253
9317.000000;0.321205
9316.000000;0.321121
9315.000000;0.320840
9314.000000;0.320368
9313.000000;0.319916
9312.000000;0.319672
9311.000000;0.319622
9310.000000;0.319625
9309.000000;0.319554
9308.000000;0.319304
9307.000000;0.318813
9306.000000;0.318182
9305.000000;0.317666
9304.000000;0.317413
9303.000000;0.317291
9302.000000;0.317079
9301.000000;0.316737
9300.000000;0.316374
9299.000000;0.316040
9298.000000;0.315692
9297.000000;0.315315
9296.000000;0.314960
9295.000000;0.314660
9294.000000;0.314411
9293.000000;0.314207
9292.000000;0.314045
9291.000000;0.313906
9290.000000;0.313777
9289.000000;0.313636
9288.000000;0.313425
9287.000000;0.313120
9286.000000;0.312837
9285.000000;0.312736
9284.000000;0.312764
9283.000000;0.312634
9282.000000;0.312148
9281.000000;0.311427
9280.000000;0.310747
9279.000000;0.310267
9278.000000;0.310000
9277.000000;0.309883
9276.000000;0.309779
9275.000000;0.309509
9274.000000;0.309042
9273.000000;0.308543
9272.000000;0.308149
9271.000000;0.307802
9270.000000;0.307411
9269.000000;0.307055
9268.000000;0.306864
9267.000000;0.306814
9266.000000;0.306772
9265.000000;0.306691
9264.000000;0.306605
9263.000000;0.306514
9262.000000;0.306400
9261.000000;0.306288
9260.000000;0.306161
9259.000000;0.305894
9258.000000;0.305390
9257.000000;0.304762
9256.000000;0.304244
9255.000000;0.303979
9254.000000;0.303963
9253.000000;0.304107
9252.000000;0.304240
9251.000000;0.304144
9250.000000;0.303731
9249.000000;0.303161
9248.000000;0.302665
9247.000000;0.302332
9246.000000;0.302115
9245.000000;0.301977
9244.000000;0.301868
9243.000000;0.301661
9242.000000;0.301242
9241.000000;0.300668
9240.000000;0.300105
9239.000000;0.299665
9238.000000;0.299375
9237.000000;0.299232
9236.000000;0.299170
9235.000000;0.299045
9234.000000;0.298779
9233.000000;0.298475
9232.000000;0.298266
9231.000000;0.298113
9230.000000;0.297872
9229.000000;0.297494
9228.000000;0.297055
9227.000000;0.296615
9226.000000;0.296211
9225.000000;0.295939
9224.000000;0.295889
9223.000000;0.295991
9222.000000;0.296038
9221.000000;0.295885
9220.000000;0.295556
9219.000000;0.295176
9218.000000;0.294860
9217.000000;0.294660
9216.000000;0.294536
9215.000000;0.294374
9214.000000;0.294091
9213.000000;0.293708
9212.000000;0.293296
9211.000000;0.292897
9210.000000;0.292543
9209.000000;0.292271
9208.000000;0.292070
9207.000000;0.291862
9206.000000;0.291606
9205.000000;0.291360
9204.000000;0.291185
9203.000000;0.291043
9202.000000;0.290869
9201.000000;0.290662
9200.000000;0.290429
9199.000000;0.290119
9198.000000;0.289708
9197.000000;0.289288
9196.000000;0.288969
9195.000000;0.288731
9194.000000;0.288464
9193.000000;0.288132
9192.000000;0.287803
9191.000000;0.287558
9190.000000;0.287413
9189.000000;0.287313
9188.000000;0.287146
9187.000000;0.286828
9186.000000;0.286405
9185.000000;0.286028
9184.000000;0.285809
9183.000000;0.285743
9182.000000;0.285782
9181.000000;0.285872
9180.000000;0.285891
9179.000000;0.285681
9178.000000;0.285239
9177.000000;0.284777
9176.000000;0.284502
9175.000000;0.284423
9174.000000;0.284411
9173.000000;0.284370
9172.000000;0.284253
9171.000000;0.284029
9170.000000;0.283712
9169.000000;0.283359
9168.000000;0.282981
9167.000000;0.282536
9166.000000;0.282064
9165.000000;0.281705
9164.000000;0.281498
9163.000000;0.281306
9162.000000;0.281013
9161.000000;0.280695
9160.000000;0.280480
9159.000000;0.280332
9158.000000;0.280121
9157.000000;0.279816
9156.000000;0.279501
9155.000000;0.279251
9154.000000;0.279095
9153.000000;0.279012
9152.000000;0.278911
9151.000000;0.278690
9150.000000;0.278401
9149.000000;0.278223
9148.000000;0.278203
9147.000000;0.278139
9146.000000;0.277868
9145.000000;0.277503
9144.000000;0.277258
9143.000000;0.277131
9142.000000;0.276967
9141.000000;0.276728
9140.000000;0.276519
9139.000000;0.276369
9138.000000;0.276184
9137.000000;0.275906
9136.000000;0.275582
9135.000000;0.275270
9134.000000;0.274988
9133.000000;0.274754
9132.000000;0.274559
9131.000000;0.274329
9130.000000;0.273993
9129.000000;0.273590
9128.000000;0.273223
9127.000000;0.272952
9126.000000;0.272785
9125.000000;0.272714
9124.000000;0.272694
9123.000000;0.272625
9122.000000;0.272464
9121.000000;0.272292
9120.000000;0.272192
9119.000000;0.272113
9118.000000;0.271939
9117.000000;0.271642
9116.000000;0.271277
9115.000000;0.270898
9114.000000;0.270552
9113.000000;0.270297
9112.000000;0.270119
9111.000000;0.269902
9110.000000;0.269587
9109.000000;0.269295
9108.000000;0.269173
9107.000000;0.269188
9106.000000;0.269169
9105.000000;0.269017
9104.000000;0.268754
9103.000000;0.268425
9102.000000;0.268072
9101.000000;0.267794
9100.000000;0.267682
9099.000000;0.267700
9098.000000;0.267698
9097.000000;0.267561
9096.000000;0.267284
9095.000000;0.266941
9094.000000;0.266636
9093.000000;0.266462
9092.000000;0.266410
9091.000000;0.266348
9090.000000;0.266147
9089.000000;0.265810
9088.000000;0.265445
9087.000000;0.265157
9086.000000;0.264998
9085.000000;0.264966
9084.000000;0.264966
9083.000000;0.264833
9082.000000;0.264488
9081.000000;0.264033
9080.000000;0.263655
9079.000000;0.263458
9078.000000;0.263419
9077.000000;0.263440
9076.000000;0.263393
9075.000000;0.263201
9074.000000;0.262938
9073.000000;0.262774
9072.000000;0.262765
9071.000000;0.262775
9070.000000;0.262657
9069.000000;0.262403
9068.000000;0.262069
9067.000000;0.261656
9066.000000;0.261182
9065.000000;0.260759
9064.000000;0.260486
9063.000000;0.260312
9062.000000;0.260122
9061.000000;0.259889
9060.000000;0.259654
9059.000000;0.259424
9058.000000;0.259183
9057.000000;0.258963
9056.000000;0.258793
9055.000000;0.258637
9054.000000;0.258469
9053.000000;0.258345
