Criado como novo conjunto de dados;"e2410_daniel_v2.spp","73085.4 Secs"
cm-1;Abs
10000.000000;1.378797
9999.000000;1.377297
9998.000000;1.376464
9997.000000;1.376432
9996.000000;1.376757
9995.000000;1.377074
9994.000000;1.377405
9993.000000;1.378119
9992.000000;1.379198
9991.000000;1.379865
9990.000000;1.379196
9989.000000;1.377206
9988.000000;1.374940
9987.000000;1.373416
9986.000000;1.372681
9985.000000;1.371991
9984.000000;1.370745
9983.000000;1.369140
9982.000000;1.367991
9981.000000;1.368000
9980.000000;1.369128
9979.000000;1.370599
9978.000000;1.371476
9977.000000;1.371261
9976.000000;1.370053
9975.000000;1.368327
9974.000000;1.366622
9973.000000;1.365265
9972.000000;1.364231
9971.000000;1.363287
9970.000000;1.362341
9969.000000;1.361551
9968.000000;1.360997
9967.000000;1.360505
9966.000000;1.359979
9965.000000;1.359661
9964.000000;1.359711
9963.000000;1.359716
9962.000000;1.359124
9961.000000;1.358166
9960.000000;1.357770
9959.000000;1.358331
9958.000000;1.358985
9957.000000;1.358503
9956.000000;1.356704
9955.000000;1.354579
9954.000000;1.353143
9953.000000;1.352603
9952.000000;1.352598
9951.000000;1.352853
9950.000000;1.353361
9949.000000;1.354107
9948.000000;1.354860
9947.000000;1.355240
9946.000000;1.354977
9945.000000;1.354111
9944.000000;1.352977
9943.000000;1.351963
9942.000000;1.351278
9941.000000;1.350918
9940.000000;1.350714
9939.000000;1.350348
9938.000000;1.349472
9937.000000;1.348077
9936.000000;1.346666
9935.000000;1.345810
9934.000000;1.345521
9933.000000;1.345307
9932.000000;1.344886
9931.000000;1.344575
9930.000000;1.344814
9929.000000;1.345534
9928.000000;1.346205
9927.000000;1.346349
9926.000000;1.345745
9925.000000;1.344321
9924.000000;1.342253
9923.000000;1.340193
9922.000000;1.338977
9921.000000;1.338865
9920.000000;1.339193
9919.000000;1.339008
9918.000000;1.338029
9917.000000;1.336848
9916.000000;1.336251
9915.000000;1.336505
9914.000000;1.337252
9913.000000;1.337900
9912.000000;1.338023
9911.000000;1.337467
9910.000000;1.336250
9909.000000;1.334537
9908.000000;1.332702
9907.000000;1.331248
9906.000000;1.330463
9905.000000;1.330162
9904.000000;1.329875
9903.000000;1.329334
9902.000000;1.328693
9901.000000;1.328233
9900.000000;1.328002
9899.000000;1.327867
9898.000000;1.327789
9897.000000;1.327880
9896.000000;1.328182
9895.000000;1.328537
9894.000000;1.328700
9893.000000;1.328480
9892.000000;1.327829
9891.000000;1.326907
9890.000000;1.326034
9889.000000;1.325458
9888.000000;1.325094
9887.000000;1.324535
9886.000000;1.323427
9885.000000;1.321804
9884.000000;1.320117
9883.000000;1.318957
9882.000000;1.318679
9881.000000;1.319117
9880.000000;1.319623
9879.000000;1.319536
9878.000000;1.318761
9877.000000;1.317835
9876.000000;1.317351
9875.000000;1.317337
9874.000000;1.317267
9873.000000;1.316604
9872.000000;1.315278
9871.000000;1.313754
9870.000000;1.312723
9869.000000;1.312648
9868.000000;1.313357
9867.000000;1.314075
9866.000000;1.314035
9865.000000;1.313163
9864.000000;1.312072
9863.000000;1.311346
9862.000000;1.311011
9861.000000;1.310758
9860.000000;1.310505
9859.000000;1.310458
9858.000000;1.310686
9857.000000;1.310859
9856.000000;1.310533
9855.000000;1.309606
9854.000000;1.308394
9853.000000;1.307307
9852.000000;1.306458
9851.000000;1.305636
9850.000000;1.304644
9849.000000;1.303665
9848.000000;1.303140
9847.000000;1.303217
9846.000000;1.303453
9845.000000;1.303253
9844.000000;1.302490
9843.000000;1.301505
9842.000000;1.300552
9841.000000;1.299537
9840.000000;1.298390
9839.000000;1.297426
9838.000000;1.297146
9837.000000;1.297709
9836.000000;1.298719
9835.000000;1.299514
9834.000000;1.299653
9833.000000;1.299163
9832.000000;1.298398
9831.000000;1.297690
9830.000000;1.297175
9829.000000;1.296874
9828.000000;1.296753
9827.000000;1.296595
9826.000000;1.296028
9825.000000;1.294922
9824.000000;1.293635
9823.000000;1.292611
9822.000000;1.291828
9821.000000;1.290950
9820.000000;1.290036
9819.000000;1.289665
9818.000000;1.290165
9817.000000;1.291011
9816.000000;1.291248
9815.000000;1.290409
9814.000000;1.288830
9813.000000;1.287232
9812.000000;1.286177
9811.000000;1.285782
9810.000000;1.285704
9809.000000;1.285428
9808.000000;1.284726
9807.000000;1.283826
9806.000000;1.283097
9805.000000;1.282746
9804.000000;1.282831
9803.000000;1.283261
9802.000000;1.283595
9801.000000;1.283181
9800.000000;1.281829
9799.000000;1.280187
9798.000000;1.279107
9797.000000;1.278768
9796.000000;1.278691
9795.000000;1.278482
9794.000000;1.278205
9793.000000;1.278057
9792.000000;1.278050
9791.000000;1.278081
9790.000000;1.278056
9789.000000;1.277870
9788.000000;1.277435
9787.000000;1.276765
9786.000000;1.275913
9785.000000;1.274877
9784.000000;1.273745
9783.000000;1.272798
9782.000000;1.272214
9781.000000;1.271773
9780.000000;1.271166
9779.000000;1.270542
9778.000000;1.270387
9777.000000;1.270785
9776.000000;1.271166
9775.000000;1.270960
9774.000000;1.270253
9773.000000;1.269601
9772.000000;1.269362
9771.000000;1.269355
9770.000000;1.269069
9769.000000;1.268204
9768.000000;1.267102
9767.000000;1.266545
9766.000000;1.266879
9765.000000;1.267412
9764.000000;1.267023
9763.000000;1.265455
9762.000000;1.263625
9761.000000;1.262561
9760.000000;1.262431
9759.000000;1.262714
9758.000000;1.262876
9757.000000;1.262579
9756.000000;1.261636
9755.000000;1.260207
9754.000000;1.258819
9753.000000;1.257821
9752.000000;1.257001
9751.000000;1.256071
9750.000000;1.255315
9749.000000;1.255301
9748.000000;1.256022
9747.000000;1.256765
9746.000000;1.256897
9745.000000;1.256388
9744.000000;1.255472
9743.000000;1.254263
9742.000000;1.252962
9741.000000;1.252083
9740.000000;1.252043
9739.000000;1.252602
9738.000000;1.252995
9737.000000;1.252659
9736.000000;1.251680
9735.000000;1.250530
9734.000000;1.249603
9733.000000;1.249055
9732.000000;1.248879
9731.000000;1.248928
9730.000000;1.248909
9729.000000;1.248541
9728.000000;1.247794
9727.000000;1.246903
9726.000000;1.246103
9725.000000;1.245363
9724.000000;1.244435
9723.000000;1.243186
9722.000000;1.241879
9721.000000;1.241100
9720.000000;1.241279
9719.000000;1.242200
9718.000000;1.243053
9717.000000;1.243128
9716.000000;1.242485
9715.000000;1.241794
9714.000000;1.241535
9713.000000;1.241528
9712.000000;1.241290
9711.000000;1.240634
9710.000000;1.239785
9709.000000;1.239093
9708.000000;1.238815
9707.000000;1.239042
9706.000000;1.239584
9705.000000;1.239976
9704.000000;1.239814
9703.000000;1.239110
9702.000000;1.238151
9701.000000;1.237085
9700.000000;1.235847
9699.000000;1.234464
9698.000000;1.233199
9697.000000;1.232324
9696.000000;1.231910
9695.000000;1.231853
9694.000000;1.231920
9693.000000;1.231775
9692.000000;1.231198
9691.000000;1.230383
9690.000000;1.229831
9689.000000;1.229827
9688.000000;1.230102
9687.000000;1.230122
9686.000000;1.229639
9685.000000;1.228925
9684.000000;1.228460
9683.000000;1.228452
9682.000000;1.228623
9681.000000;1.228500
9680.000000;1.227920
9679.000000;1.227164
9678.000000;1.226539
9677.000000;1.226038
9676.000000;1.225558
9675.000000;1.225212
9674.000000;1.225094
9673.000000;1.224854
9672.000000;1.223982
9671.000000;1.222562
9670.000000;1.221368
9669.000000;1.221035
9668.000000;1.221384
9667.000000;1.221740
9666.000000;1.221673
9665.000000;1.221204
9664.000000;1.220508
9663.000000;1.219695
9662.000000;1.218820
9661.000000;1.217908
9660.000000;1.216988
9659.000000;1.216164
9658.000000;1.215539
9657.000000;1.215025
9656.000000;1.214398
9655.000000;1.213668
9654.000000;1.213211
9653.000000;1.213316
9652.000000;1.213723
9651.000000;1.213807
9650.000000;1.213197
9649.000000;1.212065
9648.000000;1.210898
9647.000000;1.210167
9646.000000;1.210124
9645.000000;1.210644
9644.000000;1.211196
9643.000000;1.211166
9642.000000;1.210335
9641.000000;1.209016
9640.000000;1.207685
9639.000000;1.206595
9638.000000;1.205718
9637.000000;1.204945
9636.000000;1.204243
9635.000000;1.203662
9634.000000;1.203295
9633.000000;1.203238
9632.000000;1.203502
9631.000000;1.203906
9630.000000;1.204135
9629.000000;1.204020
9628.000000;1.203728
9627.000000;1.203529
9626.000000;1.203367
9625.000000;1.202862
9624.000000;1.201804
9623.000000;1.200442
9622.000000;1.199106
9621.000000;1.197811
9620.000000;1.196521
9619.000000;1.195608
9618.000000;1.195596
9617.000000;1.196398
9616.000000;1.197178
9615.000000;1.197153
9614.000000;1.196328
9613.000000;1.195314
9612.000000;1.194673
9611.000000;1.194590
9610.000000;1.194921
9609.000000;1.195317
9608.000000;1.195433
9607.000000;1.195227
9606.000000;1.194932
9605.000000;1.194635
9604.000000;1.194092
9603.000000;1.193147
9602.000000;1.192118
9601.000000;1.191461
9600.000000;1.191159
9599.000000;1.190766
9598.000000;1.190027
9597.000000;1.189143
9596.000000;1.188369
9595.000000;1.187635
9594.000000;1.186760
9593.000000;1.185863
9592.000000;1.185330
9591.000000;1.185385
9590.000000;1.185871
9589.000000;1.186464
9588.000000;1.186934
9587.000000;1.187103
9586.000000;1.186715
9585.000000;1.185628
9584.000000;1.184146
9583.000000;1.182935
9582.000000;1.182436
9581.000000;1.182463
9580.000000;1.182481
9579.000000;1.182198
9578.000000;1.181729
9577.000000;1.181308
9576.000000;1.181027
9575.000000;1.180840
9574.000000;1.180641
9573.000000;1.180311
9572.000000;1.179840
9571.000000;1.179361
9570.000000;1.178949
9569.000000;1.178442
9568.000000;1.177670
9567.000000;1.176795
9566.000000;1.176183
9565.000000;1.175929
9564.000000;1.175756
9563.000000;1.175367
9562.000000;1.174685
9561.000000;1.173725
9560.000000;1.172548
9559.000000;1.171465
9558.000000;1.170969
9557.000000;1.171242
9556.000000;1.171899
9555.000000;1.172354
9554.000000;1.172317
9553.000000;1.171836
9552.000000;1.171073
9551.000000;1.170237
9550.000000;1.169569
9549.000000;1.169177
9548.000000;1.168969
9547.000000;1.168864
9546.000000;1.168934
9545.000000;1.169210
9544.000000;1.169474
9543.000000;1.169379
9542.000000;1.168733
9541.000000;1.167580
9540.000000;1.166148
9539.000000;1.164828
9538.000000;1.164023
9537.000000;1.163803
9536.000000;1.163773
9535.000000;1.163429
9534.000000;1.162632
9533.000000;1.161690
9532.000000;1.161029
9531.000000;1.160844
9530.000000;1.160936
9529.000000;1.160823
9528.000000;1.160195
9527.000000;1.159348
9526.000000;1.158971
9525.000000;1.159335
9524.000000;1.159901
9523.000000;1.159924
9522.000000;1.159296
9521.000000;1.158525
9520.000000;1.158009
9519.000000;1.157668
9518.000000;1.157252
9517.000000;1.156723
9516.000000;1.156253
9515.000000;1.156021
9514.000000;1.156065
9513.000000;1.156174
9512.000000;1.155923
9511.000000;1.154984
9510.000000;1.153461
9509.000000;1.151852
9508.000000;1.150679
9507.000000;1.150184
9506.000000;1.150291
9505.000000;1.150727
9504.000000;1.151192
9503.000000;1.151522
9502.000000;1.151685
9501.000000;1.151614
9500.000000;1.151175
9499.000000;1.150406
9498.000000;1.149683
9497.000000;1.149462
9496.000000;1.149851
9495.000000;1.150526
9494.000000;1.151031
9493.000000;1.151060
9492.000000;1.150517
9491.000000;1.149522
9490.000000;1.148409
9489.000000;1.147573
9488.000000;1.147176
9487.000000;1.147019
9486.000000;1.146711
9485.000000;1.145962
9484.000000;1.144770
9483.000000;1.143431
9482.000000;1.142363
9481.000000;1.141859
9480.000000;1.141959
9479.000000;1.142513
9478.000000;1.143229
9477.000000;1.143679
9476.000000;1.143461
9475.000000;1.142539
9474.000000;1.141324
9473.000000;1.140262
9472.000000;1.139427
9471.000000;1.138671
9470.000000;1.138049
9469.000000;1.137794
9468.000000;1.137895
9467.000000;1.137984
9466.000000;1.137764
9465.000000;1.137379
9464.000000;1.137191
9463.000000;1.137325
9462.000000;1.137538
9461.000000;1.137480
9460.000000;1.136976
9459.000000;1.136143
9458.000000;1.135276
9457.000000;1.134603
9456.000000;1.134075
9455.000000;1.133469
9454.000000;1.132723
9453.000000;1.132053
9452.000000;1.131669
9451.000000;1.131497
9450.000000;1.131356
9449.000000;1.131332
9448.000000;1.131714
9447.000000;1.132473
9446.000000;1.132995
9445.000000;1.132564
9444.000000;1.131108
9443.000000;1.129347
9442.000000;1.128131
9441.000000;1.127743
9440.000000;1.127820
9439.000000;1.127807
9438.000000;1.127426
9437.000000;1.126852
9436.000000;1.126543
9435.000000;1.126817
9434.000000;1.127455
9433.000000;1.127745
9432.000000;1.127095
9431.000000;1.125654
9430.000000;1.124228
9429.000000;1.123554
9428.000000;1.123735
9427.000000;1.124303
9426.000000;1.124656
9425.000000;1.124412
9424.000000;1.123523
9423.000000;1.122213
9422.000000;1.120798
9421.000000;1.119516
9420.000000;1.118567
9419.000000;1.118242
9418.000000;1.118774
9417.000000;1.119928
9416.000000;1.120924
9415.000000;1.121062
9414.000000;1.120391
9413.000000;1.119551
9412.000000;1.118992
9411.000000;1.118581
9410.000000;1.118026
9409.000000;1.117365
9408.000000;1.116850
9407.000000;1.116524
9406.000000;1.116229
9405.000000;1.115978
9404.000000;1.116032
9403.000000;1.116492
9402.000000;1.117016
9401.000000;1.117134
9400.000000;1.116752
9399.000000;1.116162
9398.000000;1.115583
9397.000000;1.114907
9396.000000;1.113962
9395.000000;1.112876
9394.000000;1.112020
9393.000000;1.111633
9392.000000;1.111597
9391.000000;1.111591
9390.000000;1.111392
9389.000000;1.111066
9388.000000;1.110871
9387.000000;1.110960
9386.000000;1.111130
9385.000000;1.110949
9384.000000;1.110182
9383.000000;1.109082
9382.000000;1.108183
9381.000000;1.107841
9380.000000;1.108013
9379.000000;1.108366
9378.000000;1.108498
9377.000000;1.108125
9376.000000;1.107239
9375.000000;1.106148
9374.000000;1.105263
9373.000000;1.104801
9372.000000;1.104721
9371.000000;1.104897
9370.000000;1.105234
9369.000000;1.105595
9368.000000;1.105733
9367.000000;1.105433
9366.000000;1.104726
9365.000000;1.103915
9364.000000;1.103294
9363.000000;1.102819
9362.000000;1.102144
9361.000000;1.101091
9360.000000;1.100075
9359.000000;1.099849
9358.000000;1.100720
9357.000000;1.102124
9356.000000;1.103062
9355.000000;1.102930
9354.000000;1.101831
9353.000000;1.100308
9352.000000;1.098984
9351.000000;1.098313
9350.000000;1.098336
9349.000000;1.098601
9348.000000;1.098563
9347.000000;1.098126
9346.000000;1.097627
9345.000000;1.097297
9344.000000;1.096989
9343.000000;1.096516
9342.000000;1.095970
9341.000000;1.095568
9340.000000;1.095374
9339.000000;1.095321
9338.000000;1.095340
9337.000000;1.095276
9336.000000;1.094853
9335.000000;1.093997
9334.000000;1.093118
9333.000000;1.092783
9332.000000;1.093077
9331.000000;1.093485
9330.000000;1.093477
9329.000000;1.093036
9328.000000;1.092474
9327.000000;1.091933
9326.000000;1.091303
9325.000000;1.090573
9324.000000;1.089989
9323.000000;1.089710
9322.000000;1.089510
9321.000000;1.089020
9320.000000;1.088197
9319.000000;1.087346
9318.000000;1.086690
9317.000000;1.086145
9316.000000;1.085583
9315.000000;1.085082
9314.000000;1.084798
9313.000000;1.084743
9312.000000;1.084835
9311.000000;1.085038
9310.000000;1.085276
9309.000000;1.085322
9308.000000;1.084965
9307.000000;1.084262
9306.000000;1.083476
9305.000000;1.082815
9304.000000;1.082348
9303.000000;1.082048
9302.000000;1.081778
9301.000000;1.081361
9300.000000;1.080853
9299.000000;1.080644
9298.000000;1.081016
9297.000000;1.081684
9296.000000;1.082053
9295.000000;1.081878
9294.000000;1.081410
9293.000000;1.080927
9292.000000;1.080434
9291.000000;1.079877
9290.000000;1.079357
9289.000000;1.079006
9288.000000;1.078868
9287.000000;1.078954
9286.000000;1.079207
9285.000000;1.079353
9284.000000;1.079060
9283.000000;1.078354
9282.000000;1.077653
9281.000000;1.077244
9280.000000;1.076976
9279.000000;1.076583
9278.000000;1.076072
9277.000000;1.075586
9276.000000;1.075105
9275.000000;1.074552
9274.000000;1.074039
9273.000000;1.073756
9272.000000;1.073658
9271.000000;1.073493
9270.000000;1.073118
9269.000000;1.072617
9268.000000;1.072123
9267.000000;1.071694
9266.000000;1.071372
9265.000000;1.071226
9264.000000;1.071246
9263.000000;1.071242
9262.000000;1.070931
9261.000000;1.070173
9260.000000;1.069153
9259.000000;1.068272
9258.000000;1.067798
9257.000000;1.067675
9256.000000;1.067752
9255.000000;1.068067
9254.000000;1.068703
9253.000000;1.069441
9252.000000;1.069830
9251.000000;1.069656
9250.000000;1.069115
9249.000000;1.068452
9248.000000;1.067693
9247.000000;1.066866
9246.000000;1.066197
9245.000000;1.065868
9244.000000;1.065720
9243.000000;1.065423
9242.000000;1.064895
9241.000000;1.064376
9240.000000;1.064103
9239.000000;1.064055
9238.000000;1.063990
9237.000000;1.063679
9236.000000;1.063139
9235.000000;1.062659
9234.000000;1.062511
9233.000000;1.062628
9232.000000;1.062712
9231.000000;1.062642
9230.000000;1.062572
9229.000000;1.062548
9228.000000;1.062327
9227.000000;1.061767
9226.000000;1.061124
9225.000000;1.060707
9224.000000;1.060418
9223.000000;1.059954
9222.000000;1.059357
9221.000000;1.059027
9220.000000;1.059174
9219.000000;1.059533
9218.000000;1.059719
9217.000000;1.059660
9216.000000;1.059595
9215.000000;1.059758
9214.000000;1.060136
9213.000000;1.060448
9212.000000;1.060303
9211.000000;1.059492
9210.000000;1.058187
9209.000000;1.056815
9208.000000;1.055740
9207.000000;1.055070
9206.000000;1.054720
9205.000000;1.054540
9204.000000;1.054394
9203.000000;1.054198
9202.000000;1.053929
9201.000000;1.053569
9200.000000;1.053085
9199.000000;1.052511
9198.000000;1.052012
9197.000000;1.051753
9196.000000;1.051695
9195.000000;1.051609
9194.000000;1.051343
9193.000000;1.051018
9192.000000;1.050889
9191.000000;1.051025
9190.000000;1.051163
9189.000000;1.050957
9188.000000;1.050385
9187.000000;1.049841
9186.000000;1.049728
9185.000000;1.050027
9184.000000;1.050367
9183.000000;1.050469
9182.000000;1.050323
9181.000000;1.049926
9180.000000;1.049114
9179.000000;1.047852
9178.000000;1.046548
9177.000000;1.045830
9176.000000;1.046016
9175.000000;1.046883
9174.000000;1.047898
9173.000000;1.048580
9172.000000;1.048710
9171.000000;1.048383
9170.000000;1.047916
9169.000000;1.047612
9168.000000;1.047533
9167.000000;1.047502
9166.000000;1.047304
9165.000000;1.046864
9164.000000;1.046276
9163.000000;1.045700
9162.000000;1.045242
9161.000000;1.044889
9160.000000;1.044556
9159.000000;1.044180
9158.000000;1.043751
9157.000000;1.043273
9156.000000;1.042759
9155.000000;1.042258
9154.000000;1.041847
9153.000000;1.041601
9152.000000;1.041595
9151.000000;1.041865
9150.000000;1.042276
9149.000000;1.042497
9148.000000;1.042285
9147.000000;1.041772
9146.000000;1.041295
9145.000000;1.040938
9144.000000;1.040461
9143.000000;1.039741
9142.000000;1.039042
9141.000000;1.038712
9140.000000;1.038781
9139.000000;1.039011
9138.000000;1.039186
9137.000000;1.039165
9136.000000;1.038815
9135.000000;1.038134
9134.000000;1.037434
9133.000000;1.037152
9132.000000;1.037423
9131.000000;1.037942
9130.000000;1.038257
9129.000000;1.038139
9128.000000;1.037692
9127.000000;1.037184
9126.000000;1.036805
9125.000000;1.036523
9124.000000;1.036182
9123.000000;1.035745
9122.000000;1.035359
9121.000000;1.035129
9120.000000;1.034945
9119.000000;1.034665
9118.000000;1.034381
9117.000000;1.034323
9116.000000;1.034496
9115.000000;1.034572
9114.000000;1.034229
9113.000000;1.033517
9112.000000;1.032827
9111.000000;1.032490
9110.000000;1.032458
9109.000000;1.032379
9108.000000;1.032032
9107.000000;1.031651
9106.000000;1.031676
9105.000000;1.032177
9104.000000;1.032664
9103.000000;1.032580
9102.000000;1.031895
9101.000000;1.031092
9100.000000;1.030635
9099.000000;1.030570
9098.000000;1.030614
9097.000000;1.030467
9096.000000;1.030019
9095.000000;1.029372
9094.000000;1.028710
9093.000000;1.028170
9092.000000;1.027798
9091.000000;1.027623
9090.000000;1.027648
9089.000000;1.027756
9088.000000;1.027735
9087.000000;1.027512
9086.000000;1.027292
9085.000000;1.027343
9084.000000;1.027668
9083.000000;1.027979
9082.000000;1.027953
9081.000000;1.027447
9080.000000;1.026534
9079.000000;1.025488
9078.000000;1.024686
9077.000000;1.024360
9076.000000;1.024403
9075.000000;1.024508
9074.000000;1.024498
9073.000000;1.024405
9072.000000;1.024215
9071.000000;1.023751
9070.000000;1.022926
9069.000000;1.022011
9068.000000;1.021475
9067.000000;1.021544
9066.000000;1.022017
9065.000000;1.022508
9064.000000;1.022800
9063.000000;1.022920
9062.000000;1.022963
9061.000000;1.022947
9060.000000;1.022828
9059.000000;1.022568
9058.000000;1.022127
9057.000000;1.021479
9056.000000;1.020731
9055.000000;1.020184
9054.000000;1.020117
9053.000000;1.020484
