Criado como novo conjunto de dados;"e2410_daniel_v2.spp","52025.0 Secs"
cm-1;Abs
10000.000000;1.053106
9999.000000;1.052807
9998.000000;1.052509
9997.000000;1.052211
9996.000000;1.051914
9995.000000;1.051615
9994.000000;1.051320
9993.000000;1.051018
9992.000000;1.050730
9991.000000;1.050418
9990.000000;1.050157
9989.000000;1.049633
9988.000000;1.048554
9987.000000;1.047318
9986.000000;1.046496
9985.000000;1.046231
9984.000000;1.046093
9983.000000;1.045647
9982.000000;1.044804
9981.000000;1.043726
9980.000000;1.042675
9979.000000;1.041936
9978.000000;1.041602
9977.000000;1.041395
9976.000000;1.040923
9975.000000;1.040135
9974.000000;1.039317
9973.000000;1.038669
9972.000000;1.038143
9971.000000;1.037700
9970.000000;1.037484
9969.000000;1.037625
9968.000000;1.038008
9967.000000;1.038254
9966.000000;1.037902
9965.000000;1.036734
9964.000000;1.035087
9963.000000;1.033773
9962.000000;1.033408
9961.000000;1.033803
9960.000000;1.034157
9959.000000;1.033845
9958.000000;1.032920
9957.000000;1.031853
9956.000000;1.031003
9955.000000;1.030401
9954.000000;1.029866
9953.000000;1.029252
9952.000000;1.028587
9951.000000;1.028049
9950.000000;1.027784
9949.000000;1.027752
9948.000000;1.027760
9947.000000;1.027611
9946.000000;1.027224
9945.000000;1.026641
9944.000000;1.025923
9943.000000;1.025026
9942.000000;1.023901
9941.000000;1.022773
9940.000000;1.022155
9939.000000;1.022305
9938.000000;1.022769
9937.000000;1.022783
9936.000000;1.022161
9935.000000;1.021445
9934.000000;1.021089
9933.000000;1.020843
9932.000000;1.020146
9931.000000;1.018881
9930.000000;1.017517
9929.000000;1.016634
9928.000000;1.016447
9927.000000;1.016665
9926.000000;1.016738
9925.000000;1.016375
9924.000000;1.015862
9923.000000;1.015688
9922.000000;1.015873
9921.000000;1.015934
9920.000000;1.015510
9919.000000;1.014671
9918.000000;1.013574
9917.000000;1.012258
9916.000000;1.010948
9915.000000;1.010104
9914.000000;1.009877
9913.000000;1.009814
9912.000000;1.009419
9911.000000;1.008741
9910.000000;1.008141
9909.000000;1.007720
9908.000000;1.007316
9907.000000;1.006848
9906.000000;1.006340
9905.000000;1.005759
9904.000000;1.005114
9903.000000;1.004551
9902.000000;1.004107
9901.000000;1.003550
9900.000000;1.002739
9899.000000;1.001940
9898.000000;1.001481
9897.000000;1.001240
9896.000000;1.000814
9895.000000;1.000097
9894.000000;0.999358
9893.000000;0.998823
9892.000000;0.998477
9891.000000;0.998267
9890.000000;0.998227
9889.000000;0.998344
9888.000000;0.998468
9887.000000;0.998374
9886.000000;0.997855
9885.000000;0.996864
9884.000000;0.995693
9883.000000;0.994851
9882.000000;0.994588
9881.000000;0.994614
9880.000000;0.994446
9879.000000;0.993893
9878.000000;0.993044
9877.000000;0.992004
9876.000000;0.990876
9875.000000;0.989899
9874.000000;0.989301
9873.000000;0.989060
9872.000000;0.988964
9871.000000;0.988852
9870.000000;0.988631
9869.000000;0.988203
9868.000000;0.987623
9867.000000;0.987183
9866.000000;0.987114
9865.000000;0.987238
9864.000000;0.987175
9863.000000;0.986827
9862.000000;0.986437
9861.000000;0.986142
9860.000000;0.985712
9859.000000;0.984825
9858.000000;0.983479
9857.000000;0.982044
9856.000000;0.980953
9855.000000;0.980337
9854.000000;0.979950
9853.000000;0.979467
9852.000000;0.978839
9851.000000;0.978273
9850.000000;0.977905
9849.000000;0.977654
9848.000000;0.977411
9847.000000;0.977184
9846.000000;0.976967
9845.000000;0.976660
9844.000000;0.976205
9843.000000;0.975682
9842.000000;0.975207
9841.000000;0.974846
9840.000000;0.974614
9839.000000;0.974352
9838.000000;0.973629
9837.000000;0.972125
9836.000000;0.970214
9835.000000;0.968835
9834.000000;0.968557
9833.000000;0.969046
9832.000000;0.969574
9831.000000;0.969796
9830.000000;0.969790
9829.000000;0.969618
9828.000000;0.969219
9827.000000;0.968591
9826.000000;0.967793
9825.000000;0.966858
9824.000000;0.965922
9823.000000;0.965294
9822.000000;0.965128
9821.000000;0.965123
9820.000000;0.964804
9819.000000;0.964040
9818.000000;0.963089
9817.000000;0.962219
9816.000000;0.961516
9815.000000;0.961006
9814.000000;0.960744
9813.000000;0.960742
9812.000000;0.960922
9811.000000;0.961100
9810.000000;0.961004
9809.000000;0.960444
9808.000000;0.959546
9807.000000;0.958671
9806.000000;0.958016
9805.000000;0.957450
9804.000000;0.956798
9803.000000;0.956145
9802.000000;0.955707
9801.000000;0.955564
9800.000000;0.955605
9799.000000;0.955586
9798.000000;0.955193
9797.000000;0.954285
9796.000000;0.953178
9795.000000;0.952433
9794.000000;0.952226
9793.000000;0.952197
9792.000000;0.952027
9791.000000;0.951823
9790.000000;0.951718
9789.000000;0.951459
9788.000000;0.950753
9787.000000;0.949751
9786.000000;0.948820
9785.000000;0.948016
9784.000000;0.947160
9783.000000;0.946298
9782.000000;0.945676
9781.000000;0.945323
9780.000000;0.944997
9779.000000;0.944558
9778.000000;0.944135
9777.000000;0.943893
9776.000000;0.943834
9775.000000;0.943810
9774.000000;0.943578
9773.000000;0.942937
9772.000000;0.941984
9771.000000;0.941137
9770.000000;0.940693
9769.000000;0.940467
9768.000000;0.940077
9767.000000;0.939457
9766.000000;0.938825
9765.000000;0.938227
9764.000000;0.937467
9763.000000;0.936482
9762.000000;0.935528
9761.000000;0.934904
9760.000000;0.934678
9759.000000;0.934725
9758.000000;0.934873
9757.000000;0.934980
9756.000000;0.934975
9755.000000;0.934860
9754.000000;0.934626
9753.000000;0.934242
9752.000000;0.933796
9751.000000;0.933520
9750.000000;0.933515
9749.000000;0.933518
9748.000000;0.933129
9747.000000;0.932249
9746.000000;0.931165
9745.000000;0.930251
9744.000000;0.929673
9743.000000;0.929339
9742.000000;0.929004
9741.000000;0.928500
9740.000000;0.927941
9739.000000;0.927621
9738.000000;0.927603
9737.000000;0.927497
9736.000000;0.926838
9735.000000;0.925622
9734.000000;0.924364
9733.000000;0.923611
9732.000000;0.923515
9731.000000;0.923778
9730.000000;0.923915
9729.000000;0.923604
9728.000000;0.922890
9727.000000;0.922047
9726.000000;0.921258
9725.000000;0.920529
9724.000000;0.919872
9723.000000;0.919387
9722.000000;0.919094
9721.000000;0.918846
9720.000000;0.918516
9719.000000;0.918117
9718.000000;0.917645
9717.000000;0.916994
9716.000000;0.916174
9715.000000;0.915457
9714.000000;0.915123
9713.000000;0.915150
9712.000000;0.915240
9711.000000;0.915093
9710.000000;0.914562
9709.000000;0.913705
9708.000000;0.912776
9707.000000;0.912045
9706.000000;0.911527
9705.000000;0.911027
9704.000000;0.910494
9703.000000;0.910144
9702.000000;0.910083
9701.000000;0.910037
9700.000000;0.909632
9699.000000;0.908822
9698.000000;0.907857
9697.000000;0.906974
9696.000000;0.906295
9695.000000;0.905880
9694.000000;0.905665
9693.000000;0.905425
9692.000000;0.904985
9691.000000;0.904429
9690.000000;0.903994
9689.000000;0.903814
9688.000000;0.903849
9687.000000;0.903967
9686.000000;0.903983
9685.000000;0.903767
9684.000000;0.903389
9683.000000;0.903055
9682.000000;0.902805
9681.000000;0.902428
9680.000000;0.901759
9679.000000;0.900888
9678.000000;0.899997
9677.000000;0.899166
9676.000000;0.898463
9675.000000;0.898012
9674.000000;0.897789
9673.000000;0.897527
9672.000000;0.897002
9671.000000;0.896305
9670.000000;0.895705
9669.000000;0.895331
9668.000000;0.895110
9667.000000;0.894897
9666.000000;0.894569
9665.000000;0.894096
9664.000000;0.893574
9663.000000;0.893057
9662.000000;0.892386
9661.000000;0.891428
9660.000000;0.890499
9659.000000;0.890173
9658.000000;0.890535
9657.000000;0.890939
9656.000000;0.890733
9655.000000;0.889932
9654.000000;0.888968
9653.000000;0.888098
9652.000000;0.887387
9651.000000;0.886980
9650.000000;0.886972
9649.000000;0.887178
9648.000000;0.887349
9647.000000;0.887475
9646.000000;0.887556
9645.000000;0.887277
9644.000000;0.886329
9643.000000;0.884994
9642.000000;0.883960
9641.000000;0.883553
9640.000000;0.883452
9639.000000;0.883203
9638.000000;0.882695
9637.000000;0.882060
9636.000000;0.881395
9635.000000;0.880743
9634.000000;0.880174
9633.000000;0.879745
9632.000000;0.879419
9631.000000;0.879099
9630.000000;0.878714
9629.000000;0.878265
9628.000000;0.877820
9627.000000;0.877415
9626.000000;0.876968
9625.000000;0.876400
9624.000000;0.875843
9623.000000;0.875557
9622.000000;0.875530
9621.000000;0.875353
9620.000000;0.874670
9619.000000;0.873625
9618.000000;0.872700
9617.000000;0.872197
9616.000000;0.872028
9615.000000;0.871904
9614.000000;0.871595
9613.000000;0.871070
9612.000000;0.870526
9611.000000;0.870199
9610.000000;0.870061
9609.000000;0.869811
9608.000000;0.869234
9607.000000;0.868435
9606.000000;0.867648
9605.000000;0.866992
9604.000000;0.866562
9603.000000;0.866481
9602.000000;0.866664
9601.000000;0.866714
9600.000000;0.866309
9599.000000;0.865584
9598.000000;0.864894
9597.000000;0.864334
9596.000000;0.863761
9595.000000;0.863171
9594.000000;0.862778
9593.000000;0.862706
9592.000000;0.862822
9591.000000;0.862865
9590.000000;0.862592
9589.000000;0.861864
9588.000000;0.860801
9587.000000;0.859804
9586.000000;0.859225
9585.000000;0.859002
9584.000000;0.858763
9583.000000;0.858271
9582.000000;0.857633
9581.000000;0.857101
9580.000000;0.856794
9579.000000;0.856623
9578.000000;0.856410
9577.000000;0.856083
9576.000000;0.855796
9575.000000;0.855774
9574.000000;0.855986
9573.000000;0.856082
9572.000000;0.855753
9571.000000;0.855033
9570.000000;0.854140
9569.000000;0.853196
9568.000000;0.852268
9567.000000;0.851543
9566.000000;0.851213
9565.000000;0.851202
9564.000000;0.851185
9563.000000;0.850885
9562.000000;0.850296
9561.000000;0.849641
9560.000000;0.849190
9559.000000;0.849054
9558.000000;0.849104
9557.000000;0.849132
9556.000000;0.849080
9555.000000;0.848987
9554.000000;0.848688
9553.000000;0.847829
9552.000000;0.846332
9551.000000;0.844668
9550.000000;0.843452
9549.000000;0.842904
9548.000000;0.842816
9547.000000;0.842880
9546.000000;0.842905
9545.000000;0.842820
9544.000000;0.842655
9543.000000;0.842449
9542.000000;0.842108
9541.000000;0.841474
9540.000000;0.840625
9539.000000;0.839949
9538.000000;0.839757
9537.000000;0.839968
9536.000000;0.840272
9535.000000;0.840444
9534.000000;0.840370
9533.000000;0.839944
9532.000000;0.839181
9531.000000;0.838292
9530.000000;0.837476
9529.000000;0.836713
9528.000000;0.835937
9527.000000;0.835251
9526.000000;0.834822
9525.000000;0.834654
9524.000000;0.834619
9523.000000;0.834604
9522.000000;0.834491
9521.000000;0.834170
9520.000000;0.833734
9519.000000;0.833458
9518.000000;0.833401
9517.000000;0.833217
9516.000000;0.832635
9515.000000;0.831908
9514.000000;0.831486
9513.000000;0.831388
9512.000000;0.831222
9511.000000;0.830759
9510.000000;0.830139
9509.000000;0.829563
9508.000000;0.829089
9507.000000;0.828770
9506.000000;0.828667
9505.000000;0.828637
9504.000000;0.828360
9503.000000;0.827681
9502.000000;0.826779
9501.000000;0.825939
9500.000000;0.825289
9499.000000;0.824804
9498.000000;0.824442
9497.000000;0.824188
9496.000000;0.824067
9495.000000;0.824087
9494.000000;0.824142
9493.000000;0.824024
9492.000000;0.823653
9491.000000;0.823255
9490.000000;0.823136
9489.000000;0.823260
9488.000000;0.823194
9487.000000;0.822528
9486.000000;0.821292
9485.000000;0.819947
9484.000000;0.818988
9483.000000;0.818551
9482.000000;0.818328
9481.000000;0.817893
9480.000000;0.817137
9479.000000;0.816333
9478.000000;0.815808
9477.000000;0.815661
9476.000000;0.815807
9475.000000;0.816096
9474.000000;0.816321
9473.000000;0.816305
9472.000000;0.816104
9471.000000;0.815954
9470.000000;0.815899
9469.000000;0.815648
9468.000000;0.814986
9467.000000;0.814147
9466.000000;0.813539
9465.000000;0.813238
9464.000000;0.812980
9463.000000;0.812577
9462.000000;0.812088
9461.000000;0.811641
9460.000000;0.811312
9459.000000;0.811167
9458.000000;0.811197
9457.000000;0.811195
9456.000000;0.810903
9455.000000;0.810316
9454.000000;0.809710
9453.000000;0.809325
9452.000000;0.809124
9451.000000;0.808883
9450.000000;0.808410
9449.000000;0.807677
9448.000000;0.806848
9447.000000;0.806188
9446.000000;0.805865
9445.000000;0.805813
9444.000000;0.805828
9443.000000;0.805772
9442.000000;0.805660
9441.000000;0.805597
9440.000000;0.805678
9439.000000;0.805855
9438.000000;0.805895
9437.000000;0.805550
9436.000000;0.804879
9435.000000;0.804236
9434.000000;0.803878
9433.000000;0.803682
9432.000000;0.803339
9431.000000;0.802694
9430.000000;0.801777
9429.000000;0.800687
9428.000000;0.799616
9427.000000;0.798865
9426.000000;0.798595
9425.000000;0.798601
9424.000000;0.798512
9423.000000;0.798183
9422.000000;0.797764
9421.000000;0.797437
9420.000000;0.797249
9419.000000;0.797168
9418.000000;0.797111
9417.000000;0.796932
9416.000000;0.796535
9415.000000;0.796015
9414.000000;0.795561
9413.000000;0.795212
9412.000000;0.794819
9411.000000;0.794250
9410.000000;0.793548
9409.000000;0.792883
9408.000000;0.792422
9407.000000;0.792229
9406.000000;0.792220
9405.000000;0.792225
9404.000000;0.792123
9403.000000;0.791910
9402.000000;0.791606
9401.000000;0.791200
9400.000000;0.790713
9399.000000;0.790237
9398.000000;0.789842
9397.000000;0.789511
9396.000000;0.789208
9395.000000;0.788909
9394.000000;0.788513
9393.000000;0.787877
9392.000000;0.787032
9391.000000;0.786238
9390.000000;0.785689
9389.000000;0.785306
9388.000000;0.784945
9387.000000;0.784680
9386.000000;0.784693
9385.000000;0.784962
9384.000000;0.785229
9383.000000;0.785282
9382.000000;0.785110
9381.000000;0.784791
9380.000000;0.784353
9379.000000;0.783782
9378.000000;0.783081
9377.000000;0.782317
9376.000000;0.781649
9375.000000;0.781231
9374.000000;0.781040
9373.000000;0.780864
9372.000000;0.780549
9371.000000;0.780173
9370.000000;0.779891
9369.000000;0.779699
9368.000000;0.779463
9367.000000;0.779144
9366.000000;0.778868
9365.000000;0.778765
9364.000000;0.778804
9363.000000;0.778807
9362.000000;0.778605
9361.000000;0.778184
9360.000000;0.777679
9359.000000;0.777181
9358.000000;0.776610
9357.000000;0.775868
9356.000000;0.775077
9355.000000;0.774497
9354.000000;0.774213
9353.000000;0.774066
9352.000000;0.773910
9351.000000;0.773746
9350.000000;0.773573
9349.000000;0.773301
9348.000000;0.772921
9347.000000;0.772568
9346.000000;0.772335
9345.000000;0.772135
9344.000000;0.771851
9343.000000;0.771445
9342.000000;0.770872
9341.000000;0.770088
9340.000000;0.769282
9339.000000;0.768858
9338.000000;0.769012
9337.000000;0.769447
9336.000000;0.769693
9335.000000;0.769586
9334.000000;0.769283
9333.000000;0.768961
9332.000000;0.768708
9331.000000;0.768572
9330.000000;0.768497
9329.000000;0.768282
9328.000000;0.767790
9327.000000;0.767170
9326.000000;0.766703
9325.000000;0.766486
9324.000000;0.766380
9323.000000;0.766204
9322.000000;0.765866
9321.000000;0.765376
9320.000000;0.764851
9319.000000;0.764434
9318.000000;0.764127
9317.000000;0.763779
9316.000000;0.763327
9315.000000;0.762895
9314.000000;0.762582
9313.000000;0.762304
9312.000000;0.761984
9311.000000;0.761716
9310.000000;0.761581
9309.000000;0.761463
9308.000000;0.761224
9307.000000;0.760928
9306.000000;0.760661
9305.000000;0.760314
9304.000000;0.759787
9303.000000;0.759298
9302.000000;0.759169
9301.000000;0.759367
9300.000000;0.759518
9299.000000;0.759388
9298.000000;0.759078
9297.000000;0.758721
9296.000000;0.758278
9295.000000;0.757724
9294.000000;0.757210
9293.000000;0.756897
9292.000000;0.756735
9291.000000;0.756527
9290.000000;0.756161
9289.000000;0.755689
9288.000000;0.755241
9287.000000;0.754897
9286.000000;0.754643
9285.000000;0.754413
9284.000000;0.754176
9283.000000;0.753931
9282.000000;0.753636
9281.000000;0.753231
9280.000000;0.752758
9279.000000;0.752359
9278.000000;0.752096
9277.000000;0.751874
9276.000000;0.751609
9275.000000;0.751347
9274.000000;0.751131
9273.000000;0.750879
9272.000000;0.750525
9271.000000;0.750165
9270.000000;0.749901
9269.000000;0.749645
9268.000000;0.749247
9267.000000;0.748762
9266.000000;0.748398
9265.000000;0.748222
9264.000000;0.748063
9263.000000;0.747736
9262.000000;0.747262
9261.000000;0.746832
9260.000000;0.746617
9259.000000;0.746580
9258.000000;0.746463
9257.000000;0.746023
9256.000000;0.745329
9255.000000;0.744716
9254.000000;0.744392
9253.000000;0.744230
9252.000000;0.744019
9251.000000;0.743770
9250.000000;0.743619
9249.000000;0.743571
9248.000000;0.743527
9247.000000;0.743483
9246.000000;0.743482
9245.000000;0.743431
9244.000000;0.743167
9243.000000;0.742692
9242.000000;0.742179
9241.000000;0.741755
9240.000000;0.741419
9239.000000;0.741168
9238.000000;0.741042
9237.000000;0.741003
9236.000000;0.740906
9235.000000;0.740664
9234.000000;0.740361
9233.000000;0.740145
9232.000000;0.740072
9231.000000;0.740040
9230.000000;0.739878
9229.000000;0.739492
9228.000000;0.738963
9227.000000;0.738467
9226.000000;0.738101
9225.000000;0.737823
9224.000000;0.737561
9223.000000;0.737268
9222.000000;0.736859
9221.000000;0.736250
9220.000000;0.735537
9219.000000;0.735006
9218.000000;0.734855
9217.000000;0.734980
9216.000000;0.735139
9215.000000;0.735212
9214.000000;0.735193
9213.000000;0.735060
9212.000000;0.734813
9211.000000;0.734562
9210.000000;0.734418
9209.000000;0.734319
9208.000000;0.734093
9207.000000;0.733638
9206.000000;0.732961
9205.000000;0.732106
9204.000000;0.731229
9203.000000;0.730637
9202.000000;0.730554
9201.000000;0.730829
9200.000000;0.731031
9199.000000;0.730880
9198.000000;0.730465
9197.000000;0.730044
9196.000000;0.729736
9195.000000;0.729489
9194.000000;0.729242
9193.000000;0.729047
9192.000000;0.728995
9191.000000;0.729076
9190.000000;0.729124
9189.000000;0.728965
9188.000000;0.728608
9187.000000;0.728216
9186.000000;0.727885
9185.000000;0.727534
9184.000000;0.727053
9183.000000;0.726463
9182.000000;0.725898
9181.000000;0.725496
9180.000000;0.725349
9179.000000;0.725436
9178.000000;0.725572
9177.000000;0.725526
9176.000000;0.725247
9175.000000;0.724899
9174.000000;0.724632
9173.000000;0.724449
9172.000000;0.724339
9171.000000;0.724347
9170.000000;0.724400
9169.000000;0.724254
9168.000000;0.723794
9167.000000;0.723239
9166.000000;0.722866
9165.000000;0.722649
9164.000000;0.722350
9163.000000;0.721910
9162.000000;0.721511
9161.000000;0.721292
9160.000000;0.721185
9159.000000;0.721065
9158.000000;0.720905
9157.000000;0.720732
9156.000000;0.720544
9155.000000;0.720318
9154.000000;0.720027
9153.000000;0.719639
9152.000000;0.719138
9151.000000;0.718596
9150.000000;0.718157
9149.000000;0.717962
9148.000000;0.718034
9147.000000;0.718212
9146.000000;0.718225
9145.000000;0.717930
9144.000000;0.717477
9143.000000;0.717133
9142.000000;0.716949
9141.000000;0.716742
9140.000000;0.716413
9139.000000;0.716109
9138.000000;0.715984
9137.000000;0.715968
9136.000000;0.715877
9135.000000;0.715619
9134.000000;0.715194
9133.000000;0.714625
9132.000000;0.714013
9131.000000;0.713517
9130.000000;0.713193
9129.000000;0.712972
9128.000000;0.712868
9127.000000;0.713012
9126.000000;0.713358
9125.000000;0.713562
9124.000000;0.713385
9123.000000;0.713027
9122.000000;0.712835
9121.000000;0.712810
9120.000000;0.712669
9119.000000;0.712312
9118.000000;0.711912
9117.000000;0.711568
9116.000000;0.711168
9115.000000;0.710634
9114.000000;0.710087
9113.000000;0.709694
9112.000000;0.709516
9111.000000;0.709519
9110.000000;0.709594
9109.000000;0.709532
9108.000000;0.709178
9107.000000;0.708644
9106.000000;0.708247
9105.000000;0.708170
9104.000000;0.708297
9103.000000;0.708398
9102.000000;0.708354
9101.000000;0.708175
9100.000000;0.707931
9099.000000;0.707693
9098.000000;0.707460
9097.000000;0.707123
9096.000000;0.706611
9095.000000;0.706076
9094.000000;0.705790
9093.000000;0.705834
9092.000000;0.706007
9091.000000;0.706087
9090.000000;0.706068
9089.000000;0.706061
9088.000000;0.706051
9087.000000;0.705887
9086.000000;0.705493
9085.000000;0.704995
9084.000000;0.704608
9083.000000;0.704425
9082.000000;0.704321
9081.000000;0.704068
9080.000000;0.703541
9079.000000;0.702831
9078.000000;0.702164
9077.000000;0.701722
9076.000000;0.701551
9075.000000;0.701581
9074.000000;0.701678
9073.000000;0.701712
9072.000000;0.701617
9071.000000;0.701417
9070.000000;0.701181
9069.000000;0.700969
9068.000000;0.700797
9067.000000;0.700662
9066.000000;0.700596
9065.000000;0.700692
9064.000000;0.700982
9063.000000;0.701269
9062.000000;0.701189
9061.000000;0.700593
9060.000000;0.699784
9059.000000;0.699216
9058.000000;0.698995
9057.000000;0.698870
9056.000000;0.698684
9055.000000;0.698581
9054.000000;0.698681
9053.000000;0.698790
