Criado como novo conjunto de dados;"e2410_daniel_v2.spp","1.7 Secs"
cm-1;Abs
10000.000000;0.031044
9999.000000;0.030627
9998.000000;0.030216
9997.000000;0.029767
9996.000000;0.029281
9995.000000;0.028819
9994.000000;0.028412
9993.000000;0.028022
9992.000000;0.027550
9991.000000;0.026931
9990.000000;0.026196
9989.000000;0.025468
9988.000000;0.024888
9987.000000;0.024520
9986.000000;0.024293
9985.000000;0.024034
9984.000000;0.023595
9983.000000;0.022972
9982.000000;0.022301
9981.000000;0.021729
9980.000000;0.021297
9979.000000;0.020950
9978.000000;0.020640
9977.000000;0.020362
9976.000000;0.020079
9975.000000;0.019678
9974.000000;0.019060
9973.000000;0.018299
9972.000000;0.017617
9971.000000;0.017164
9970.000000;0.016844
9969.000000;0.016425
9968.000000;0.015818
9967.000000;0.015163
9966.000000;0.014642
9965.000000;0.014265
9964.000000;0.013898
9963.000000;0.013428
9962.000000;0.012842
9961.000000;0.012187
9960.000000;0.011544
9959.000000;0.011026
9958.000000;0.010692
9957.000000;0.010462
9956.000000;0.010155
9955.000000;0.009673
9954.000000;0.009083
9953.000000;0.008515
9952.000000;0.008021
9951.000000;0.007577
9950.000000;0.007162
9949.000000;0.006778
9948.000000;0.006405
9947.000000;0.005994
9946.000000;0.005521
9945.000000;0.004999
9944.000000;0.004442
9943.000000;0.003854
9942.000000;0.003252
9941.000000;0.002689
9940.000000;0.002208
9939.000000;0.001810
9938.000000;0.001457
9937.000000;0.001120
9936.000000;0.000786
9935.000000;0.000432
9934.000000;0.000017
9933.000000;-0.000471
9932.000000;-0.000979
9931.000000;-0.001423
9930.000000;-0.001800
9929.000000;-0.002209
9928.000000;-0.002761
9927.000000;-0.003442
9926.000000;-0.004107
9925.000000;-0.004618
9924.000000;-0.004971
9923.000000;-0.005283
9922.000000;-0.005679
9921.000000;-0.006188
9920.000000;-0.006741
9919.000000;-0.007241
9918.000000;-0.007661
9917.000000;-0.008060
9916.000000;-0.008521
9915.000000;-0.009069
9914.000000;-0.009669
9913.000000;-0.010284
9912.000000;-0.010905
9911.000000;-0.011534
9910.000000;-0.012147
9909.000000;-0.012692
9908.000000;-0.013126
9907.000000;-0.013452
9906.000000;-0.013741
9905.000000;-0.014091
9904.000000;-0.014561
9903.000000;-0.015123
9902.000000;-0.015694
9901.000000;-0.016210
9900.000000;-0.016652
9899.000000;-0.017039
9898.000000;-0.017408
9897.000000;-0.017807
9896.000000;-0.018269
9895.000000;-0.018807
9894.000000;-0.019417
9893.000000;-0.020072
9892.000000;-0.020692
9891.000000;-0.021170
9890.000000;-0.021487
9889.000000;-0.021761
9888.000000;-0.022129
9887.000000;-0.022615
9886.000000;-0.023147
9885.000000;-0.023683
9884.000000;-0.024222
9883.000000;-0.024725
9882.000000;-0.025133
9881.000000;-0.025483
9880.000000;-0.025897
9879.000000;-0.026420
9878.000000;-0.026939
9877.000000;-0.027346
9876.000000;-0.027689
9875.000000;-0.028105
9874.000000;-0.028647
9873.000000;-0.029270
9872.000000;-0.029924
9871.000000;-0.030583
9870.000000;-0.031196
9869.000000;-0.031691
9868.000000;-0.032051
9867.000000;-0.032343
9866.000000;-0.032666
9865.000000;-0.033087
9864.000000;-0.033615
9863.000000;-0.034184
9862.000000;-0.034695
9861.000000;-0.035115
9860.000000;-0.035511
9859.000000;-0.035977
9858.000000;-0.036522
9857.000000;-0.037089
9856.000000;-0.037631
9855.000000;-0.038138
9854.000000;-0.038615
9853.000000;-0.039088
9852.000000;-0.039598
9851.000000;-0.040132
9850.000000;-0.040587
9849.000000;-0.040888
9848.000000;-0.041128
9847.000000;-0.041489
9846.000000;-0.042027
9845.000000;-0.042597
9844.000000;-0.043038
9843.000000;-0.043344
9842.000000;-0.043635
9841.000000;-0.044019
9840.000000;-0.044527
9839.000000;-0.045144
9838.000000;-0.045823
9837.000000;-0.046489
9836.000000;-0.047070
9835.000000;-0.047548
9834.000000;-0.047950
9833.000000;-0.048303
9832.000000;-0.048614
9831.000000;-0.048889
9830.000000;-0.049150
9829.000000;-0.049453
9828.000000;-0.049876
9827.000000;-0.050458
9826.000000;-0.051149
9825.000000;-0.051824
9824.000000;-0.052399
9823.000000;-0.052894
9822.000000;-0.053384
9821.000000;-0.053896
9820.000000;-0.054377
9819.000000;-0.054752
9818.000000;-0.055005
9817.000000;-0.055212
9816.000000;-0.055509
9815.000000;-0.055992
9814.000000;-0.056621
9813.000000;-0.057245
9812.000000;-0.057749
9811.000000;-0.058159
9810.000000;-0.058600
9809.000000;-0.059136
9808.000000;-0.059713
9807.000000;-0.060244
9806.000000;-0.060714
9805.000000;-0.061181
9804.000000;-0.061694
9803.000000;-0.062234
9802.000000;-0.062723
9801.000000;-0.063096
9800.000000;-0.063351
9799.000000;-0.063573
9798.000000;-0.063903
9797.000000;-0.064440
9796.000000;-0.065160
9795.000000;-0.065908
9794.000000;-0.066516
9793.000000;-0.066927
9792.000000;-0.067209
9791.000000;-0.067464
9790.000000;-0.067747
9789.000000;-0.068074
9788.000000;-0.068472
9787.000000;-0.068970
9786.000000;-0.069572
9785.000000;-0.070244
9784.000000;-0.070925
9783.000000;-0.071532
9782.000000;-0.071987
9781.000000;-0.072301
9780.000000;-0.072605
9779.000000;-0.073045
9778.000000;-0.073614
9777.000000;-0.074147
9776.000000;-0.074498
9775.000000;-0.074707
9774.000000;-0.074942
9773.000000;-0.075310
9772.000000;-0.075772
9771.000000;-0.076235
9770.000000;-0.076666
9769.000000;-0.077100
9768.000000;-0.077576
9767.000000;-0.078097
9766.000000;-0.078648
9765.000000;-0.079217
9764.000000;-0.079781
9763.000000;-0.080301
9762.000000;-0.080751
9761.000000;-0.081150
9760.000000;-0.081536
9759.000000;-0.081932
9758.000000;-0.082337
9757.000000;-0.082767
9756.000000;-0.083256
9755.000000;-0.083805
9754.000000;-0.084352
9753.000000;-0.084832
9752.000000;-0.085252
9751.000000;-0.085678
9750.000000;-0.086148
9749.000000;-0.086638
9748.000000;-0.087108
9747.000000;-0.087558
9746.000000;-0.088003
9745.000000;-0.088431
9744.000000;-0.088807
9743.000000;-0.089125
9742.000000;-0.089439
9741.000000;-0.089820
9740.000000;-0.090302
9739.000000;-0.090850
9738.000000;-0.091405
9737.000000;-0.091939
9736.000000;-0.092457
9735.000000;-0.092959
9734.000000;-0.093419
9733.000000;-0.093825
9732.000000;-0.094207
9731.000000;-0.094600
9730.000000;-0.095003
9729.000000;-0.095391
9728.000000;-0.095769
9727.000000;-0.096173
9726.000000;-0.096616
9725.000000;-0.097064
9724.000000;-0.097475
9723.000000;-0.097832
9722.000000;-0.098148
9721.000000;-0.098476
9720.000000;-0.098907
9719.000000;-0.099505
9718.000000;-0.100218
9717.000000;-0.100892
9716.000000;-0.101414
9715.000000;-0.101816
9714.000000;-0.102212
9713.000000;-0.102660
9712.000000;-0.103118
9711.000000;-0.103514
9710.000000;-0.103825
9709.000000;-0.104091
9708.000000;-0.104394
9707.000000;-0.104814
9706.000000;-0.105348
9705.000000;-0.105884
9704.000000;-0.106312
9703.000000;-0.106651
9702.000000;-0.107033
9701.000000;-0.107539
9700.000000;-0.108094
9699.000000;-0.108564
9698.000000;-0.108913
9697.000000;-0.109236
9696.000000;-0.109643
9695.000000;-0.110161
9694.000000;-0.110729
9693.000000;-0.111268
9692.000000;-0.111742
9691.000000;-0.112168
9690.000000;-0.112590
9689.000000;-0.113042
9688.000000;-0.113525
9687.000000;-0.114011
9686.000000;-0.114448
9685.000000;-0.114782
9684.000000;-0.115016
9683.000000;-0.115249
9682.000000;-0.115609
9681.000000;-0.116109
9680.000000;-0.116612
9679.000000;-0.116991
9678.000000;-0.117294
9677.000000;-0.117675
9676.000000;-0.118186
9675.000000;-0.118707
9674.000000;-0.119122
9673.000000;-0.119457
9672.000000;-0.119827
9671.000000;-0.120275
9670.000000;-0.120767
9669.000000;-0.121278
9668.000000;-0.121812
9667.000000;-0.122340
9666.000000;-0.122798
9665.000000;-0.123165
9664.000000;-0.123495
9663.000000;-0.123851
9662.000000;-0.124252
9661.000000;-0.124692
9660.000000;-0.125175
9659.000000;-0.125692
9658.000000;-0.126202
9657.000000;-0.126668
9656.000000;-0.127098
9655.000000;-0.127540
9654.000000;-0.128027
9653.000000;-0.128551
9652.000000;-0.129059
9651.000000;-0.129481
9650.000000;-0.129781
9649.000000;-0.130012
9648.000000;-0.130286
9647.000000;-0.130680
9646.000000;-0.131170
9645.000000;-0.131680
9644.000000;-0.132169
9643.000000;-0.132639
9642.000000;-0.133086
9641.000000;-0.133475
9640.000000;-0.133788
9639.000000;-0.134065
9638.000000;-0.134386
9637.000000;-0.134798
9636.000000;-0.135264
9635.000000;-0.135702
9634.000000;-0.136082
9633.000000;-0.136467
9632.000000;-0.136936
9631.000000;-0.137476
9630.000000;-0.138000
9629.000000;-0.138474
9628.000000;-0.138957
9627.000000;-0.139502
9626.000000;-0.140058
9625.000000;-0.140524
9624.000000;-0.140858
9623.000000;-0.141097
9622.000000;-0.141289
9621.000000;-0.141485
9620.000000;-0.141752
9619.000000;-0.142147
9618.000000;-0.142653
9617.000000;-0.143198
9616.000000;-0.143750
9615.000000;-0.144326
9614.000000;-0.144903
9613.000000;-0.145379
9612.000000;-0.145688
9611.000000;-0.145913
9610.000000;-0.146233
9609.000000;-0.146744
9608.000000;-0.147360
9607.000000;-0.147898
9606.000000;-0.148263
9605.000000;-0.148526
9604.000000;-0.148832
9603.000000;-0.149232
9602.000000;-0.149633
9601.000000;-0.149910
9600.000000;-0.150046
9599.000000;-0.150155
9598.000000;-0.150383
9597.000000;-0.150792
9596.000000;-0.151344
9595.000000;-0.151926
9594.000000;-0.152421
9593.000000;-0.152789
9592.000000;-0.153095
9591.000000;-0.153442
9590.000000;-0.153857
9589.000000;-0.154294
9588.000000;-0.154714
9587.000000;-0.155140
9586.000000;-0.155592
9585.000000;-0.156031
9584.000000;-0.156402
9583.000000;-0.156715
9582.000000;-0.157037
9581.000000;-0.157416
9580.000000;-0.157849
9579.000000;-0.158321
9578.000000;-0.158824
9577.000000;-0.159347
9576.000000;-0.159863
9575.000000;-0.160341
9574.000000;-0.160769
9573.000000;-0.161157
9572.000000;-0.161529
9571.000000;-0.161911
9570.000000;-0.162310
9569.000000;-0.162715
9568.000000;-0.163100
9567.000000;-0.163437
9566.000000;-0.163717
9565.000000;-0.163968
9564.000000;-0.164258
9563.000000;-0.164640
9562.000000;-0.165092
9561.000000;-0.165535
9560.000000;-0.165919
9559.000000;-0.166278
9558.000000;-0.166679
9557.000000;-0.167141
9556.000000;-0.167626
9555.000000;-0.168079
9554.000000;-0.168463
9553.000000;-0.168775
9552.000000;-0.169065
9551.000000;-0.169413
9550.000000;-0.169862
9549.000000;-0.170365
9548.000000;-0.170832
9547.000000;-0.171222
9546.000000;-0.171568
9545.000000;-0.171918
9544.000000;-0.172281
9543.000000;-0.172637
9542.000000;-0.172990
9541.000000;-0.173382
9540.000000;-0.173843
9539.000000;-0.174343
9538.000000;-0.174797
9537.000000;-0.175146
9536.000000;-0.175439
9535.000000;-0.175785
9534.000000;-0.176232
9533.000000;-0.176712
9532.000000;-0.177140
9531.000000;-0.177519
9530.000000;-0.177904
9529.000000;-0.178288
9528.000000;-0.178608
9527.000000;-0.178851
9526.000000;-0.179099
9525.000000;-0.179432
9524.000000;-0.179840
9523.000000;-0.180261
9522.000000;-0.180658
9521.000000;-0.181033
9520.000000;-0.181394
9519.000000;-0.181752
9518.000000;-0.182121
9517.000000;-0.182512
9516.000000;-0.182920
9515.000000;-0.183349
9514.000000;-0.183822
9513.000000;-0.184331
9512.000000;-0.184800
9511.000000;-0.185146
9510.000000;-0.185376
9509.000000;-0.185588
9508.000000;-0.185878
9507.000000;-0.186254
9506.000000;-0.186660
9505.000000;-0.187047
9504.000000;-0.187404
9503.000000;-0.187741
9502.000000;-0.188067
9501.000000;-0.188388
9500.000000;-0.188708
9499.000000;-0.189024
9498.000000;-0.189354
9497.000000;-0.189739
9496.000000;-0.190219
9495.000000;-0.190787
9494.000000;-0.191364
9493.000000;-0.191852
9492.000000;-0.192198
9491.000000;-0.192432
9490.000000;-0.192633
9489.000000;-0.192879
9488.000000;-0.193203
9487.000000;-0.193596
9486.000000;-0.194018
9485.000000;-0.194423
9484.000000;-0.194790
9483.000000;-0.195129
9482.000000;-0.195475
9481.000000;-0.195843
9480.000000;-0.196214
9479.000000;-0.196550
9478.000000;-0.196829
9477.000000;-0.197073
9476.000000;-0.197340
9475.000000;-0.197684
9474.000000;-0.198113
9473.000000;-0.198582
9472.000000;-0.199023
9471.000000;-0.199393
9470.000000;-0.199699
9469.000000;-0.199985
9468.000000;-0.200295
9467.000000;-0.200636
9466.000000;-0.200975
9465.000000;-0.201272
9464.000000;-0.201528
9463.000000;-0.201804
9462.000000;-0.202162
9461.000000;-0.202594
9460.000000;-0.203024
9459.000000;-0.203383
9458.000000;-0.203686
9457.000000;-0.204019
9456.000000;-0.204455
9455.000000;-0.204987
9454.000000;-0.205522
9453.000000;-0.205944
9452.000000;-0.206208
9451.000000;-0.206378
9450.000000;-0.206569
9449.000000;-0.206854
9448.000000;-0.207218
9447.000000;-0.207596
9446.000000;-0.207950
9445.000000;-0.208286
9444.000000;-0.208622
9443.000000;-0.208962
9442.000000;-0.209293
9441.000000;-0.209606
9440.000000;-0.209910
9439.000000;-0.210228
9438.000000;-0.210591
9437.000000;-0.211005
9436.000000;-0.211450
9435.000000;-0.211885
9434.000000;-0.212280
9433.000000;-0.212626
9432.000000;-0.212935
9431.000000;-0.213236
9430.000000;-0.213560
9429.000000;-0.213912
9428.000000;-0.214273
9427.000000;-0.214635
9426.000000;-0.215019
9425.000000;-0.215440
9424.000000;-0.215870
9423.000000;-0.216254
9422.000000;-0.216563
9421.000000;-0.216816
9420.000000;-0.217044
9419.000000;-0.217255
9418.000000;-0.217458
9417.000000;-0.217682
9416.000000;-0.217968
9415.000000;-0.218335
9414.000000;-0.218759
9413.000000;-0.219194
9412.000000;-0.219608
9411.000000;-0.220002
9410.000000;-0.220401
9409.000000;-0.220823
9408.000000;-0.221252
9407.000000;-0.221635
9406.000000;-0.221917
9405.000000;-0.222087
9404.000000;-0.222194
9403.000000;-0.222333
9402.000000;-0.222581
9401.000000;-0.222949
9400.000000;-0.223375
9399.000000;-0.223783
9398.000000;-0.224133
9397.000000;-0.224438
9396.000000;-0.224729
9395.000000;-0.225035
9394.000000;-0.225371
9393.000000;-0.225739
9392.000000;-0.226115
9391.000000;-0.226467
9390.000000;-0.226790
9389.000000;-0.227103
9388.000000;-0.227422
9387.000000;-0.227742
9386.000000;-0.228057
9385.000000;-0.228384
9384.000000;-0.228737
9383.000000;-0.229094
9382.000000;-0.229409
9381.000000;-0.229658
9380.000000;-0.229874
9379.000000;-0.230122
9378.000000;-0.230448
9377.000000;-0.230834
9376.000000;-0.231217
9375.000000;-0.231533
9374.000000;-0.231773
9373.000000;-0.231989
9372.000000;-0.232246
9371.000000;-0.232565
9370.000000;-0.232922
9369.000000;-0.233294
9368.000000;-0.233681
9367.000000;-0.234092
9366.000000;-0.234510
9365.000000;-0.234904
9364.000000;-0.235261
9363.000000;-0.235576
9362.000000;-0.235842
9361.000000;-0.236042
9360.000000;-0.236193
9359.000000;-0.236357
9358.000000;-0.236602
9357.000000;-0.236941
9356.000000;-0.237321
9355.000000;-0.237672
9354.000000;-0.237970
9353.000000;-0.238240
9352.000000;-0.238522
9351.000000;-0.238835
9350.000000;-0.239176
9349.000000;-0.239526
9348.000000;-0.239862
9347.000000;-0.240159
9346.000000;-0.240404
9345.000000;-0.240600
9344.000000;-0.240771
9343.000000;-0.240951
9342.000000;-0.241182
9341.000000;-0.241504
9340.000000;-0.241919
9339.000000;-0.242385
9338.000000;-0.242835
9337.000000;-0.243225
9336.000000;-0.243565
9335.000000;-0.243890
9334.000000;-0.244213
9333.000000;-0.244509
9332.000000;-0.244744
9331.000000;-0.244920
9330.000000;-0.245089
9329.000000;-0.245323
9328.000000;-0.245664
9327.000000;-0.246090
9326.000000;-0.246528
9325.000000;-0.246898
9324.000000;-0.247179
9323.000000;-0.247415
9322.000000;-0.247661
9321.000000;-0.247930
9320.000000;-0.248195
9319.000000;-0.248438
9318.000000;-0.248678
9317.000000;-0.248949
9316.000000;-0.249260
9315.000000;-0.249598
9314.000000;-0.249937
9313.000000;-0.250252
9312.000000;-0.250532
9311.000000;-0.250786
9310.000000;-0.251031
9309.000000;-0.251277
9308.000000;-0.251528
9307.000000;-0.251793
9306.000000;-0.252095
9305.000000;-0.252442
9304.000000;-0.252801
9303.000000;-0.253128
9302.000000;-0.253408
9301.000000;-0.253657
9300.000000;-0.253901
9299.000000;-0.254152
9298.000000;-0.254423
9297.000000;-0.254736
9296.000000;-0.255106
9295.000000;-0.255509
9294.000000;-0.255892
9293.000000;-0.256205
9292.000000;-0.256450
9291.000000;-0.256677
9290.000000;-0.256936
9289.000000;-0.257223
9288.000000;-0.257482
9287.000000;-0.257663
9286.000000;-0.257779
9285.000000;-0.257905
9284.000000;-0.258127
9283.000000;-0.258488
9282.000000;-0.258938
9281.000000;-0.259363
9280.000000;-0.259664
9279.000000;-0.259859
9278.000000;-0.260063
9277.000000;-0.260365
9276.000000;-0.260726
9275.000000;-0.261035
9274.000000;-0.261241
9273.000000;-0.261402
9272.000000;-0.261609
9271.000000;-0.261903
9270.000000;-0.262254
9269.000000;-0.262598
9268.000000;-0.262881
9267.000000;-0.263090
9266.000000;-0.263264
9265.000000;-0.263455
9264.000000;-0.263688
9263.000000;-0.263965
9262.000000;-0.264297
9261.000000;-0.264688
9260.000000;-0.265092
9259.000000;-0.265426
9258.000000;-0.265651
9257.000000;-0.265815
9256.000000;-0.265993
9255.000000;-0.266223
9254.000000;-0.266511
9253.000000;-0.266854
9252.000000;-0.267231
9251.000000;-0.267580
9250.000000;-0.267854
9249.000000;-0.268067
9248.000000;-0.268252
9247.000000;-0.268405
9246.000000;-0.268499
9245.000000;-0.268574
9244.000000;-0.268732
9243.000000;-0.269036
9242.000000;-0.269435
9241.000000;-0.269820
9240.000000;-0.270125
9239.000000;-0.270361
9238.000000;-0.270580
9237.000000;-0.270820
9236.000000;-0.271095
9235.000000;-0.271398
9234.000000;-0.271711
9233.000000;-0.272020
9232.000000;-0.272316
9231.000000;-0.272585
9230.000000;-0.272802
9229.000000;-0.272971
9228.000000;-0.273134
9227.000000;-0.273352
9226.000000;-0.273649
9225.000000;-0.274000
9224.000000;-0.274355
9223.000000;-0.274673
9222.000000;-0.274934
9221.000000;-0.275133
9220.000000;-0.275280
9219.000000;-0.275406
9218.000000;-0.275564
9217.000000;-0.275804
9216.000000;-0.276129
9215.000000;-0.276480
9214.000000;-0.276777
9213.000000;-0.276982
9212.000000;-0.277124
9211.000000;-0.277264
9210.000000;-0.277441
9209.000000;-0.277667
9208.000000;-0.277933
9207.000000;-0.278214
9206.000000;-0.278473
9205.000000;-0.278690
9204.000000;-0.278891
9203.000000;-0.279134
9202.000000;-0.279452
9201.000000;-0.279821
9200.000000;-0.280190
9199.000000;-0.280516
9198.000000;-0.280778
9197.000000;-0.280968
9196.000000;-0.281110
9195.000000;-0.281261
9194.000000;-0.281477
9193.000000;-0.281753
9192.000000;-0.282030
9191.000000;-0.282260
9190.000000;-0.282469
9189.000000;-0.282721
9188.000000;-0.283048
9187.000000;-0.283414
9186.000000;-0.283755
9185.000000;-0.284021
9184.000000;-0.284207
9183.000000;-0.284340
9182.000000;-0.284463
9181.000000;-0.284614
9180.000000;-0.284811
9179.000000;-0.285051
9178.000000;-0.285325
9177.000000;-0.285617
9176.000000;-0.285909
9175.000000;-0.286182
9174.000000;-0.286434
9173.000000;-0.286667
9172.000000;-0.286877
9171.000000;-0.287060
9170.000000;-0.287242
9169.000000;-0.287458
9168.000000;-0.287708
9167.000000;-0.287938
9166.000000;-0.288098
9165.000000;-0.288203
9164.000000;-0.288332
9163.000000;-0.288554
9162.000000;-0.288882
9161.000000;-0.289269
9160.000000;-0.289645
9159.000000;-0.289949
9158.000000;-0.290152
9157.000000;-0.290260
9156.000000;-0.290314
9155.000000;-0.290378
9154.000000;-0.290519
9153.000000;-0.290768
9152.000000;-0.291086
9151.000000;-0.291377
9150.000000;-0.291544
9149.000000;-0.291581
9148.000000;-0.291588
9147.000000;-0.291702
9146.000000;-0.292006
9145.000000;-0.292472
9144.000000;-0.292979
9143.000000;-0.293393
9142.000000;-0.293641
9141.000000;-0.293747
9140.000000;-0.293804
9139.000000;-0.293901
9138.000000;-0.294076
9137.000000;-0.294313
9136.000000;-0.294572
9135.000000;-0.294815
9134.000000;-0.295018
9133.000000;-0.295185
9132.000000;-0.295352
9131.000000;-0.295563
9130.000000;-0.295834
9129.000000;-0.296131
9128.000000;-0.296396
9127.000000;-0.296594
9126.000000;-0.296742
9125.000000;-0.296890
9124.000000;-0.297080
9123.000000;-0.297306
9122.000000;-0.297531
9121.000000;-0.297730
9120.000000;-0.297929
9119.000000;-0.298181
9118.000000;-0.298502
9117.000000;-0.298833
9116.000000;-0.299086
9115.000000;-0.299233
9114.000000;-0.299321
9113.000000;-0.299412
9112.000000;-0.299530
9111.000000;-0.299671
9110.000000;-0.299840
9109.000000;-0.300044
9108.000000;-0.300270
9107.000000;-0.300491
9106.000000;-0.300711
9105.000000;-0.300965
9104.000000;-0.301270
9103.000000;-0.301596
9102.000000;-0.301888
9101.000000;-0.302096
9100.000000;-0.302208
9099.000000;-0.302263
9098.000000;-0.302340
9097.000000;-0.302499
9096.000000;-0.302727
9095.000000;-0.302959
9094.000000;-0.303151
9093.000000;-0.303324
