Criado como novo conjunto de dados;"e2410_daniel_v2.spp","87126.4 Secs"
cm-1;Abs
10000.000000;0.098486
9999.000000;0.098472
9998.000000;0.098459
9997.000000;0.098445
9996.000000;0.098431
9995.000000;0.098418
9994.000000;0.098443
9993.000000;0.098494
9992.000000;0.098449
9991.000000;0.098227
9990.000000;0.097911
9989.000000;0.097648
9988.000000;0.097509
9987.000000;0.097481
9986.000000;0.097541
9985.000000;0.097670
9984.000000;0.097808
9983.000000;0.097882
9982.000000;0.097861
9981.000000;0.097776
9980.000000;0.097686
9979.000000;0.097659
9978.000000;0.097717
9977.000000;0.097790
9976.000000;0.097765
9975.000000;0.097621
9974.000000;0.097482
9973.000000;0.097461
9972.000000;0.097493
9971.000000;0.097395
9970.000000;0.097118
9969.000000;0.096844
9968.000000;0.096797
9967.000000;0.096986
9966.000000;0.097198
9965.000000;0.097233
9964.000000;0.097107
9963.000000;0.096976
9962.000000;0.096916
9961.000000;0.096848
9960.000000;0.096707
9959.000000;0.096589
9958.000000;0.096641
9957.000000;0.096832
9956.000000;0.096936
9955.000000;0.096766
9954.000000;0.096367
9953.000000;0.095949
9952.000000;0.095713
9951.000000;0.095768
9950.000000;0.096091
9949.000000;0.096500
9948.000000;0.096716
9947.000000;0.096583
9946.000000;0.096231
9945.000000;0.095936
9944.000000;0.095843
9943.000000;0.095890
9942.000000;0.095969
9941.000000;0.096048
9940.000000;0.096117
9939.000000;0.096132
9938.000000;0.096089
9937.000000;0.096083
9936.000000;0.096205
9935.000000;0.096422
9934.000000;0.096607
9933.000000;0.096667
9932.000000;0.096577
9931.000000;0.096320
9930.000000;0.095900
9929.000000;0.095421
9928.000000;0.095062
9927.000000;0.094928
9926.000000;0.094960
9925.000000;0.095037
9924.000000;0.095136
9923.000000;0.095313
9922.000000;0.095546
9921.000000;0.095692
9920.000000;0.095644
9919.000000;0.095477
9918.000000;0.095373
9917.000000;0.095401
9916.000000;0.095437
9915.000000;0.095322
9914.000000;0.095051
9913.000000;0.094780
9912.000000;0.094659
9911.000000;0.094698
9910.000000;0.094771
9909.000000;0.094742
9908.000000;0.094577
9907.000000;0.094371
9906.000000;0.094271
9905.000000;0.094345
9904.000000;0.094529
9903.000000;0.094701
9902.000000;0.094803
9901.000000;0.094871
9900.000000;0.094948
9899.000000;0.095023
9898.000000;0.095059
9897.000000;0.095050
9896.000000;0.095012
9895.000000;0.094945
9894.000000;0.094836
9893.000000;0.094705
9892.000000;0.094602
9891.000000;0.094554
9890.000000;0.094558
9889.000000;0.094606
9888.000000;0.094703
9887.000000;0.094821
9886.000000;0.094905
9885.000000;0.094924
9884.000000;0.094900
9883.000000;0.094838
9882.000000;0.094679
9881.000000;0.094379
9880.000000;0.094028
9879.000000;0.093803
9878.000000;0.093799
9877.000000;0.093952
9876.000000;0.094136
9875.000000;0.094269
9874.000000;0.094309
9873.000000;0.094226
9872.000000;0.094046
9871.000000;0.093866
9870.000000;0.093766
9869.000000;0.093727
9868.000000;0.093685
9867.000000;0.093633
9866.000000;0.093613
9865.000000;0.093631
9864.000000;0.093650
9863.000000;0.093659
9862.000000;0.093673
9861.000000;0.093672
9860.000000;0.093616
9859.000000;0.093520
9858.000000;0.093465
9857.000000;0.093481
9856.000000;0.093486
9855.000000;0.093376
9854.000000;0.093148
9853.000000;0.092920
9852.000000;0.092835
9851.000000;0.092959
9850.000000;0.093204
9849.000000;0.093356
9848.000000;0.093241
9847.000000;0.092908
9846.000000;0.092605
9845.000000;0.092532
9844.000000;0.092655
9843.000000;0.092789
9842.000000;0.092815
9841.000000;0.092782
9840.000000;0.092820
9839.000000;0.093008
9838.000000;0.093303
9837.000000;0.093550
9836.000000;0.093590
9835.000000;0.093373
9834.000000;0.092994
9833.000000;0.092605
9832.000000;0.092320
9831.000000;0.092225
9830.000000;0.092366
9829.000000;0.092675
9828.000000;0.092938
9827.000000;0.092943
9826.000000;0.092679
9825.000000;0.092333
9824.000000;0.092089
9823.000000;0.091990
9822.000000;0.091967
9821.000000;0.091950
9820.000000;0.091926
9819.000000;0.091930
9818.000000;0.092010
9817.000000;0.092172
9816.000000;0.092345
9815.000000;0.092435
9814.000000;0.092425
9813.000000;0.092390
9812.000000;0.092398
9811.000000;0.092447
9810.000000;0.092489
9809.000000;0.092500
9808.000000;0.092487
9807.000000;0.092460
9806.000000;0.092400
9805.000000;0.092266
9804.000000;0.092048
9803.000000;0.091816
9802.000000;0.091695
9801.000000;0.091751
9800.000000;0.091911
9799.000000;0.092026
9798.000000;0.092005
9797.000000;0.091858
9796.000000;0.091663
9795.000000;0.091539
9794.000000;0.091612
9793.000000;0.091889
9792.000000;0.092175
9791.000000;0.092203
9790.000000;0.091923
9789.000000;0.091556
9788.000000;0.091352
9787.000000;0.091350
9786.000000;0.091419
9785.000000;0.091449
9784.000000;0.091408
9783.000000;0.091296
9782.000000;0.091143
9781.000000;0.091033
9780.000000;0.091044
9779.000000;0.091163
9778.000000;0.091295
9777.000000;0.091353
9776.000000;0.091312
9775.000000;0.091194
9774.000000;0.091072
9773.000000;0.091040
9772.000000;0.091107
9771.000000;0.091139
9770.000000;0.090980
9769.000000;0.090652
9768.000000;0.090350
9767.000000;0.090247
9766.000000;0.090339
9765.000000;0.090498
9764.000000;0.090604
9763.000000;0.090629
9762.000000;0.090641
9761.000000;0.090746
9760.000000;0.090991
9759.000000;0.091297
9758.000000;0.091519
9757.000000;0.091584
9756.000000;0.091514
9755.000000;0.091344
9754.000000;0.091104
9753.000000;0.090865
9752.000000;0.090706
9751.000000;0.090605
9750.000000;0.090473
9749.000000;0.090328
9748.000000;0.090353
9747.000000;0.090648
9746.000000;0.091036
9745.000000;0.091229
9744.000000;0.091162
9743.000000;0.091032
9742.000000;0.091010
9741.000000;0.091039
9740.000000;0.090957
9739.000000;0.090730
9738.000000;0.090489
9737.000000;0.090382
9736.000000;0.090438
9735.000000;0.090569
9734.000000;0.090655
9733.000000;0.090644
9732.000000;0.090563
9731.000000;0.090464
9730.000000;0.090369
9729.000000;0.090298
9728.000000;0.090310
9727.000000;0.090441
9726.000000;0.090616
9725.000000;0.090693
9724.000000;0.090619
9723.000000;0.090491
9722.000000;0.090448
9721.000000;0.090534
9720.000000;0.090689
9719.000000;0.090816
9718.000000;0.090816
9717.000000;0.090634
9716.000000;0.090330
9715.000000;0.090071
9714.000000;0.089987
9713.000000;0.090050
9712.000000;0.090143
9711.000000;0.090200
9710.000000;0.090229
9709.000000;0.090220
9708.000000;0.090134
9707.000000;0.089996
9706.000000;0.089929
9705.000000;0.090024
9704.000000;0.090228
9703.000000;0.090391
9702.000000;0.090424
9701.000000;0.090358
9700.000000;0.090262
9699.000000;0.090136
9698.000000;0.089911
9697.000000;0.089558
9696.000000;0.089177
9695.000000;0.088964
9694.000000;0.089091
9693.000000;0.089570
9692.000000;0.090215
9691.000000;0.090724
9690.000000;0.090849
9689.000000;0.090565
9688.000000;0.090094
9687.000000;0.089721
9686.000000;0.089568
9685.000000;0.089565
9684.000000;0.089615
9683.000000;0.089721
9682.000000;0.089903
9681.000000;0.090078
9680.000000;0.090103
9679.000000;0.089942
9678.000000;0.089716
9677.000000;0.089584
9676.000000;0.089613
9675.000000;0.089740
9674.000000;0.089813
9673.000000;0.089674
9672.000000;0.089296
9671.000000;0.088861
9670.000000;0.088631
9669.000000;0.088706
9668.000000;0.088968
9667.000000;0.089261
9666.000000;0.089552
9665.000000;0.089865
9664.000000;0.090143
9663.000000;0.090278
9662.000000;0.090255
9661.000000;0.090167
9660.000000;0.090074
9659.000000;0.089933
9658.000000;0.089681
9657.000000;0.089338
9656.000000;0.089000
9655.000000;0.088736
9654.000000;0.088552
9653.000000;0.088422
9652.000000;0.088370
9651.000000;0.088456
9650.000000;0.088691
9649.000000;0.088962
9648.000000;0.089102
9647.000000;0.089070
9646.000000;0.088992
9645.000000;0.089011
9644.000000;0.089126
9643.000000;0.089243
9642.000000;0.089335
9641.000000;0.089455
9640.000000;0.089624
9639.000000;0.089775
9638.000000;0.089832
9637.000000;0.089772
9636.000000;0.089603
9635.000000;0.089341
9634.000000;0.089037
9633.000000;0.088785
9632.000000;0.088662
9631.000000;0.088677
9630.000000;0.088791
9629.000000;0.088915
9628.000000;0.088920
9627.000000;0.088728
9626.000000;0.088443
9625.000000;0.088333
9624.000000;0.088573
9623.000000;0.089033
9622.000000;0.089379
9621.000000;0.089369
9620.000000;0.089042
9619.000000;0.088619
9618.000000;0.088302
9617.000000;0.088161
9616.000000;0.088173
9615.000000;0.088310
9614.000000;0.088574
9613.000000;0.088934
9612.000000;0.089266
9611.000000;0.089409
9610.000000;0.089319
9609.000000;0.089109
9608.000000;0.088919
9607.000000;0.088799
9606.000000;0.088735
9605.000000;0.088722
9604.000000;0.088718
9603.000000;0.088620
9602.000000;0.088394
9601.000000;0.088194
9600.000000;0.088221
9599.000000;0.088453
9598.000000;0.088643
9597.000000;0.088617
9596.000000;0.088464
9595.000000;0.088370
9594.000000;0.088385
9593.000000;0.088426
9592.000000;0.088428
9591.000000;0.088371
9590.000000;0.088208
9589.000000;0.087917
9588.000000;0.087633
9587.000000;0.087582
9586.000000;0.087828
9585.000000;0.088166
9584.000000;0.088320
9583.000000;0.088226
9582.000000;0.088076
9581.000000;0.088112
9580.000000;0.088406
9579.000000;0.088808
9578.000000;0.089061
9577.000000;0.088995
9576.000000;0.088664
9575.000000;0.088303
9574.000000;0.088126
9573.000000;0.088170
9572.000000;0.088324
9571.000000;0.088486
9570.000000;0.088619
9569.000000;0.088700
9568.000000;0.088692
9567.000000;0.088611
9566.000000;0.088544
9565.000000;0.088555
9564.000000;0.088601
9563.000000;0.088620
9562.000000;0.088651
9561.000000;0.088782
9560.000000;0.088979
9559.000000;0.089071
9558.000000;0.088950
9557.000000;0.088701
9556.000000;0.088471
9555.000000;0.088290
9554.000000;0.088115
9553.000000;0.087988
9552.000000;0.088004
9551.000000;0.088131
9550.000000;0.088199
9549.000000;0.088110
9548.000000;0.087975
9547.000000;0.087964
9546.000000;0.088090
9545.000000;0.088230
9544.000000;0.088324
9543.000000;0.088453
9542.000000;0.088686
9541.000000;0.088949
9540.000000;0.089071
9539.000000;0.088957
9538.000000;0.088679
9537.000000;0.088408
9536.000000;0.088277
9535.000000;0.088293
9534.000000;0.088378
9533.000000;0.088466
9532.000000;0.088558
9531.000000;0.088672
9530.000000;0.088788
9529.000000;0.088847
9528.000000;0.088796
9527.000000;0.088638
9526.000000;0.088436
9525.000000;0.088288
9524.000000;0.088269
9523.000000;0.088374
9522.000000;0.088526
9521.000000;0.088630
9520.000000;0.088621
9519.000000;0.088475
9518.000000;0.088236
9517.000000;0.088038
9516.000000;0.088030
9515.000000;0.088226
9514.000000;0.088463
9513.000000;0.088571
9512.000000;0.088541
9511.000000;0.088479
9510.000000;0.088433
9509.000000;0.088376
9508.000000;0.088338
9507.000000;0.088427
9506.000000;0.088674
9505.000000;0.088930
9504.000000;0.088993
9503.000000;0.088813
9502.000000;0.088493
9501.000000;0.088151
9500.000000;0.087846
9499.000000;0.087632
9498.000000;0.087596
9497.000000;0.087795
9496.000000;0.088151
9495.000000;0.088464
9494.000000;0.088541
9493.000000;0.088356
9492.000000;0.088084
9491.000000;0.087951
9490.000000;0.088033
9489.000000;0.088213
9488.000000;0.088333
9487.000000;0.088349
9486.000000;0.088322
9485.000000;0.088310
9484.000000;0.088338
9483.000000;0.088420
9482.000000;0.088550
9481.000000;0.088663
9480.000000;0.088700
9479.000000;0.088712
9478.000000;0.088825
9477.000000;0.089066
9476.000000;0.089278
9475.000000;0.089267
9474.000000;0.088998
9473.000000;0.088614
9472.000000;0.088281
9471.000000;0.088091
9470.000000;0.088070
9469.000000;0.088225
9468.000000;0.088512
9467.000000;0.088804
9466.000000;0.088943
9465.000000;0.088857
9464.000000;0.088617
9463.000000;0.088387
9462.000000;0.088285
9461.000000;0.088318
9460.000000;0.088418
9459.000000;0.088530
9458.000000;0.088629
9457.000000;0.088668
9456.000000;0.088591
9455.000000;0.088426
9454.000000;0.088315
9453.000000;0.088380
9452.000000;0.088581
9451.000000;0.088749
9450.000000;0.088768
9449.000000;0.088673
9448.000000;0.088560
9447.000000;0.088473
9446.000000;0.088389
9445.000000;0.088297
9444.000000;0.088240
9443.000000;0.088300
9442.000000;0.088519
9441.000000;0.088820
9440.000000;0.089022
9439.000000;0.089008
9438.000000;0.088867
9437.000000;0.088795
9436.000000;0.088857
9435.000000;0.088916
9434.000000;0.088858
9433.000000;0.088775
9432.000000;0.088850
9431.000000;0.089093
9430.000000;0.089301
9429.000000;0.089260
9428.000000;0.088933
9427.000000;0.088439
9426.000000;0.087958
9425.000000;0.087651
9424.000000;0.087622
9423.000000;0.087852
9422.000000;0.088206
9421.000000;0.088509
9420.000000;0.088652
9419.000000;0.088667
9418.000000;0.088699
9417.000000;0.088863
9416.000000;0.089104
9415.000000;0.089224
9414.000000;0.089126
9413.000000;0.088955
9412.000000;0.088929
9411.000000;0.089044
9410.000000;0.089082
9409.000000;0.088905
9408.000000;0.088627
9407.000000;0.088462
9406.000000;0.088516
9405.000000;0.088750
9404.000000;0.089060
9403.000000;0.089303
9402.000000;0.089334
9401.000000;0.089133
9400.000000;0.088865
9399.000000;0.088741
9398.000000;0.088861
9397.000000;0.089182
9396.000000;0.089583
9395.000000;0.089890
9394.000000;0.089942
9393.000000;0.089729
9392.000000;0.089437
9391.000000;0.089252
9390.000000;0.089185
9389.000000;0.089144
9388.000000;0.089116
9387.000000;0.089139
9386.000000;0.089162
9385.000000;0.089088
9384.000000;0.088960
9383.000000;0.088943
9382.000000;0.089095
9381.000000;0.089275
9380.000000;0.089354
9379.000000;0.089360
9378.000000;0.089373
9377.000000;0.089378
9376.000000;0.089338
9375.000000;0.089296
9374.000000;0.089302
9373.000000;0.089300
9372.000000;0.089208
9371.000000;0.089051
9370.000000;0.088927
9369.000000;0.088876
9368.000000;0.088899
9367.000000;0.089048
9366.000000;0.089367
9365.000000;0.089732
9364.000000;0.089890
9363.000000;0.089703
9362.000000;0.089311
9361.000000;0.088992
9360.000000;0.088920
9359.000000;0.089047
9358.000000;0.089197
9357.000000;0.089242
9356.000000;0.089236
9355.000000;0.089348
9354.000000;0.089634
9353.000000;0.089891
9352.000000;0.089845
9351.000000;0.089474
9350.000000;0.089045
9349.000000;0.088819
9348.000000;0.088826
9347.000000;0.088954
9346.000000;0.089124
9345.000000;0.089294
9344.000000;0.089395
9343.000000;0.089384
9342.000000;0.089326
9341.000000;0.089304
9340.000000;0.089299
9339.000000;0.089246
9338.000000;0.089185
9337.000000;0.089231
9336.000000;0.089392
9335.000000;0.089533
9334.000000;0.089545
9333.000000;0.089467
9332.000000;0.089406
9331.000000;0.089419
9330.000000;0.089497
9329.000000;0.089595
9328.000000;0.089624
9327.000000;0.089509
9326.000000;0.089299
9325.000000;0.089187
9324.000000;0.089330
9323.000000;0.089686
9322.000000;0.090056
9321.000000;0.090247
9320.000000;0.090173
9319.000000;0.089873
9318.000000;0.089500
9317.000000;0.089266
9316.000000;0.089282
9315.000000;0.089466
9314.000000;0.089646
9313.000000;0.089768
9312.000000;0.089903
9311.000000;0.090080
9310.000000;0.090201
9309.000000;0.090157
9308.000000;0.089981
9307.000000;0.089815
9306.000000;0.089749
9305.000000;0.089743
9304.000000;0.089704
9303.000000;0.089616
9302.000000;0.089572
9301.000000;0.089673
9300.000000;0.089888
9299.000000;0.090067
9298.000000;0.090087
9297.000000;0.089978
9296.000000;0.089859
9295.000000;0.089803
9294.000000;0.089814
9293.000000;0.089911
9292.000000;0.090130
9291.000000;0.090425
9290.000000;0.090645
9289.000000;0.090673
9288.000000;0.090561
9287.000000;0.090472
9286.000000;0.090507
9285.000000;0.090633
9284.000000;0.090760
9283.000000;0.090834
9282.000000;0.090867
9281.000000;0.090902
9280.000000;0.090964
9279.000000;0.091031
9278.000000;0.091031
9277.000000;0.090899
9276.000000;0.090643
9275.000000;0.090352
9274.000000;0.090117
9273.000000;0.089949
9272.000000;0.089787
9271.000000;0.089609
9270.000000;0.089498
9269.000000;0.089572
9268.000000;0.089836
9267.000000;0.090139
9266.000000;0.090316
9265.000000;0.090333
9264.000000;0.090277
9263.000000;0.090229
9262.000000;0.090220
9261.000000;0.090275
9260.000000;0.090434
9259.000000;0.090686
9258.000000;0.090935
9257.000000;0.091071
9256.000000;0.091080
9255.000000;0.091064
9254.000000;0.091148
9253.000000;0.091352
9252.000000;0.091550
9251.000000;0.091563
9250.000000;0.091330
9249.000000;0.090979
9248.000000;0.090726
9247.000000;0.090710
9246.000000;0.090930
9245.000000;0.091293
9244.000000;0.091662
9243.000000;0.091883
9242.000000;0.091886
9241.000000;0.091775
9240.000000;0.091761
9239.000000;0.091958
9238.000000;0.092260
9237.000000;0.092450
9236.000000;0.092405
9235.000000;0.092183
9234.000000;0.091947
9233.000000;0.091810
9232.000000;0.091747
9231.000000;0.091633
9230.000000;0.091427
9229.000000;0.091279
9228.000000;0.091401
9227.000000;0.091802
9226.000000;0.092211
9225.000000;0.092323
9224.000000;0.092096
9223.000000;0.091776
9222.000000;0.091662
9221.000000;0.091860
9220.000000;0.092211
9219.000000;0.092423
9218.000000;0.092290
9217.000000;0.091866
9216.000000;0.091428
9215.000000;0.091253
9214.000000;0.091424
9213.000000;0.091817
9212.000000;0.092221
9211.000000;0.092469
9210.000000;0.092534
9209.000000;0.092536
9208.000000;0.092620
9207.000000;0.092798
9206.000000;0.092956
9205.000000;0.093009
9204.000000;0.092987
9203.000000;0.092931
9202.000000;0.092819
9201.000000;0.092655
9200.000000;0.092549
9199.000000;0.092589
9198.000000;0.092695
9197.000000;0.092692
9196.000000;0.092529
9195.000000;0.092343
9194.000000;0.092299
9193.000000;0.092444
9192.000000;0.092713
9191.000000;0.092982
9190.000000;0.093110
9189.000000;0.093017
9188.000000;0.092781
9187.000000;0.092599
9186.000000;0.092611
9185.000000;0.092766
9184.000000;0.092899
9183.000000;0.092902
9182.000000;0.092805
9181.000000;0.092724
9180.000000;0.092762
9179.000000;0.092938
9178.000000;0.093173
9177.000000;0.093342
9176.000000;0.093338
9175.000000;0.093135
9174.000000;0.092811
9173.000000;0.092521
9172.000000;0.092406
9171.000000;0.092499
9170.000000;0.092714
9169.000000;0.092952
9168.000000;0.093176
9167.000000;0.093370
9166.000000;0.093464
9165.000000;0.093374
9164.000000;0.093111
9163.000000;0.092808
9162.000000;0.092616
9161.000000;0.092589
9160.000000;0.092654
9159.000000;0.092703
9158.000000;0.092723
9157.000000;0.092831
9156.000000;0.093119
9155.000000;0.093476
9154.000000;0.093644
9153.000000;0.093514
9152.000000;0.093280
9151.000000;0.093214
9150.000000;0.093354
9149.000000;0.093519
9148.000000;0.093603
9147.000000;0.093673
9146.000000;0.093780
9145.000000;0.093817
9144.000000;0.093670
9143.000000;0.093422
9142.000000;0.093277
9141.000000;0.093328
9140.000000;0.093486
9139.000000;0.093628
9138.000000;0.093723
9137.000000;0.093790
9136.000000;0.093819
9135.000000;0.093789
9134.000000;0.093741
9133.000000;0.093750
9132.000000;0.093822
9131.000000;0.093869
9130.000000;0.093825
9129.000000;0.093752
9128.000000;0.093775
9127.000000;0.093925
9126.000000;0.094107
9125.000000;0.094217
9124.000000;0.094242
9123.000000;0.094222
9122.000000;0.094201
9121.000000;0.094251
9120.000000;0.094443
9119.000000;0.094743
9118.000000;0.094975
9117.000000;0.095004
9116.000000;0.094902
9115.000000;0.094856
9114.000000;0.094927
9113.000000;0.095017
9112.000000;0.095053
9111.000000;0.095103
9110.000000;0.095256
9109.000000;0.095483
9108.000000;0.095667
9107.000000;0.095715
9106.000000;0.095602
9105.000000;0.095354
9104.000000;0.095059
9103.000000;0.094836
9102.000000;0.094763
9101.000000;0.094809
9100.000000;0.094896
9099.000000;0.094980
9098.000000;0.095080
9097.000000;0.095235
9096.000000;0.095441
9095.000000;0.095638
9094.000000;0.095747
9093.000000;0.095740
9092.000000;0.095653
9091.000000;0.095533
9090.000000;0.095389
9089.000000;0.095243
9088.000000;0.095195
9087.000000;0.095351
9086.000000;0.095691
9085.000000;0.096056
9084.000000;0.096281
9083.000000;0.096325
9082.000000;0.096253
9081.000000;0.096166
9080.000000;0.096136
9079.000000;0.096155
9078.000000;0.096142
9077.000000;0.096037
9076.000000;0.095906
9075.000000;0.095888
9074.000000;0.096029
9073.000000;0.096229
9072.000000;0.096356
9071.000000;0.096357
9070.000000;0.096255
9069.000000;0.096116
9068.000000;0.096040
9067.000000;0.096112
9066.000000;0.096308
9065.000000;0.096515
9064.000000;0.096681
9063.000000;0.096832
9062.000000;0.096935
9061.000000;0.096843
9060.000000;0.096519
9059.000000;0.096203
9058.000000;0.096194
9057.000000;0.096496
9056.000000;0.096791
9055.000000;0.096798
9054.000000;0.096550
9053.000000;0.096302
