Criado como novo conjunto de dados;"e2410_daniel_v2.spp","73265.6 Secs"
cm-1;Abs
10000.000000;1.462618
9999.000000;1.463212
9998.000000;1.463808
9997.000000;1.464404
9996.000000;1.465001
9995.000000;1.465599
9994.000000;1.466197
9993.000000;1.466799
9992.000000;1.467396
9991.000000;1.468004
9990.000000;1.468592
9989.000000;1.469232
9988.000000;1.469680
9987.000000;1.469531
9986.000000;1.468643
9985.000000;1.467159
9984.000000;1.465471
9983.000000;1.463830
9982.000000;1.462473
9981.000000;1.461928
9980.000000;1.462638
9979.000000;1.464104
9978.000000;1.464975
9977.000000;1.464396
9976.000000;1.462877
9975.000000;1.461568
9974.000000;1.461055
9973.000000;1.461120
9972.000000;1.461248
9971.000000;1.460953
9970.000000;1.459903
9969.000000;1.458224
9968.000000;1.456625
9967.000000;1.455867
9966.000000;1.456085
9965.000000;1.456744
9964.000000;1.457139
9963.000000;1.456802
9962.000000;1.455691
9961.000000;1.454283
9960.000000;1.453384
9959.000000;1.453450
9958.000000;1.454032
9957.000000;1.454070
9956.000000;1.452929
9955.000000;1.451137
9954.000000;1.450019
9953.000000;1.450425
9952.000000;1.451720
9951.000000;1.452191
9950.000000;1.450716
9949.000000;1.448003
9948.000000;1.445806
9947.000000;1.445040
9946.000000;1.445071
9945.000000;1.444839
9944.000000;1.444167
9943.000000;1.443680
9942.000000;1.443815
9941.000000;1.444344
9940.000000;1.444721
9939.000000;1.444574
9938.000000;1.443942
9937.000000;1.443228
9936.000000;1.442866
9935.000000;1.442871
9934.000000;1.442793
9933.000000;1.442227
9932.000000;1.441217
9931.000000;1.440052
9930.000000;1.438856
9929.000000;1.437612
9928.000000;1.436522
9927.000000;1.436110
9926.000000;1.436834
9925.000000;1.438483
9924.000000;1.439985
9923.000000;1.440061
9922.000000;1.438386
9921.000000;1.435974
9920.000000;1.434159
9919.000000;1.433361
9918.000000;1.433105
9917.000000;1.432966
9916.000000;1.432922
9915.000000;1.432848
9914.000000;1.432320
9913.000000;1.431220
9912.000000;1.430020
9911.000000;1.429146
9910.000000;1.428467
9909.000000;1.427678
9908.000000;1.426853
9907.000000;1.426314
9906.000000;1.426199
9905.000000;1.426434
9904.000000;1.426934
9903.000000;1.427566
9902.000000;1.428063
9901.000000;1.428190
9900.000000;1.427814
9899.000000;1.426798
9898.000000;1.425168
9897.000000;1.423531
9896.000000;1.422833
9895.000000;1.423324
9894.000000;1.424100
9893.000000;1.424083
9892.000000;1.423218
9891.000000;1.422346
9890.000000;1.422127
9889.000000;1.422507
9888.000000;1.423032
9887.000000;1.423220
9886.000000;1.422725
9885.000000;1.421548
9884.000000;1.420130
9883.000000;1.418943
9882.000000;1.417994
9881.000000;1.416956
9880.000000;1.415746
9879.000000;1.414702
9878.000000;1.414168
9877.000000;1.414122
9876.000000;1.414226
9875.000000;1.414032
9874.000000;1.413202
9873.000000;1.411797
9872.000000;1.410361
9871.000000;1.409502
9870.000000;1.409320
9869.000000;1.409338
9868.000000;1.409032
9867.000000;1.408320
9866.000000;1.407490
9865.000000;1.406748
9864.000000;1.405921
9863.000000;1.404679
9862.000000;1.403113
9861.000000;1.402020
9860.000000;1.402387
9859.000000;1.404399
9858.000000;1.407006
9857.000000;1.408630
9856.000000;1.408449
9855.000000;1.406995
9854.000000;1.405546
9853.000000;1.404993
9852.000000;1.405185
9851.000000;1.405223
9850.000000;1.404375
9849.000000;1.402729
9848.000000;1.400997
9847.000000;1.399805
9846.000000;1.399283
9845.000000;1.399211
9844.000000;1.399290
9843.000000;1.399239
9842.000000;1.398858
9841.000000;1.398167
9840.000000;1.397452
9839.000000;1.397121
9838.000000;1.397438
9837.000000;1.398213
9836.000000;1.398633
9835.000000;1.397705
9834.000000;1.395176
9833.000000;1.391967
9832.000000;1.389477
9831.000000;1.388589
9830.000000;1.389347
9829.000000;1.391144
9828.000000;1.392804
9827.000000;1.392935
9826.000000;1.391070
9825.000000;1.388524
9824.000000;1.387377
9823.000000;1.388308
9822.000000;1.389886
9821.000000;1.390235
9820.000000;1.389021
9819.000000;1.387360
9818.000000;1.386210
9817.000000;1.385462
9816.000000;1.384495
9815.000000;1.383051
9814.000000;1.381480
9813.000000;1.380366
9812.000000;1.380057
9811.000000;1.380406
9810.000000;1.380886
9809.000000;1.380966
9808.000000;1.380463
9807.000000;1.379663
9806.000000;1.379092
9805.000000;1.379049
9804.000000;1.379228
9803.000000;1.378944
9802.000000;1.377938
9801.000000;1.376776
9800.000000;1.376189
9799.000000;1.376204
9798.000000;1.376277
9797.000000;1.376103
9796.000000;1.375797
9795.000000;1.375363
9794.000000;1.374593
9793.000000;1.373648
9792.000000;1.373120
9791.000000;1.373153
9790.000000;1.373002
9789.000000;1.371926
9788.000000;1.370244
9787.000000;1.368990
9786.000000;1.368646
9785.000000;1.368627
9784.000000;1.368084
9783.000000;1.366928
9782.000000;1.365906
9781.000000;1.365703
9780.000000;1.366122
9779.000000;1.366246
9778.000000;1.365444
9777.000000;1.364019
9776.000000;1.362731
9775.000000;1.361916
9774.000000;1.361393
9773.000000;1.360997
9772.000000;1.360777
9771.000000;1.360690
9770.000000;1.360580
9769.000000;1.360520
9768.000000;1.360820
9767.000000;1.361540
9766.000000;1.362277
9765.000000;1.362466
9764.000000;1.361682
9763.000000;1.359822
9762.000000;1.357436
9761.000000;1.355762
9760.000000;1.355787
9759.000000;1.357071
9758.000000;1.357979
9757.000000;1.357314
9756.000000;1.355416
9755.000000;1.353488
9754.000000;1.352386
9753.000000;1.352304
9752.000000;1.353032
9751.000000;1.354076
9750.000000;1.354831
9749.000000;1.355022
9748.000000;1.354778
9747.000000;1.354164
9746.000000;1.353007
9745.000000;1.351382
9744.000000;1.349856
9743.000000;1.348965
9742.000000;1.348726
9741.000000;1.348827
9740.000000;1.348905
9739.000000;1.348453
9738.000000;1.347031
9737.000000;1.344937
9736.000000;1.343262
9735.000000;1.342862
9734.000000;1.343561
9733.000000;1.344575
9732.000000;1.345323
9731.000000;1.345516
9730.000000;1.344970
9729.000000;1.343864
9728.000000;1.342853
9727.000000;1.342432
9726.000000;1.342388
9725.000000;1.342245
9724.000000;1.341922
9723.000000;1.341534
9722.000000;1.340912
9721.000000;1.339918
9720.000000;1.338983
9719.000000;1.338728
9718.000000;1.339128
9717.000000;1.339582
9716.000000;1.339709
9715.000000;1.339579
9714.000000;1.339199
9713.000000;1.338349
9712.000000;1.336995
9711.000000;1.335443
9710.000000;1.333988
9709.000000;1.332722
9708.000000;1.331745
9707.000000;1.331232
9706.000000;1.331191
9705.000000;1.331341
9704.000000;1.331278
9703.000000;1.330693
9702.000000;1.329537
9701.000000;1.328185
9700.000000;1.327284
9699.000000;1.327235
9698.000000;1.327838
9697.000000;1.328575
9696.000000;1.329081
9695.000000;1.329202
9694.000000;1.328850
9693.000000;1.328095
9692.000000;1.327216
9691.000000;1.326369
9690.000000;1.325370
9689.000000;1.324077
9688.000000;1.322806
9687.000000;1.322052
9686.000000;1.321868
9685.000000;1.321831
9684.000000;1.321530
9683.000000;1.320907
9682.000000;1.320203
9681.000000;1.319761
9680.000000;1.319789
9679.000000;1.320154
9678.000000;1.320537
9677.000000;1.320844
9676.000000;1.321186
9675.000000;1.321362
9674.000000;1.320874
9673.000000;1.319759
9672.000000;1.318929
9671.000000;1.319130
9670.000000;1.319917
9669.000000;1.320185
9668.000000;1.319475
9667.000000;1.318162
9666.000000;1.316601
9665.000000;1.314851
9664.000000;1.313203
9663.000000;1.312169
9662.000000;1.311783
9661.000000;1.311457
9660.000000;1.310782
9659.000000;1.310057
9658.000000;1.309818
9657.000000;1.310219
9656.000000;1.311032
9655.000000;1.311916
9654.000000;1.312467
9653.000000;1.312311
9652.000000;1.311414
9651.000000;1.310174
9650.000000;1.309073
9649.000000;1.308330
9648.000000;1.307885
9647.000000;1.307506
9646.000000;1.306931
9645.000000;1.306085
9644.000000;1.305205
9643.000000;1.304586
9642.000000;1.304236
9641.000000;1.303962
9640.000000;1.303653
9639.000000;1.303256
9638.000000;1.302650
9637.000000;1.301858
9636.000000;1.301242
9635.000000;1.301102
9634.000000;1.301182
9633.000000;1.301004
9632.000000;1.300598
9631.000000;1.300411
9630.000000;1.300489
9629.000000;1.300332
9628.000000;1.299687
9627.000000;1.298868
9626.000000;1.298035
9625.000000;1.296768
9624.000000;1.294842
9623.000000;1.293038
9622.000000;1.292580
9621.000000;1.293747
9620.000000;1.295429
9619.000000;1.296173
9618.000000;1.295507
9617.000000;1.294197
9616.000000;1.293325
9615.000000;1.293218
9614.000000;1.293302
9613.000000;1.292904
9612.000000;1.292031
9611.000000;1.291192
9610.000000;1.290629
9609.000000;1.290093
9608.000000;1.289367
9607.000000;1.288629
9606.000000;1.288137
9605.000000;1.287813
9604.000000;1.287360
9603.000000;1.286625
9602.000000;1.285721
9601.000000;1.284925
9600.000000;1.284540
9599.000000;1.284668
9598.000000;1.285051
9597.000000;1.285304
9596.000000;1.285362
9595.000000;1.285396
9594.000000;1.285266
9593.000000;1.284435
9592.000000;1.282696
9591.000000;1.280659
9590.000000;1.279213
9589.000000;1.278693
9588.000000;1.278863
9587.000000;1.279462
9586.000000;1.280359
9585.000000;1.281276
9584.000000;1.281800
9583.000000;1.281776
9582.000000;1.281416
9581.000000;1.280939
9580.000000;1.280316
9579.000000;1.279444
9578.000000;1.278342
9577.000000;1.277105
9576.000000;1.275872
9575.000000;1.274880
9574.000000;1.274361
9573.000000;1.274262
9572.000000;1.274263
9571.000000;1.274183
9570.000000;1.274195
9569.000000;1.274434
9568.000000;1.274572
9567.000000;1.274077
9566.000000;1.272899
9565.000000;1.271604
9564.000000;1.270751
9563.000000;1.270306
9562.000000;1.269782
9561.000000;1.268800
9560.000000;1.267439
9559.000000;1.266157
9558.000000;1.265483
9557.000000;1.265643
9556.000000;1.266311
9555.000000;1.266784
9554.000000;1.266583
9553.000000;1.265842
9552.000000;1.265005
9551.000000;1.264288
9550.000000;1.263682
9549.000000;1.263327
9548.000000;1.263484
9547.000000;1.263992
9546.000000;1.264117
9545.000000;1.263228
9544.000000;1.261551
9543.000000;1.260035
9542.000000;1.259526
9541.000000;1.260130
9540.000000;1.261194
9539.000000;1.261797
9538.000000;1.261484
9537.000000;1.260672
9536.000000;1.260220
9535.000000;1.260484
9534.000000;1.260984
9533.000000;1.261100
9532.000000;1.260803
9531.000000;1.260427
9530.000000;1.260037
9529.000000;1.259503
9528.000000;1.259035
9527.000000;1.259013
9526.000000;1.259233
9525.000000;1.258885
9524.000000;1.257591
9523.000000;1.256054
9522.000000;1.255290
9521.000000;1.255493
9520.000000;1.255998
9519.000000;1.256169
9518.000000;1.255904
9517.000000;1.255353
9516.000000;1.254548
9515.000000;1.253501
9514.000000;1.252381
9513.000000;1.251419
9512.000000;1.250710
9511.000000;1.250211
9510.000000;1.249820
9509.000000;1.249410
9508.000000;1.248859
9507.000000;1.248155
9506.000000;1.247422
9505.000000;1.246802
9504.000000;1.246351
9503.000000;1.246060
9502.000000;1.245890
9501.000000;1.245740
9500.000000;1.245513
9499.000000;1.245288
9498.000000;1.245323
9497.000000;1.245711
9496.000000;1.246098
9495.000000;1.245910
9494.000000;1.244919
9493.000000;1.243452
9492.000000;1.242031
9491.000000;1.240967
9490.000000;1.240365
9489.000000;1.240304
9488.000000;1.240738
9487.000000;1.241280
9486.000000;1.241364
9485.000000;1.240759
9484.000000;1.239780
9483.000000;1.238849
9482.000000;1.237942
9481.000000;1.236640
9480.000000;1.234790
9479.000000;1.232972
9478.000000;1.232156
9477.000000;1.232839
9476.000000;1.234525
9475.000000;1.236110
9474.000000;1.236773
9473.000000;1.236510
9472.000000;1.235851
9471.000000;1.235247
9470.000000;1.234802
9469.000000;1.234431
9468.000000;1.234084
9467.000000;1.233801
9466.000000;1.233673
9465.000000;1.233719
9464.000000;1.233717
9463.000000;1.233198
9462.000000;1.231823
9461.000000;1.229837
9460.000000;1.228040
9459.000000;1.227207
9458.000000;1.227511
9457.000000;1.228454
9456.000000;1.229244
9455.000000;1.229315
9454.000000;1.228665
9453.000000;1.227810
9452.000000;1.227318
9451.000000;1.227345
9450.000000;1.227627
9449.000000;1.227899
9448.000000;1.228114
9447.000000;1.228201
9446.000000;1.227859
9445.000000;1.226841
9444.000000;1.225354
9443.000000;1.223984
9442.000000;1.223178
9441.000000;1.222902
9440.000000;1.222825
9439.000000;1.222724
9438.000000;1.222627
9437.000000;1.222604
9436.000000;1.222523
9435.000000;1.222103
9434.000000;1.221214
9433.000000;1.220123
9432.000000;1.219358
9431.000000;1.219227
9430.000000;1.219463
9429.000000;1.219436
9428.000000;1.218791
9427.000000;1.217834
9426.000000;1.217235
9425.000000;1.217337
9424.000000;1.217825
9423.000000;1.218051
9422.000000;1.217630
9421.000000;1.216730
9420.000000;1.215858
9419.000000;1.215380
9418.000000;1.215219
9417.000000;1.214951
9416.000000;1.214258
9415.000000;1.213347
9414.000000;1.212813
9413.000000;1.212986
9412.000000;1.213513
9411.000000;1.213761
9410.000000;1.213573
9409.000000;1.213403
9408.000000;1.213641
9407.000000;1.214072
9406.000000;1.214167
9405.000000;1.213764
9404.000000;1.213227
9403.000000;1.212942
9402.000000;1.212868
9401.000000;1.212611
9400.000000;1.211832
9399.000000;1.210544
9398.000000;1.209066
9397.000000;1.207750
9396.000000;1.206764
9395.000000;1.206138
9394.000000;1.205915
9393.000000;1.206117
9392.000000;1.206559
9391.000000;1.206880
9390.000000;1.206836
9389.000000;1.206463
9388.000000;1.205920
9387.000000;1.205293
9386.000000;1.204658
9385.000000;1.204188
9384.000000;1.204038
9383.000000;1.204184
9382.000000;1.204428
9381.000000;1.204508
9380.000000;1.204146
9379.000000;1.203168
9378.000000;1.201748
9377.000000;1.200425
9376.000000;1.199711
9375.000000;1.199686
9374.000000;1.200046
9373.000000;1.200408
9372.000000;1.200494
9371.000000;1.200169
9370.000000;1.199488
9369.000000;1.198646
9368.000000;1.197767
9367.000000;1.196867
9366.000000;1.196107
9365.000000;1.195848
9364.000000;1.196183
9363.000000;1.196595
9362.000000;1.196463
9361.000000;1.195795
9360.000000;1.195091
9359.000000;1.194545
9358.000000;1.193858
9357.000000;1.192902
9356.000000;1.192104
9355.000000;1.191941
9354.000000;1.192352
9353.000000;1.192898
9352.000000;1.193276
9351.000000;1.193412
9350.000000;1.193219
9349.000000;1.192599
9348.000000;1.191674
9347.000000;1.190753
9346.000000;1.190041
9345.000000;1.189496
9344.000000;1.189050
9343.000000;1.188791
9342.000000;1.188790
9341.000000;1.188850
9340.000000;1.188596
9339.000000;1.187833
9338.000000;1.186778
9337.000000;1.185897
9336.000000;1.185547
9335.000000;1.185814
9334.000000;1.186554
9333.000000;1.187457
9332.000000;1.188108
9331.000000;1.188250
9330.000000;1.188029
9329.000000;1.187788
9328.000000;1.187534
9327.000000;1.186880
9326.000000;1.185665
9325.000000;1.184369
9324.000000;1.183640
9323.000000;1.183588
9322.000000;1.183795
9321.000000;1.183861
9320.000000;1.183641
9319.000000;1.183140
9318.000000;1.182555
9317.000000;1.182361
9316.000000;1.182902
9315.000000;1.183800
9314.000000;1.184126
9313.000000;1.183318
9312.000000;1.181680
9311.000000;1.179928
9310.000000;1.178544
9309.000000;1.177695
9308.000000;1.177431
9307.000000;1.177689
9306.000000;1.178216
9305.000000;1.178675
9304.000000;1.178804
9303.000000;1.178474
9302.000000;1.177726
9301.000000;1.176839
9300.000000;1.176181
9299.000000;1.175901
9298.000000;1.175832
9297.000000;1.175719
9296.000000;1.175433
9295.000000;1.174963
9294.000000;1.174374
9293.000000;1.173832
9292.000000;1.173474
9291.000000;1.173255
9290.000000;1.173061
9289.000000;1.172971
9288.000000;1.173161
9287.000000;1.173496
9286.000000;1.173504
9285.000000;1.172897
9284.000000;1.171958
9283.000000;1.171235
9282.000000;1.171002
9281.000000;1.171115
9280.000000;1.171233
9279.000000;1.171068
9278.000000;1.170554
9277.000000;1.169889
9276.000000;1.169334
9275.000000;1.168891
9274.000000;1.168312
9273.000000;1.167480
9272.000000;1.166611
9271.000000;1.165980
9270.000000;1.165586
9269.000000;1.165275
9268.000000;1.165087
9267.000000;1.165304
9266.000000;1.166093
9265.000000;1.167153
9264.000000;1.167791
9263.000000;1.167459
9262.000000;1.166332
9261.000000;1.165260
9260.000000;1.165013
9259.000000;1.165589
9258.000000;1.166325
9257.000000;1.166595
9256.000000;1.166236
9255.000000;1.165415
9254.000000;1.164436
9253.000000;1.163662
9252.000000;1.163273
9251.000000;1.163002
9250.000000;1.162417
9249.000000;1.161528
9248.000000;1.160807
9247.000000;1.160478
9246.000000;1.160179
9245.000000;1.159567
9244.000000;1.158938
9243.000000;1.158887
9242.000000;1.159484
9241.000000;1.160114
9240.000000;1.160092
9239.000000;1.159234
9238.000000;1.157895
9237.000000;1.156661
9236.000000;1.155951
9235.000000;1.155752
9234.000000;1.155711
9233.000000;1.155562
9232.000000;1.155366
9231.000000;1.155277
9230.000000;1.155274
9229.000000;1.155303
9228.000000;1.155478
9227.000000;1.155869
9226.000000;1.156234
9225.000000;1.156256
9224.000000;1.155992
9223.000000;1.155798
9222.000000;1.155790
9221.000000;1.155688
9220.000000;1.155248
9219.000000;1.154576
9218.000000;1.153892
9217.000000;1.153223
9216.000000;1.152484
9215.000000;1.151688
9214.000000;1.150897
9213.000000;1.150104
9212.000000;1.149327
9211.000000;1.148739
9210.000000;1.148521
9209.000000;1.148648
9208.000000;1.148974
9207.000000;1.149458
9206.000000;1.150095
9205.000000;1.150656
9204.000000;1.150784
9203.000000;1.150452
9202.000000;1.150077
9201.000000;1.149977
9200.000000;1.149907
9199.000000;1.149379
9198.000000;1.148357
9197.000000;1.147349
9196.000000;1.146856
9195.000000;1.147006
9194.000000;1.147672
9193.000000;1.148586
9192.000000;1.149260
9191.000000;1.149193
9190.000000;1.148387
9189.000000;1.147415
9188.000000;1.146764
9187.000000;1.146350
9186.000000;1.145877
9185.000000;1.145378
9184.000000;1.145082
9183.000000;1.144975
9182.000000;1.144879
9181.000000;1.144804
9180.000000;1.144837
9179.000000;1.144797
9178.000000;1.144400
9177.000000;1.143742
9176.000000;1.143214
9175.000000;1.142930
9174.000000;1.142618
9173.000000;1.142116
9172.000000;1.141583
9171.000000;1.141110
9170.000000;1.140544
9169.000000;1.139879
9168.000000;1.139443
9167.000000;1.139412
9166.000000;1.139458
9165.000000;1.139174
9164.000000;1.138623
9163.000000;1.138163
9162.000000;1.137876
9161.000000;1.137512
9160.000000;1.136953
9159.000000;1.136440
9158.000000;1.136268
9157.000000;1.136446
9156.000000;1.136743
9155.000000;1.136976
9154.000000;1.137154
9153.000000;1.137321
9152.000000;1.137377
9151.000000;1.137186
9150.000000;1.136880
9149.000000;1.136859
9148.000000;1.137343
9147.000000;1.138007
9146.000000;1.138256
9145.000000;1.137797
9144.000000;1.136777
9143.000000;1.135478
9142.000000;1.134187
9141.000000;1.133255
9140.000000;1.132916
9139.000000;1.132946
9138.000000;1.132834
9137.000000;1.132400
9136.000000;1.131994
9135.000000;1.131938
9134.000000;1.132060
9133.000000;1.131949
9132.000000;1.131469
9131.000000;1.130806
9130.000000;1.130211
9129.000000;1.129883
9128.000000;1.129962
9127.000000;1.130396
9126.000000;1.130910
9125.000000;1.131233
9124.000000;1.131297
9123.000000;1.131131
9122.000000;1.130742
9121.000000;1.130221
9120.000000;1.129782
9119.000000;1.129509
9118.000000;1.129225
9117.000000;1.128778
9116.000000;1.128311
9115.000000;1.128006
9114.000000;1.127714
9113.000000;1.127127
9112.000000;1.126286
9111.000000;1.125647
9110.000000;1.125543
9109.000000;1.125791
9108.000000;1.125917
9107.000000;1.125661
9106.000000;1.125111
9105.000000;1.124432
9104.000000;1.123642
9103.000000;1.122731
9102.000000;1.121882
9101.000000;1.121406
9100.000000;1.121381
9099.000000;1.121488
9098.000000;1.121372
9097.000000;1.121116
9096.000000;1.121206
9095.000000;1.121964
9094.000000;1.123123
9093.000000;1.124004
9092.000000;1.124086
9091.000000;1.123415
9090.000000;1.122500
9089.000000;1.121841
9088.000000;1.121545
9087.000000;1.121412
9086.000000;1.121304
9085.000000;1.121279
9084.000000;1.121351
9083.000000;1.121330
9082.000000;1.121064
9081.000000;1.120638
9080.000000;1.120175
9079.000000;1.119646
9078.000000;1.119090
9077.000000;1.118818
9076.000000;1.119020
9075.000000;1.119329
9074.000000;1.119170
9073.000000;1.118508
9072.000000;1.117834
9071.000000;1.117439
9070.000000;1.117144
9069.000000;1.116788
9068.000000;1.116544
9067.000000;1.116591
9066.000000;1.116833
9065.000000;1.117135
9064.000000;1.117524
9063.000000;1.117926
9062.000000;1.118021
9061.000000;1.117595
9060.000000;1.116824
9059.000000;1.116027
9058.000000;1.115346
9057.000000;1.114818
9056.000000;1.114494
9055.000000;1.114315
9054.000000;1.114095
9053.000000;1.113802
