Criado como novo conjunto de dados;"e2410_daniel_v2.spp","17643.1 Secs"
cm-1;Abs
10000.000000;0.377960
9999.000000;0.377549
9998.000000;0.377138
9997.000000;0.376729
9996.000000;0.376318
9995.000000;0.375911
9994.000000;0.375495
9993.000000;0.375020
9992.000000;0.374414
9991.000000;0.373660
9990.000000;0.372878
9989.000000;0.372191
9988.000000;0.371595
9987.000000;0.371010
9986.000000;0.370427
9985.000000;0.369916
9984.000000;0.369504
9983.000000;0.369144
9982.000000;0.368780
9981.000000;0.368388
9980.000000;0.367972
9979.000000;0.367566
9978.000000;0.367197
9977.000000;0.366841
9976.000000;0.366449
9975.000000;0.366039
9974.000000;0.365669
9973.000000;0.365317
9972.000000;0.364879
9971.000000;0.364316
9970.000000;0.363703
9969.000000;0.363073
9968.000000;0.362381
9967.000000;0.361664
9966.000000;0.361082
9965.000000;0.360665
9964.000000;0.360195
9963.000000;0.359496
9962.000000;0.358715
9961.000000;0.358131
9960.000000;0.357776
9959.000000;0.357437
9958.000000;0.356974
9957.000000;0.356445
9956.000000;0.355937
9955.000000;0.355455
9954.000000;0.354984
9953.000000;0.354522
9952.000000;0.354051
9951.000000;0.353607
9950.000000;0.353314
9949.000000;0.353220
9948.000000;0.353126
9947.000000;0.352754
9946.000000;0.352065
9945.000000;0.351278
9944.000000;0.350577
9943.000000;0.349978
9942.000000;0.349467
9941.000000;0.349065
9940.000000;0.348728
9939.000000;0.348330
9938.000000;0.347821
9937.000000;0.347285
9936.000000;0.346796
9935.000000;0.346326
9934.000000;0.345832
9933.000000;0.345342
9932.000000;0.344897
9931.000000;0.344487
9930.000000;0.344070
9929.000000;0.343593
9928.000000;0.342994
9927.000000;0.342250
9926.000000;0.341441
9925.000000;0.340711
9924.000000;0.340155
9923.000000;0.339787
9922.000000;0.339566
9921.000000;0.339370
9920.000000;0.338998
9919.000000;0.338346
9918.000000;0.337554
9917.000000;0.336868
9916.000000;0.336372
9915.000000;0.335971
9914.000000;0.335601
9913.000000;0.335290
9912.000000;0.334995
9911.000000;0.334545
9910.000000;0.333841
9909.000000;0.333012
9908.000000;0.332315
9907.000000;0.331905
9906.000000;0.331727
9905.000000;0.331569
9904.000000;0.331213
9903.000000;0.330634
9902.000000;0.330041
9901.000000;0.329645
9900.000000;0.329412
9899.000000;0.329114
9898.000000;0.328611
9897.000000;0.327955
9896.000000;0.327239
9895.000000;0.326490
9894.000000;0.325753
9893.000000;0.325132
9892.000000;0.324671
9891.000000;0.324290
9890.000000;0.323905
9889.000000;0.323536
9888.000000;0.323242
9887.000000;0.322985
9886.000000;0.322649
9885.000000;0.322144
9884.000000;0.321485
9883.000000;0.320780
9882.000000;0.320158
9881.000000;0.319668
9880.000000;0.319239
9879.000000;0.318760
9878.000000;0.318202
9877.000000;0.317625
9876.000000;0.317090
9875.000000;0.316601
9874.000000;0.316127
9873.000000;0.315640
9872.000000;0.315139
9871.000000;0.314671
9870.000000;0.314299
9869.000000;0.314020
9868.000000;0.313745
9867.000000;0.313402
9866.000000;0.313002
9865.000000;0.312557
9864.000000;0.312023
9863.000000;0.311407
9862.000000;0.310839
9861.000000;0.310423
9860.000000;0.310079
9859.000000;0.309638
9858.000000;0.309052
9857.000000;0.308402
9856.000000;0.307763
9855.000000;0.307183
9854.000000;0.306735
9853.000000;0.306413
9852.000000;0.306032
9851.000000;0.305395
9850.000000;0.304582
9849.000000;0.303910
9848.000000;0.303574
9847.000000;0.303472
9846.000000;0.303388
9845.000000;0.303192
9844.000000;0.302828
9843.000000;0.302272
9842.000000;0.301602
9841.000000;0.300985
9840.000000;0.300516
9839.000000;0.300135
9838.000000;0.299726
9837.000000;0.299252
9836.000000;0.298734
9835.000000;0.298205
9834.000000;0.297704
9833.000000;0.297260
9832.000000;0.296833
9831.000000;0.296354
9830.000000;0.295845
9829.000000;0.295409
9828.000000;0.295071
9827.000000;0.294714
9826.000000;0.294206
9825.000000;0.293549
9824.000000;0.292870
9823.000000;0.292333
9822.000000;0.292052
9821.000000;0.292009
9820.000000;0.292016
9819.000000;0.291839
9818.000000;0.291388
9817.000000;0.290741
9816.000000;0.289996
9815.000000;0.289186
9814.000000;0.288345
9813.000000;0.287550
9812.000000;0.286852
9811.000000;0.286243
9810.000000;0.285724
9809.000000;0.285350
9808.000000;0.285144
9807.000000;0.285026
9806.000000;0.284870
9805.000000;0.284587
9804.000000;0.284157
9803.000000;0.283627
9802.000000;0.283103
9801.000000;0.282686
9800.000000;0.282373
9799.000000;0.282071
9798.000000;0.281699
9797.000000;0.281239
9796.000000;0.280692
9795.000000;0.280080
9794.000000;0.279494
9793.000000;0.279050
9792.000000;0.278770
9791.000000;0.278552
9790.000000;0.278286
9789.000000;0.277919
9788.000000;0.277422
9787.000000;0.276764
9786.000000;0.275988
9785.000000;0.275228
9784.000000;0.274592
9783.000000;0.274063
9782.000000;0.273558
9781.000000;0.273061
9780.000000;0.272638
9779.000000;0.272326
9778.000000;0.272053
9777.000000;0.271686
9776.000000;0.271177
9775.000000;0.270636
9774.000000;0.270233
9773.000000;0.269993
9772.000000;0.269755
9771.000000;0.269342
9770.000000;0.268750
9769.000000;0.268111
9768.000000;0.267529
9767.000000;0.267016
9766.000000;0.266542
9765.000000;0.266087
9764.000000;0.265653
9763.000000;0.265263
9762.000000;0.264928
9761.000000;0.264560
9760.000000;0.264008
9759.000000;0.263257
9758.000000;0.262527
9757.000000;0.262051
9756.000000;0.261803
9755.000000;0.261569
9754.000000;0.261244
9753.000000;0.260928
9752.000000;0.260701
9751.000000;0.260482
9750.000000;0.260152
9749.000000;0.259702
9748.000000;0.259201
9747.000000;0.258691
9746.000000;0.258197
9745.000000;0.257765
9744.000000;0.257414
9743.000000;0.257093
9742.000000;0.256715
9741.000000;0.256218
9740.000000;0.255591
9739.000000;0.254880
9738.000000;0.254190
9737.000000;0.253626
9736.000000;0.253213
9735.000000;0.252892
9734.000000;0.252584
9733.000000;0.252220
9732.000000;0.251735
9731.000000;0.251114
9730.000000;0.250463
9729.000000;0.249934
9728.000000;0.249579
9727.000000;0.249303
9726.000000;0.248983
9725.000000;0.248574
9724.000000;0.248101
9723.000000;0.247607
9722.000000;0.247138
9721.000000;0.246720
9720.000000;0.246331
9719.000000;0.245921
9718.000000;0.245478
9717.000000;0.245024
9716.000000;0.244577
9715.000000;0.244136
9714.000000;0.243714
9713.000000;0.243327
9712.000000;0.242953
9711.000000;0.242540
9710.000000;0.242079
9709.000000;0.241610
9708.000000;0.241167
9707.000000;0.240741
9706.000000;0.240296
9705.000000;0.239825
9704.000000;0.239367
9703.000000;0.239001
9702.000000;0.238775
9701.000000;0.238633
9700.000000;0.238439
9699.000000;0.238099
9698.000000;0.237603
9697.000000;0.236953
9696.000000;0.236141
9695.000000;0.235255
9694.000000;0.234499
9693.000000;0.234009
9692.000000;0.233704
9691.000000;0.233410
9690.000000;0.233067
9689.000000;0.232724
9688.000000;0.232392
9687.000000;0.232035
9686.000000;0.231670
9685.000000;0.231349
9684.000000;0.231042
9683.000000;0.230649
9682.000000;0.230154
9681.000000;0.229658
9680.000000;0.229264
9679.000000;0.228970
9678.000000;0.228695
9677.000000;0.228334
9676.000000;0.227823
9675.000000;0.227214
9674.000000;0.226664
9673.000000;0.226270
9672.000000;0.225936
9671.000000;0.225500
9670.000000;0.224938
9669.000000;0.224365
9668.000000;0.223855
9667.000000;0.223385
9666.000000;0.222929
9665.000000;0.222505
9664.000000;0.222109
9663.000000;0.221730
9662.000000;0.221418
9661.000000;0.221231
9660.000000;0.221112
9659.000000;0.220918
9658.000000;0.220585
9657.000000;0.220154
9656.000000;0.219651
9655.000000;0.219070
9654.000000;0.218482
9653.000000;0.218017
9652.000000;0.217679
9651.000000;0.217280
9650.000000;0.216642
9649.000000;0.215812
9648.000000;0.215019
9647.000000;0.214455
9646.000000;0.214146
9645.000000;0.213975
9644.000000;0.213803
9643.000000;0.213571
9642.000000;0.213297
9641.000000;0.212971
9640.000000;0.212514
9639.000000;0.211906
9638.000000;0.211279
9637.000000;0.210782
9636.000000;0.210409
9635.000000;0.210042
9634.000000;0.209632
9633.000000;0.209215
9632.000000;0.208788
9631.000000;0.208334
9630.000000;0.207940
9629.000000;0.207731
9628.000000;0.207653
9627.000000;0.207477
9626.000000;0.207077
9625.000000;0.206568
9624.000000;0.206119
9623.000000;0.205749
9622.000000;0.205395
9621.000000;0.205028
9620.000000;0.204629
9619.000000;0.204137
9618.000000;0.203529
9617.000000;0.202892
9616.000000;0.202332
9615.000000;0.201876
9614.000000;0.201519
9613.000000;0.201295
9612.000000;0.201188
9611.000000;0.201036
9610.000000;0.200635
9609.000000;0.199961
9608.000000;0.199221
9607.000000;0.198649
9606.000000;0.198306
9605.000000;0.198066
9604.000000;0.197769
9603.000000;0.197377
9602.000000;0.196966
9601.000000;0.196610
9600.000000;0.196302
9599.000000;0.196008
9598.000000;0.195722
9597.000000;0.195430
9596.000000;0.195056
9595.000000;0.194546
9594.000000;0.193973
9593.000000;0.193478
9592.000000;0.193094
9591.000000;0.192720
9590.000000;0.192284
9589.000000;0.191850
9588.000000;0.191542
9587.000000;0.191388
9586.000000;0.191278
9585.000000;0.191047
9584.000000;0.190601
9583.000000;0.189987
9582.000000;0.189357
9581.000000;0.188810
9580.000000;0.188329
9579.000000;0.187889
9578.000000;0.187561
9577.000000;0.187390
9576.000000;0.187229
9575.000000;0.186820
9574.000000;0.186091
9573.000000;0.185249
9572.000000;0.184570
9571.000000;0.184169
9570.000000;0.183979
9569.000000;0.183842
9568.000000;0.183591
9567.000000;0.183143
9566.000000;0.182583
9565.000000;0.182080
9564.000000;0.181698
9563.000000;0.181351
9562.000000;0.180966
9561.000000;0.180600
9560.000000;0.180345
9559.000000;0.180198
9558.000000;0.180083
9557.000000;0.179915
9556.000000;0.179618
9555.000000;0.179143
9554.000000;0.178531
9553.000000;0.177912
9552.000000;0.177416
9551.000000;0.177093
9550.000000;0.176938
9549.000000;0.176892
9548.000000;0.176814
9547.000000;0.176528
9546.000000;0.175983
9545.000000;0.175316
9544.000000;0.174708
9543.000000;0.174227
9542.000000;0.173823
9541.000000;0.173420
9540.000000;0.172978
9539.000000;0.172509
9538.000000;0.172083
9537.000000;0.171762
9536.000000;0.171510
9535.000000;0.171225
9534.000000;0.170863
9533.000000;0.170476
9532.000000;0.170104
9531.000000;0.169710
9530.000000;0.169259
9529.000000;0.168781
9528.000000;0.168299
9527.000000;0.167794
9526.000000;0.167284
9525.000000;0.166879
9524.000000;0.166666
9523.000000;0.166586
9522.000000;0.166482
9521.000000;0.166243
9520.000000;0.165843
9519.000000;0.165306
9518.000000;0.164696
9517.000000;0.164119
9516.000000;0.163654
9515.000000;0.163288
9514.000000;0.162967
9513.000000;0.162673
9512.000000;0.162420
9511.000000;0.162185
9510.000000;0.161933
9509.000000;0.161672
9508.000000;0.161431
9507.000000;0.161197
9506.000000;0.160910
9505.000000;0.160517
9504.000000;0.160006
9503.000000;0.159414
9502.000000;0.158846
9501.000000;0.158429
9500.000000;0.158193
9499.000000;0.158001
9498.000000;0.157663
9497.000000;0.157130
9496.000000;0.156533
9495.000000;0.156031
9494.000000;0.155674
9493.000000;0.155408
9492.000000;0.155152
9491.000000;0.154853
9490.000000;0.154488
9489.000000;0.154077
9488.000000;0.153667
9487.000000;0.153310
9486.000000;0.153030
9485.000000;0.152816
9484.000000;0.152613
9483.000000;0.152316
9482.000000;0.151835
9481.000000;0.151191
9480.000000;0.150542
9479.000000;0.150070
9478.000000;0.149810
9477.000000;0.149646
9476.000000;0.149454
9475.000000;0.149230
9474.000000;0.149016
9473.000000;0.148782
9472.000000;0.148426
9471.000000;0.147916
9470.000000;0.147341
9469.000000;0.146806
9468.000000;0.146339
9467.000000;0.145931
9466.000000;0.145612
9465.000000;0.145406
9464.000000;0.145259
9463.000000;0.145073
9462.000000;0.144808
9461.000000;0.144501
9460.000000;0.144186
9459.000000;0.143846
9458.000000;0.143444
9457.000000;0.142966
9456.000000;0.142433
9455.000000;0.141909
9454.000000;0.141494
9453.000000;0.141250
9452.000000;0.141133
9451.000000;0.141021
9450.000000;0.140808
9449.000000;0.140458
9448.000000;0.139979
9447.000000;0.139425
9446.000000;0.138898
9445.000000;0.138493
9444.000000;0.138211
9443.000000;0.137965
9442.000000;0.137696
9441.000000;0.137427
9440.000000;0.137193
9439.000000;0.136964
9438.000000;0.136685
9437.000000;0.136357
9436.000000;0.136026
9435.000000;0.135707
9434.000000;0.135364
9433.000000;0.134967
9432.000000;0.134555
9431.000000;0.134191
9430.000000;0.133880
9429.000000;0.133547
9428.000000;0.133134
9427.000000;0.132688
9426.000000;0.132325
9425.000000;0.132087
9424.000000;0.131870
9423.000000;0.131537
9422.000000;0.131081
9421.000000;0.130644
9420.000000;0.130361
9419.000000;0.130226
9418.000000;0.130108
9417.000000;0.129886
9416.000000;0.129534
9415.000000;0.129107
9414.000000;0.128652
9413.000000;0.128178
9412.000000;0.127694
9411.000000;0.127246
9410.000000;0.126901
9409.000000;0.126679
9408.000000;0.126524
9407.000000;0.126332
9406.000000;0.126027
9405.000000;0.125615
9404.000000;0.125187
9403.000000;0.124842
9402.000000;0.124588
9401.000000;0.124345
9400.000000;0.124079
9399.000000;0.123853
9398.000000;0.123700
9397.000000;0.123502
9396.000000;0.123107
9395.000000;0.122548
9394.000000;0.122032
9393.000000;0.121696
9392.000000;0.121490
9391.000000;0.121309
9390.000000;0.121125
9389.000000;0.120909
9388.000000;0.120573
9387.000000;0.120081
9386.000000;0.119553
9385.000000;0.119148
9384.000000;0.118883
9383.000000;0.118653
9382.000000;0.118385
9381.000000;0.118086
9380.000000;0.117784
9379.000000;0.117503
9378.000000;0.117274
9377.000000;0.117081
9376.000000;0.116833
9375.000000;0.116458
9374.000000;0.115997
9373.000000;0.115551
9372.000000;0.115160
9371.000000;0.114805
9370.000000;0.114485
9369.000000;0.114190
9368.000000;0.113864
9367.000000;0.113469
9366.000000;0.113069
9365.000000;0.112763
9364.000000;0.112550
9363.000000;0.112322
9362.000000;0.111987
9361.000000;0.111519
9360.000000;0.110947
9359.000000;0.110371
9358.000000;0.109962
9357.000000;0.109822
9356.000000;0.109863
9355.000000;0.109882
9354.000000;0.109771
9353.000000;0.109558
9352.000000;0.109295
9351.000000;0.109000
9350.000000;0.108706
9349.000000;0.108435
9348.000000;0.108132
9347.000000;0.107727
9346.000000;0.107278
9345.000000;0.106921
9344.000000;0.106678
9343.000000;0.106438
9342.000000;0.106152
9341.000000;0.105910
9340.000000;0.105760
9339.000000;0.105589
9338.000000;0.105265
9337.000000;0.104817
9336.000000;0.104372
9335.000000;0.103971
9334.000000;0.103561
9333.000000;0.103123
9332.000000;0.102721
9331.000000;0.102430
9330.000000;0.102271
9329.000000;0.102198
9328.000000;0.102119
9327.000000;0.101934
9326.000000;0.101615
9325.000000;0.101236
9324.000000;0.100886
9323.000000;0.100574
9322.000000;0.100256
9321.000000;0.099924
9320.000000;0.099612
9319.000000;0.099322
9318.000000;0.099006
9317.000000;0.098640
9316.000000;0.098278
9315.000000;0.098005
9314.000000;0.097846
9313.000000;0.097739
9312.000000;0.097593
9311.000000;0.097355
9310.000000;0.097013
9309.000000;0.096569
9308.000000;0.096059
9307.000000;0.095583
9306.000000;0.095251
9305.000000;0.095055
9304.000000;0.094846
9303.000000;0.094499
9302.000000;0.094069
9301.000000;0.093715
9300.000000;0.093496
9299.000000;0.093311
9298.000000;0.093060
9297.000000;0.092771
9296.000000;0.092526
9295.000000;0.092323
9294.000000;0.092075
9293.000000;0.091733
9292.000000;0.091356
9291.000000;0.091047
9290.000000;0.090847
9289.000000;0.090687
9288.000000;0.090457
9287.000000;0.090128
9286.000000;0.089797
9285.000000;0.089570
9284.000000;0.089422
9283.000000;0.089215
9282.000000;0.088871
9281.000000;0.088475
9280.000000;0.088174
9279.000000;0.087999
9278.000000;0.087846
9277.000000;0.087619
9276.000000;0.087349
9275.000000;0.087138
9274.000000;0.087022
9273.000000;0.086912
9272.000000;0.086685
9271.000000;0.086303
9270.000000;0.085852
9269.000000;0.085457
9268.000000;0.085177
9267.000000;0.084977
9266.000000;0.084769
9265.000000;0.084490
9264.000000;0.084147
9263.000000;0.083803
9262.000000;0.083487
9261.000000;0.083157
9260.000000;0.082773
9259.000000;0.082392
9258.000000;0.082123
9257.000000;0.081987
9256.000000;0.081871
9255.000000;0.081669
9254.000000;0.081399
9253.000000;0.081147
9252.000000;0.080939
9251.000000;0.080723
9250.000000;0.080461
9249.000000;0.080157
9248.000000;0.079828
9247.000000;0.079484
9246.000000;0.079153
9245.000000;0.078867
9244.000000;0.078630
9243.000000;0.078405
9242.000000;0.078153
9241.000000;0.077849
9240.000000;0.077488
9239.000000;0.077100
9238.000000;0.076758
9237.000000;0.076523
9236.000000;0.076376
9235.000000;0.076235
9234.000000;0.076047
9233.000000;0.075834
9232.000000;0.075653
9231.000000;0.075520
9230.000000;0.075379
9229.000000;0.075158
9228.000000;0.074858
9227.000000;0.074581
9226.000000;0.074421
9225.000000;0.074341
9224.000000;0.074205
9223.000000;0.073936
9222.000000;0.073600
9221.000000;0.073305
9220.000000;0.073078
9219.000000;0.072881
9218.000000;0.072680
9217.000000;0.072459
9216.000000;0.072191
9215.000000;0.071885
9214.000000;0.071619
9213.000000;0.071453
9212.000000;0.071323
9211.000000;0.071087
9210.000000;0.070681
9209.000000;0.070184
9208.000000;0.069739
9207.000000;0.069439
9206.000000;0.069294
9205.000000;0.069228
9204.000000;0.069128
9203.000000;0.068930
9202.000000;0.068674
9201.000000;0.068435
9200.000000;0.068213
9199.000000;0.067939
9198.000000;0.067589
9197.000000;0.067234
9196.000000;0.066958
9195.000000;0.066765
9194.000000;0.066610
9193.000000;0.066465
9192.000000;0.066337
9191.000000;0.066203
9190.000000;0.065994
9189.000000;0.065658
9188.000000;0.065239
9187.000000;0.064861
9186.000000;0.064608
9185.000000;0.064449
9184.000000;0.064282
9183.000000;0.064045
9182.000000;0.063743
9181.000000;0.063401
9180.000000;0.063042
9179.000000;0.062721
9178.000000;0.062502
9177.000000;0.062384
9176.000000;0.062295
9175.000000;0.062174
9174.000000;0.062011
9173.000000;0.061801
9172.000000;0.061516
9171.000000;0.061168
9170.000000;0.060826
9169.000000;0.060546
9168.000000;0.060316
9167.000000;0.060126
9166.000000;0.059997
9165.000000;0.059899
9164.000000;0.059714
9163.000000;0.059372
9162.000000;0.058960
9161.000000;0.058629
9160.000000;0.058420
9159.000000;0.058271
9158.000000;0.058147
9157.000000;0.058066
9156.000000;0.058010
9155.000000;0.057919
9154.000000;0.057763
9153.000000;0.057567
9152.000000;0.057357
9151.000000;0.057144
9150.000000;0.056961
9149.000000;0.056831
9148.000000;0.056700
9147.000000;0.056478
9146.000000;0.056153
9145.000000;0.055802
9144.000000;0.055480
9143.000000;0.055177
9142.000000;0.054872
9141.000000;0.054588
9140.000000;0.054356
9139.000000;0.054169
9138.000000;0.054000
9137.000000;0.053824
9136.000000;0.053619
9135.000000;0.053393
9134.000000;0.053202
9133.000000;0.053086
9132.000000;0.053001
9131.000000;0.052846
9130.000000;0.052590
9129.000000;0.052309
9128.000000;0.052079
9127.000000;0.051891
9126.000000;0.051690
9125.000000;0.051461
9124.000000;0.051257
9123.000000;0.051148
9122.000000;0.051149
9121.000000;0.051168
9120.000000;0.051043
9119.000000;0.050663
9118.000000;0.050095
9117.000000;0.049546
9116.000000;0.049205
9115.000000;0.049109
9114.000000;0.049155
9113.000000;0.049204
9112.000000;0.049166
9111.000000;0.049031
9110.000000;0.048832
9109.000000;0.048588
9108.000000;0.048287
9107.000000;0.047937
9106.000000;0.047605
9105.000000;0.047358
9104.000000;0.047170
9103.000000;0.046954
9102.000000;0.046692
9101.000000;0.046465
9100.000000;0.046327
9099.000000;0.046213
9098.000000;0.046008
9097.000000;0.045712
9096.000000;0.045450
9095.000000;0.045313
9094.000000;0.045216
9093.000000;0.044979
9092.000000;0.044558
9091.000000;0.044135
9090.000000;0.043949
9089.000000;0.044039
9088.000000;0.044205
9087.000000;0.044234
9086.000000;0.044097
9085.000000;0.043898
9084.000000;0.043701
9083.000000;0.043474
9082.000000;0.043188
9081.000000;0.042887
9080.000000;0.042630
9079.000000;0.042415
9078.000000;0.042203
9077.000000;0.041980
9076.000000;0.041778
9075.000000;0.041615
9074.000000;0.041462
9073.000000;0.041262
9072.000000;0.041017
9071.000000;0.040800
9070.000000;0.040689
9069.000000;0.040668
9068.000000;0.040643
9067.000000;0.040539
9066.000000;0.040359
9065.000000;0.040150
9064.000000;0.039935
9063.000000;0.039693
9062.000000;0.039391
9061.000000;0.039029
9060.000000;0.038670
9059.000000;0.038403
9058.000000;0.038254
9057.000000;0.038132
9056.000000;0.037940
9055.000000;0.037708
9054.000000;0.037549
9053.000000;0.037472
