Criado como novo conjunto de dados;"e2410_daniel_v2.spp","57964.8 Secs"
cm-1;Abs
10000.000000;1.230467
9999.000000;1.229157
9998.000000;1.227808
9997.000000;1.226555
9996.000000;1.224872
9995.000000;1.222929
9994.000000;1.221678
9993.000000;1.221570
9992.000000;1.222388
9991.000000;1.223240
9990.000000;1.223360
9989.000000;1.222607
9988.000000;1.221422
9987.000000;1.220313
9986.000000;1.219406
9985.000000;1.218534
9984.000000;1.217712
9983.000000;1.217308
9982.000000;1.217516
9981.000000;1.217834
9980.000000;1.217492
9979.000000;1.216423
9978.000000;1.215446
9977.000000;1.215348
9976.000000;1.216077
9975.000000;1.216957
9974.000000;1.217389
9973.000000;1.217194
9972.000000;1.216537
9971.000000;1.215714
9970.000000;1.214913
9969.000000;1.214061
9968.000000;1.212983
9967.000000;1.211694
9966.000000;1.210379
9965.000000;1.209194
9964.000000;1.208347
9963.000000;1.208232
9962.000000;1.209050
9961.000000;1.210295
9960.000000;1.211055
9959.000000;1.210938
9958.000000;1.210288
9957.000000;1.209385
9956.000000;1.207978
9955.000000;1.205930
9954.000000;1.203844
9953.000000;1.202571
9952.000000;1.202338
9951.000000;1.202692
9950.000000;1.203151
9949.000000;1.203601
9948.000000;1.204160
9947.000000;1.204795
9946.000000;1.205073
9945.000000;1.204347
9944.000000;1.202429
9943.000000;1.200118
9942.000000;1.198683
9941.000000;1.198669
9940.000000;1.199450
9939.000000;1.200025
9938.000000;1.199902
9937.000000;1.199098
9936.000000;1.197802
9935.000000;1.196449
9934.000000;1.195705
9933.000000;1.195837
9932.000000;1.196284
9931.000000;1.196247
9930.000000;1.195594
9929.000000;1.194773
9928.000000;1.193998
9927.000000;1.193036
9926.000000;1.191779
9925.000000;1.190581
9924.000000;1.189851
9923.000000;1.189592
9922.000000;1.189483
9921.000000;1.189256
9920.000000;1.188876
9919.000000;1.188428
9918.000000;1.187914
9917.000000;1.187194
9916.000000;1.186172
9915.000000;1.184990
9914.000000;1.183887
9913.000000;1.182855
9912.000000;1.181674
9911.000000;1.180361
9910.000000;1.179329
9909.000000;1.178912
9908.000000;1.178959
9907.000000;1.179089
9906.000000;1.179172
9905.000000;1.179302
9904.000000;1.179437
9903.000000;1.179336
9902.000000;1.178802
9901.000000;1.177821
9900.000000;1.176540
9899.000000;1.175358
9898.000000;1.174920
9897.000000;1.175694
9896.000000;1.177412
9895.000000;1.179055
9894.000000;1.179524
9893.000000;1.178412
9892.000000;1.176203
9891.000000;1.173843
9890.000000;1.172084
9889.000000;1.171103
9888.000000;1.170638
9887.000000;1.170463
9886.000000;1.170591
9885.000000;1.170997
9884.000000;1.171324
9883.000000;1.171103
9882.000000;1.170258
9881.000000;1.169219
9880.000000;1.168498
9879.000000;1.168252
9878.000000;1.168231
9877.000000;1.168083
9876.000000;1.167646
9875.000000;1.166967
9874.000000;1.166094
9873.000000;1.164997
9872.000000;1.163793
9871.000000;1.162908
9870.000000;1.162750
9869.000000;1.163165
9868.000000;1.163449
9867.000000;1.163027
9866.000000;1.161981
9865.000000;1.160781
9864.000000;1.159692
9863.000000;1.158653
9862.000000;1.157630
9861.000000;1.156773
9860.000000;1.156201
9859.000000;1.155841
9858.000000;1.155580
9857.000000;1.155471
9856.000000;1.155660
9855.000000;1.156111
9854.000000;1.156458
9853.000000;1.156215
9852.000000;1.155135
9851.000000;1.153391
9850.000000;1.151480
9849.000000;1.149984
9848.000000;1.149348
9847.000000;1.149654
9846.000000;1.150503
9845.000000;1.151193
9844.000000;1.151177
9843.000000;1.150384
9842.000000;1.149110
9841.000000;1.147727
9840.000000;1.146552
9839.000000;1.145805
9838.000000;1.145512
9837.000000;1.145514
9836.000000;1.145651
9835.000000;1.145834
9834.000000;1.145880
9833.000000;1.145515
9832.000000;1.144754
9831.000000;1.144047
9830.000000;1.143762
9829.000000;1.143680
9828.000000;1.143305
9827.000000;1.142561
9826.000000;1.141807
9825.000000;1.141231
9824.000000;1.140637
9823.000000;1.139910
9822.000000;1.139313
9821.000000;1.139131
9820.000000;1.139246
9819.000000;1.139244
9818.000000;1.138818
9817.000000;1.138006
9816.000000;1.137150
9815.000000;1.136615
9814.000000;1.136409
9813.000000;1.136120
9812.000000;1.135406
9811.000000;1.134472
9810.000000;1.133822
9809.000000;1.133602
9808.000000;1.133490
9807.000000;1.133193
9806.000000;1.132726
9805.000000;1.132151
9804.000000;1.131438
9803.000000;1.130709
9802.000000;1.130305
9801.000000;1.130380
9800.000000;1.130620
9799.000000;1.130535
9798.000000;1.129891
9797.000000;1.128782
9796.000000;1.127465
9795.000000;1.126285
9794.000000;1.125588
9793.000000;1.125502
9792.000000;1.125806
9791.000000;1.126063
9790.000000;1.125873
9789.000000;1.125084
9788.000000;1.123934
9787.000000;1.122931
9786.000000;1.122415
9785.000000;1.122187
9784.000000;1.121737
9783.000000;1.120819
9782.000000;1.119661
9781.000000;1.118669
9780.000000;1.118134
9779.000000;1.118148
9778.000000;1.118505
9777.000000;1.118652
9776.000000;1.118088
9775.000000;1.116911
9774.000000;1.115746
9773.000000;1.115084
9772.000000;1.114950
9771.000000;1.115176
9770.000000;1.115633
9769.000000;1.116100
9768.000000;1.116269
9767.000000;1.116064
9766.000000;1.115703
9765.000000;1.115279
9764.000000;1.114571
9763.000000;1.113422
9762.000000;1.112089
9761.000000;1.110996
9760.000000;1.110341
9759.000000;1.110075
9758.000000;1.110088
9757.000000;1.110241
9756.000000;1.110364
9755.000000;1.110319
9754.000000;1.109997
9753.000000;1.109255
9752.000000;1.108110
9751.000000;1.106994
9750.000000;1.106430
9749.000000;1.106341
9748.000000;1.106018
9747.000000;1.104995
9746.000000;1.103639
9745.000000;1.102607
9744.000000;1.102003
9743.000000;1.101435
9742.000000;1.100685
9741.000000;1.099951
9740.000000;1.099445
9739.000000;1.099103
9738.000000;1.098733
9737.000000;1.098299
9736.000000;1.097972
9735.000000;1.097970
9734.000000;1.098287
9733.000000;1.098531
9732.000000;1.098155
9731.000000;1.096993
9730.000000;1.095489
9729.000000;1.094282
9728.000000;1.093631
9727.000000;1.093322
9726.000000;1.093026
9725.000000;1.092618
9724.000000;1.092195
9723.000000;1.091921
9722.000000;1.091850
9721.000000;1.091846
9720.000000;1.091696
9719.000000;1.091334
9718.000000;1.090899
9717.000000;1.090565
9716.000000;1.090375
9715.000000;1.090213
9714.000000;1.089867
9713.000000;1.089158
9712.000000;1.088133
9711.000000;1.087106
9710.000000;1.086381
9709.000000;1.085929
9708.000000;1.085480
9707.000000;1.084889
9706.000000;1.084255
9705.000000;1.083741
9704.000000;1.083450
9703.000000;1.083428
9702.000000;1.083543
9701.000000;1.083436
9700.000000;1.082878
9699.000000;1.082170
9698.000000;1.081849
9697.000000;1.081973
9696.000000;1.082018
9695.000000;1.081577
9694.000000;1.080815
9693.000000;1.080074
9692.000000;1.079408
9691.000000;1.078750
9690.000000;1.078242
9689.000000;1.078078
9688.000000;1.078146
9687.000000;1.078095
9686.000000;1.077712
9685.000000;1.077047
9684.000000;1.076275
9683.000000;1.075592
9682.000000;1.075166
9681.000000;1.074998
9680.000000;1.074866
9679.000000;1.074510
9678.000000;1.073853
9677.000000;1.072995
9676.000000;1.072106
9675.000000;1.071355
9674.000000;1.070827
9673.000000;1.070446
9672.000000;1.070093
9671.000000;1.069823
9670.000000;1.069779
9669.000000;1.069874
9668.000000;1.069750
9667.000000;1.069179
9666.000000;1.068332
9665.000000;1.067533
9664.000000;1.066926
9663.000000;1.066518
9662.000000;1.066341
9661.000000;1.066375
9660.000000;1.066417
9659.000000;1.066211
9658.000000;1.065699
9657.000000;1.065040
9656.000000;1.064430
9655.000000;1.063934
9654.000000;1.063405
9653.000000;1.062565
9652.000000;1.061316
9651.000000;1.060020
9650.000000;1.059260
9649.000000;1.059213
9648.000000;1.059394
9647.000000;1.059177
9646.000000;1.058455
9645.000000;1.057674
9644.000000;1.057312
9643.000000;1.057430
9642.000000;1.057642
9641.000000;1.057436
9640.000000;1.056611
9639.000000;1.055478
9638.000000;1.054564
9637.000000;1.054092
9636.000000;1.053847
9635.000000;1.053545
9634.000000;1.053160
9633.000000;1.052840
9632.000000;1.052656
9631.000000;1.052530
9630.000000;1.052311
9629.000000;1.051871
9628.000000;1.051225
9627.000000;1.050576
9626.000000;1.050137
9625.000000;1.049904
9624.000000;1.049730
9623.000000;1.049563
9622.000000;1.049418
9621.000000;1.049132
9620.000000;1.048455
9619.000000;1.047429
9618.000000;1.046421
9617.000000;1.045711
9616.000000;1.045302
9615.000000;1.045183
9614.000000;1.045438
9613.000000;1.045919
9612.000000;1.046152
9611.000000;1.045814
9610.000000;1.045086
9609.000000;1.044306
9608.000000;1.043510
9607.000000;1.042586
9606.000000;1.041652
9605.000000;1.040944
9604.000000;1.040460
9603.000000;1.040013
9602.000000;1.039552
9601.000000;1.039163
9600.000000;1.038793
9599.000000;1.038274
9598.000000;1.037615
9597.000000;1.037018
9596.000000;1.036546
9595.000000;1.036004
9594.000000;1.035255
9593.000000;1.034488
9592.000000;1.034055
9591.000000;1.034102
9590.000000;1.034445
9589.000000;1.034742
9588.000000;1.034720
9587.000000;1.034255
9586.000000;1.033334
9585.000000;1.032052
9584.000000;1.030713
9583.000000;1.029803
9582.000000;1.029648
9581.000000;1.030048
9580.000000;1.030396
9579.000000;1.030263
9578.000000;1.029786
9577.000000;1.029391
9576.000000;1.029265
9575.000000;1.029228
9574.000000;1.029035
9573.000000;1.028617
9572.000000;1.028025
9571.000000;1.027272
9570.000000;1.026363
9569.000000;1.025469
9568.000000;1.024936
9567.000000;1.024983
9566.000000;1.025369
9565.000000;1.025522
9564.000000;1.025132
9563.000000;1.024467
9562.000000;1.023931
9561.000000;1.023455
9560.000000;1.022658
9559.000000;1.021546
9558.000000;1.020678
9557.000000;1.020488
9556.000000;1.020754
9555.000000;1.020914
9554.000000;1.020671
9553.000000;1.020106
9552.000000;1.019403
9551.000000;1.018738
9550.000000;1.018322
9549.000000;1.018262
9548.000000;1.018385
9547.000000;1.018360
9546.000000;1.018017
9545.000000;1.017429
9544.000000;1.016741
9543.000000;1.016094
9542.000000;1.015635
9541.000000;1.015418
9540.000000;1.015254
9539.000000;1.014815
9538.000000;1.013986
9537.000000;1.013013
9536.000000;1.012258
9535.000000;1.011862
9534.000000;1.011690
9533.000000;1.011555
9532.000000;1.011403
9531.000000;1.011263
9530.000000;1.011107
9529.000000;1.010818
9528.000000;1.010312
9527.000000;1.009644
9526.000000;1.008962
9525.000000;1.008411
9524.000000;1.008066
9523.000000;1.007906
9522.000000;1.007829
9521.000000;1.007736
9520.000000;1.007623
9519.000000;1.007521
9518.000000;1.007349
9517.000000;1.006946
9516.000000;1.006285
9515.000000;1.005499
9514.000000;1.004638
9513.000000;1.003573
9512.000000;1.002312
9511.000000;1.001249
9510.000000;1.000832
9509.000000;1.001040
9508.000000;1.001358
9507.000000;1.001293
9506.000000;1.000778
9505.000000;1.000121
9504.000000;0.999699
9503.000000;0.999686
9502.000000;0.999922
9501.000000;1.000103
9500.000000;1.000130
9499.000000;1.000182
9498.000000;1.000283
9497.000000;1.000041
9496.000000;0.999123
9495.000000;0.997852
9494.000000;0.996962
9493.000000;0.996767
9492.000000;0.996874
9491.000000;0.996731
9490.000000;0.996141
9489.000000;0.995210
9488.000000;0.994128
9487.000000;0.993155
9486.000000;0.992542
9485.000000;0.992288
9484.000000;0.992113
9483.000000;0.991801
9482.000000;0.991410
9481.000000;0.991103
9480.000000;0.990939
9479.000000;0.990887
9478.000000;0.990849
9477.000000;0.990612
9476.000000;0.989976
9475.000000;0.989007
9474.000000;0.987987
9473.000000;0.987104
9472.000000;0.986396
9471.000000;0.985996
9470.000000;0.986078
9469.000000;0.986438
9468.000000;0.986475
9467.000000;0.985847
9466.000000;0.984941
9465.000000;0.984434
9464.000000;0.984545
9463.000000;0.984921
9462.000000;0.985107
9461.000000;0.984900
9460.000000;0.984358
9459.000000;0.983699
9458.000000;0.983191
9457.000000;0.982957
9456.000000;0.982848
9455.000000;0.982607
9454.000000;0.982139
9453.000000;0.981550
9452.000000;0.981016
9451.000000;0.980654
9450.000000;0.980482
9449.000000;0.980356
9448.000000;0.980017
9447.000000;0.979274
9446.000000;0.978196
9445.000000;0.977108
9444.000000;0.976407
9443.000000;0.976301
9442.000000;0.976614
9441.000000;0.976867
9440.000000;0.976721
9439.000000;0.976311
9438.000000;0.976018
9437.000000;0.975945
9436.000000;0.975839
9435.000000;0.975540
9434.000000;0.975215
9433.000000;0.975062
9432.000000;0.974987
9431.000000;0.974736
9430.000000;0.974189
9429.000000;0.973388
9428.000000;0.972448
9427.000000;0.971562
9426.000000;0.970968
9425.000000;0.970726
9424.000000;0.970632
9423.000000;0.970475
9422.000000;0.970289
9421.000000;0.970209
9420.000000;0.970149
9419.000000;0.969790
9418.000000;0.968923
9417.000000;0.967717
9416.000000;0.966649
9415.000000;0.966148
9414.000000;0.966233
9413.000000;0.966471
9412.000000;0.966353
9411.000000;0.965742
9410.000000;0.964895
9409.000000;0.964116
9408.000000;0.963562
9407.000000;0.963360
9406.000000;0.963618
9405.000000;0.964198
9404.000000;0.964664
9403.000000;0.964623
9402.000000;0.964068
9401.000000;0.963273
9400.000000;0.962488
9399.000000;0.961830
9398.000000;0.961354
9397.000000;0.961064
9396.000000;0.960879
9395.000000;0.960668
9394.000000;0.960308
9393.000000;0.959722
9392.000000;0.958945
9391.000000;0.958200
9390.000000;0.957780
9389.000000;0.957786
9388.000000;0.958023
9387.000000;0.958191
9386.000000;0.958100
9385.000000;0.957711
9384.000000;0.957132
9383.000000;0.956602
9382.000000;0.956333
9381.000000;0.956289
9380.000000;0.956220
9379.000000;0.955986
9378.000000;0.955712
9377.000000;0.955546
9376.000000;0.955392
9375.000000;0.955015
9374.000000;0.954334
9373.000000;0.953492
9372.000000;0.952703
9371.000000;0.952103
9370.000000;0.951701
9369.000000;0.951397
9368.000000;0.951054
9367.000000;0.950594
9366.000000;0.950039
9365.000000;0.949508
9364.000000;0.949197
9363.000000;0.949259
9362.000000;0.949570
9361.000000;0.949705
9360.000000;0.949348
9359.000000;0.948707
9358.000000;0.948303
9357.000000;0.948327
9356.000000;0.948444
9355.000000;0.948239
9354.000000;0.947639
9353.000000;0.946803
9352.000000;0.945877
9351.000000;0.945026
9350.000000;0.944465
9349.000000;0.944239
9348.000000;0.944072
9347.000000;0.943671
9346.000000;0.943114
9345.000000;0.942783
9344.000000;0.942929
9343.000000;0.943396
9342.000000;0.943731
9341.000000;0.943517
9340.000000;0.942701
9339.000000;0.941687
9338.000000;0.941033
9337.000000;0.940958
9336.000000;0.941198
9335.000000;0.941371
9334.000000;0.941354
9333.000000;0.941233
9332.000000;0.941052
9331.000000;0.940778
9330.000000;0.940422
9329.000000;0.940019
9328.000000;0.939516
9327.000000;0.938826
9326.000000;0.938006
9325.000000;0.937265
9324.000000;0.936764
9323.000000;0.936462
9322.000000;0.936173
9321.000000;0.935735
9320.000000;0.935124
9319.000000;0.934430
9318.000000;0.933756
9317.000000;0.933188
9316.000000;0.932849
9315.000000;0.932880
9314.000000;0.933237
9313.000000;0.933581
9312.000000;0.933513
9311.000000;0.932947
9310.000000;0.932144
9309.000000;0.931394
9308.000000;0.930805
9307.000000;0.930415
9306.000000;0.930262
9305.000000;0.930242
9304.000000;0.930039
9303.000000;0.929402
9302.000000;0.928482
9301.000000;0.927788
9300.000000;0.927761
9299.000000;0.928386
9298.000000;0.929175
9297.000000;0.929564
9296.000000;0.929388
9295.000000;0.928980
9294.000000;0.928751
9293.000000;0.928708
9292.000000;0.928498
9291.000000;0.927878
9290.000000;0.926979
9289.000000;0.926100
9288.000000;0.925407
9287.000000;0.924926
9286.000000;0.924692
9285.000000;0.924736
9284.000000;0.924954
9283.000000;0.925082
9282.000000;0.924854
9281.000000;0.924219
9280.000000;0.923433
9279.000000;0.922895
9278.000000;0.922810
9277.000000;0.923018
9276.000000;0.923198
9275.000000;0.923181
9274.000000;0.922996
9273.000000;0.922677
9272.000000;0.922202
9271.000000;0.921607
9270.000000;0.921001
9269.000000;0.920448
9268.000000;0.919927
9267.000000;0.919417
9266.000000;0.918942
9265.000000;0.918564
9264.000000;0.918395
9263.000000;0.918545
9262.000000;0.918913
9261.000000;0.919104
9260.000000;0.918775
9259.000000;0.918067
9258.000000;0.917489
9257.000000;0.917331
9256.000000;0.917403
9255.000000;0.917396
9254.000000;0.917259
9253.000000;0.917098
9252.000000;0.916879
9251.000000;0.916443
9250.000000;0.915745
9249.000000;0.914946
9248.000000;0.914269
9247.000000;0.913844
9246.000000;0.913660
9245.000000;0.913630
9244.000000;0.913689
9243.000000;0.913822
9242.000000;0.913985
9241.000000;0.914042
9240.000000;0.913858
9239.000000;0.913416
9238.000000;0.912780
9237.000000;0.912016
9236.000000;0.911257
9235.000000;0.910753
9234.000000;0.910677
9233.000000;0.910892
9232.000000;0.911041
9231.000000;0.910868
9230.000000;0.910347
9229.000000;0.909592
9228.000000;0.908796
9227.000000;0.908210
9226.000000;0.907947
9225.000000;0.907842
9224.000000;0.907677
9223.000000;0.907474
9222.000000;0.907340
9221.000000;0.907109
9220.000000;0.906510
9219.000000;0.905704
9218.000000;0.905278
9217.000000;0.905542
9216.000000;0.906112
9215.000000;0.906377
9214.000000;0.906166
9213.000000;0.905743
9212.000000;0.905338
9211.000000;0.904926
9210.000000;0.904387
9209.000000;0.903660
9208.000000;0.902788
9207.000000;0.901967
9206.000000;0.901504
9205.000000;0.901581
9204.000000;0.902057
9203.000000;0.902568
9202.000000;0.902818
9201.000000;0.902736
9200.000000;0.902408
9199.000000;0.901942
9198.000000;0.901402
9197.000000;0.900858
9196.000000;0.900477
9195.000000;0.900439
9194.000000;0.900667
9193.000000;0.900759
9192.000000;0.900354
9191.000000;0.899520
9190.000000;0.898636
9189.000000;0.897951
9188.000000;0.897473
9187.000000;0.897221
9186.000000;0.897267
9185.000000;0.897505
9184.000000;0.897644
9183.000000;0.897558
9182.000000;0.897423
9181.000000;0.897395
9180.000000;0.897345
9179.000000;0.897045
9178.000000;0.896443
9177.000000;0.895671
9176.000000;0.894942
9175.000000;0.894497
9174.000000;0.894451
9173.000000;0.894589
9172.000000;0.894512
9171.000000;0.894096
9170.000000;0.893605
9169.000000;0.893266
9168.000000;0.892959
9167.000000;0.892508
9166.000000;0.892033
9165.000000;0.891801
9164.000000;0.891872
9163.000000;0.892103
9162.000000;0.892369
9161.000000;0.892558
9160.000000;0.892482
9159.000000;0.892022
9158.000000;0.891336
9157.000000;0.890748
9156.000000;0.890437
9155.000000;0.890359
9154.000000;0.890395
9153.000000;0.890433
9152.000000;0.890374
9151.000000;0.890191
9150.000000;0.889982
9149.000000;0.889841
9148.000000;0.889722
9147.000000;0.889509
9146.000000;0.889140
9145.000000;0.888594
9144.000000;0.887876
9143.000000;0.887149
9142.000000;0.886750
9141.000000;0.886870
9140.000000;0.887259
9139.000000;0.887413
9138.000000;0.887073
9137.000000;0.886412
9136.000000;0.885776
9135.000000;0.885365
9134.000000;0.885171
9133.000000;0.885082
9132.000000;0.885004
9131.000000;0.884941
9130.000000;0.884964
9129.000000;0.885055
9128.000000;0.885028
9127.000000;0.884692
9126.000000;0.884093
9125.000000;0.883496
9124.000000;0.883121
9123.000000;0.882944
9122.000000;0.882766
9121.000000;0.882444
9120.000000;0.882019
9119.000000;0.881652
9118.000000;0.881431
9117.000000;0.881258
9116.000000;0.880951
9115.000000;0.880440
9114.000000;0.879829
9113.000000;0.879295
9112.000000;0.878996
9111.000000;0.879044
9110.000000;0.879430
9109.000000;0.879944
9108.000000;0.880271
9107.000000;0.880238
9106.000000;0.879917
9105.000000;0.879478
9104.000000;0.879047
9103.000000;0.878737
9102.000000;0.878669
9101.000000;0.878859
9100.000000;0.879142
9099.000000;0.879304
9098.000000;0.879248
9097.000000;0.878976
9096.000000;0.878507
9095.000000;0.877883
9094.000000;0.877213
9093.000000;0.876628
9092.000000;0.876205
9091.000000;0.875971
9090.000000;0.875913
9089.000000;0.875940
9088.000000;0.875886
9087.000000;0.875621
9086.000000;0.875183
9085.000000;0.874762
9084.000000;0.874552
9083.000000;0.874599
9082.000000;0.874747
9081.000000;0.874768
9080.000000;0.874598
9079.000000;0.874385
9078.000000;0.874223
9077.000000;0.873910
9076.000000;0.873151
9075.000000;0.872024
9074.000000;0.871050
9073.000000;0.870696
9072.000000;0.870918
9071.000000;0.871277
9070.000000;0.871397
9069.000000;0.871231
9068.000000;0.870969
9067.000000;0.870785
9066.000000;0.870691
9065.000000;0.870555
9064.000000;0.870267
9063.000000;0.869867
9062.000000;0.869487
9061.000000;0.869203
9060.000000;0.869037
9059.000000;0.869062
9058.000000;0.869356
9057.000000;0.869785
9056.000000;0.870002
9055.000000;0.869752
9054.000000;0.869125
9053.000000;0.868437
