Criado como novo conjunto de dados;"e2410_daniel_v2.spp","62645.0 Secs"
cm-1;Abs
10000.000000;1.247486
9999.000000;1.247091
9998.000000;1.246837
9997.000000;1.246694
9996.000000;1.246531
9995.000000;1.246182
9994.000000;1.245557
9993.000000;1.244648
9992.000000;1.243609
9991.000000;1.242918
9990.000000;1.243115
9989.000000;1.244056
9988.000000;1.244684
9987.000000;1.244014
9986.000000;1.242208
9985.000000;1.240272
9984.000000;1.238907
9983.000000;1.238159
9982.000000;1.237959
9981.000000;1.238311
9980.000000;1.238884
9979.000000;1.239043
9978.000000;1.238487
9977.000000;1.237560
9976.000000;1.236813
9975.000000;1.236543
9974.000000;1.236691
9973.000000;1.236859
9972.000000;1.236489
9971.000000;1.235434
9970.000000;1.234292
9969.000000;1.233755
9968.000000;1.233647
9967.000000;1.233049
9966.000000;1.231489
9965.000000;1.229625
9964.000000;1.228575
9963.000000;1.228834
9962.000000;1.229914
9961.000000;1.230826
9960.000000;1.230854
9959.000000;1.230076
9958.000000;1.229174
9957.000000;1.228642
9956.000000;1.228290
9955.000000;1.227634
9954.000000;1.226575
9953.000000;1.225480
9952.000000;1.224732
9951.000000;1.224454
9950.000000;1.224470
9949.000000;1.224344
9948.000000;1.223661
9947.000000;1.222526
9946.000000;1.221530
9945.000000;1.220982
9944.000000;1.220547
9943.000000;1.219911
9942.000000;1.219380
9941.000000;1.219298
9940.000000;1.219256
9939.000000;1.218524
9938.000000;1.217151
9937.000000;1.215977
9936.000000;1.215601
9935.000000;1.215858
9934.000000;1.216297
9933.000000;1.216608
9932.000000;1.216570
9931.000000;1.216034
9930.000000;1.215093
9929.000000;1.214034
9928.000000;1.213117
9927.000000;1.212506
9926.000000;1.212235
9925.000000;1.212037
9924.000000;1.211487
9923.000000;1.210602
9922.000000;1.209972
9921.000000;1.209929
9920.000000;1.209953
9919.000000;1.209359
9918.000000;1.208284
9917.000000;1.207428
9916.000000;1.207081
9915.000000;1.206977
9914.000000;1.206919
9913.000000;1.206930
9912.000000;1.206861
9911.000000;1.206404
9910.000000;1.205479
9909.000000;1.204234
9908.000000;1.202758
9907.000000;1.201193
9906.000000;1.199907
9905.000000;1.199102
9904.000000;1.198455
9903.000000;1.197627
9902.000000;1.196914
9901.000000;1.196834
9900.000000;1.197268
9899.000000;1.197591
9898.000000;1.197499
9897.000000;1.197129
9896.000000;1.196514
9895.000000;1.195547
9894.000000;1.194448
9893.000000;1.193625
9892.000000;1.193074
9891.000000;1.192435
9890.000000;1.191619
9889.000000;1.190899
9888.000000;1.190392
9887.000000;1.189959
9886.000000;1.189545
9885.000000;1.189156
9884.000000;1.188601
9883.000000;1.187831
9882.000000;1.187376
9881.000000;1.187811
9880.000000;1.188791
9879.000000;1.189232
9878.000000;1.188511
9877.000000;1.186992
9876.000000;1.185357
9875.000000;1.184039
9874.000000;1.183332
9873.000000;1.183386
9872.000000;1.183862
9871.000000;1.184036
9870.000000;1.183517
9869.000000;1.182618
9868.000000;1.181913
9867.000000;1.181683
9866.000000;1.181784
9865.000000;1.181787
9864.000000;1.181311
9863.000000;1.180463
9862.000000;1.179785
9861.000000;1.179515
9860.000000;1.179231
9859.000000;1.178604
9858.000000;1.178070
9857.000000;1.178127
9856.000000;1.178332
9855.000000;1.177777
9854.000000;1.176420
9853.000000;1.175122
9852.000000;1.174396
9851.000000;1.173915
9850.000000;1.173329
9849.000000;1.172773
9848.000000;1.172376
9847.000000;1.171971
9846.000000;1.171547
9845.000000;1.171423
9844.000000;1.171676
9843.000000;1.171864
9842.000000;1.171534
9841.000000;1.170655
9840.000000;1.169455
9839.000000;1.168266
9838.000000;1.167563
9837.000000;1.167591
9836.000000;1.167796
9835.000000;1.167231
9834.000000;1.165775
9833.000000;1.164459
9832.000000;1.164280
9831.000000;1.165109
9830.000000;1.165993
9829.000000;1.166185
9828.000000;1.165598
9827.000000;1.164545
9826.000000;1.163382
9825.000000;1.162301
9824.000000;1.161275
9823.000000;1.160263
9822.000000;1.159431
9821.000000;1.158986
9820.000000;1.158808
9819.000000;1.158492
9818.000000;1.157779
9817.000000;1.156764
9816.000000;1.155735
9815.000000;1.155025
9814.000000;1.154867
9813.000000;1.155135
9812.000000;1.155323
9811.000000;1.155078
9810.000000;1.154617
9809.000000;1.154284
9808.000000;1.153930
9807.000000;1.153189
9806.000000;1.152213
9805.000000;1.151551
9804.000000;1.151338
9803.000000;1.151140
9802.000000;1.150640
9801.000000;1.149964
9800.000000;1.149267
9799.000000;1.148525
9798.000000;1.147885
9797.000000;1.147704
9796.000000;1.148022
9795.000000;1.148346
9794.000000;1.148194
9793.000000;1.147612
9792.000000;1.146957
9791.000000;1.146402
9790.000000;1.145851
9789.000000;1.145185
9788.000000;1.144519
9787.000000;1.144177
9786.000000;1.144335
9785.000000;1.144601
9784.000000;1.144231
9783.000000;1.143014
9782.000000;1.141702
9781.000000;1.141182
9780.000000;1.141451
9779.000000;1.141764
9778.000000;1.141610
9777.000000;1.141061
9776.000000;1.140275
9775.000000;1.139247
9774.000000;1.138149
9773.000000;1.137407
9772.000000;1.137269
9771.000000;1.137578
9770.000000;1.137999
9769.000000;1.138174
9768.000000;1.137722
9767.000000;1.136473
9766.000000;1.134817
9765.000000;1.133485
9764.000000;1.132929
9763.000000;1.133083
9762.000000;1.133612
9761.000000;1.134065
9760.000000;1.133914
9759.000000;1.132883
9758.000000;1.131288
9757.000000;1.129745
9756.000000;1.128585
9755.000000;1.127818
9754.000000;1.127481
9753.000000;1.127558
9752.000000;1.127647
9751.000000;1.127277
9750.000000;1.126620
9749.000000;1.126372
9748.000000;1.126766
9747.000000;1.127158
9746.000000;1.126801
9745.000000;1.125720
9744.000000;1.124532
9743.000000;1.123645
9742.000000;1.122923
9741.000000;1.122105
9740.000000;1.121332
9739.000000;1.121088
9738.000000;1.121567
9737.000000;1.122201
9736.000000;1.122112
9735.000000;1.121119
9734.000000;1.119934
9733.000000;1.119198
9732.000000;1.118726
9731.000000;1.118010
9730.000000;1.117079
9729.000000;1.116389
9728.000000;1.116121
9727.000000;1.116058
9726.000000;1.115984
9725.000000;1.115685
9724.000000;1.114767
9723.000000;1.113042
9722.000000;1.111060
9721.000000;1.109739
9720.000000;1.109396
9719.000000;1.109528
9718.000000;1.109521
9717.000000;1.109208
9716.000000;1.108757
9715.000000;1.108424
9714.000000;1.108450
9713.000000;1.108830
9712.000000;1.109126
9711.000000;1.108837
9710.000000;1.108012
9709.000000;1.107224
9708.000000;1.106930
9707.000000;1.107106
9706.000000;1.107400
9705.000000;1.107368
9704.000000;1.106663
9703.000000;1.105392
9702.000000;1.104230
9701.000000;1.103851
9700.000000;1.104227
9699.000000;1.104740
9698.000000;1.104891
9697.000000;1.104626
9696.000000;1.104101
9695.000000;1.103479
9694.000000;1.102902
9693.000000;1.102326
9692.000000;1.101464
9691.000000;1.100203
9690.000000;1.098960
9689.000000;1.098275
9688.000000;1.098134
9687.000000;1.098038
9686.000000;1.097658
9685.000000;1.097119
9684.000000;1.096681
9683.000000;1.096478
9682.000000;1.096486
9681.000000;1.096455
9680.000000;1.096013
9679.000000;1.095132
9678.000000;1.094304
9677.000000;1.093923
9676.000000;1.093716
9675.000000;1.093193
9674.000000;1.092457
9673.000000;1.092044
9672.000000;1.092082
9671.000000;1.092140
9670.000000;1.091899
9669.000000;1.091487
9668.000000;1.091098
9667.000000;1.090704
9666.000000;1.090205
9665.000000;1.089592
9664.000000;1.088923
9663.000000;1.088353
9662.000000;1.088062
9661.000000;1.087934
9660.000000;1.087516
9659.000000;1.086607
9658.000000;1.085649
9657.000000;1.085142
9656.000000;1.084916
9655.000000;1.084465
9654.000000;1.083760
9653.000000;1.083213
9652.000000;1.082976
9651.000000;1.082823
9650.000000;1.082611
9649.000000;1.082325
9648.000000;1.081767
9647.000000;1.080749
9646.000000;1.079549
9645.000000;1.078674
9644.000000;1.078181
9643.000000;1.077738
9642.000000;1.077275
9641.000000;1.077052
9640.000000;1.077090
9639.000000;1.077110
9638.000000;1.077033
9637.000000;1.077039
9636.000000;1.077069
9635.000000;1.076792
9634.000000;1.076102
9633.000000;1.075201
9632.000000;1.074190
9631.000000;1.073087
9630.000000;1.072212
9629.000000;1.071986
9628.000000;1.072264
9627.000000;1.072419
9626.000000;1.072179
9625.000000;1.071842
9624.000000;1.071571
9623.000000;1.071064
9622.000000;1.070160
9621.000000;1.069229
9620.000000;1.068663
9619.000000;1.068378
9618.000000;1.068096
9617.000000;1.067790
9616.000000;1.067609
9615.000000;1.067593
9614.000000;1.067614
9613.000000;1.067420
9612.000000;1.066734
9611.000000;1.065592
9610.000000;1.064548
9609.000000;1.064172
9608.000000;1.064322
9607.000000;1.064329
9606.000000;1.063941
9605.000000;1.063568
9604.000000;1.063468
9603.000000;1.063228
9602.000000;1.062377
9601.000000;1.061074
9600.000000;1.059872
9599.000000;1.059072
9598.000000;1.058628
9597.000000;1.058414
9596.000000;1.058286
9595.000000;1.058009
9594.000000;1.057415
9593.000000;1.056599
9592.000000;1.055827
9591.000000;1.055265
9590.000000;1.054873
9589.000000;1.054510
9588.000000;1.054151
9587.000000;1.053996
9586.000000;1.054242
9585.000000;1.054695
9584.000000;1.054833
9583.000000;1.054417
9582.000000;1.053794
9581.000000;1.053352
9580.000000;1.052927
9579.000000;1.052127
9578.000000;1.051036
9577.000000;1.050116
9576.000000;1.049517
9575.000000;1.048972
9574.000000;1.048375
9573.000000;1.048002
9572.000000;1.048058
9571.000000;1.048364
9570.000000;1.048576
9569.000000;1.048430
9568.000000;1.047775
9567.000000;1.046712
9566.000000;1.045699
9565.000000;1.045171
9564.000000;1.045012
9563.000000;1.044710
9562.000000;1.044071
9561.000000;1.043438
9560.000000;1.043182
9559.000000;1.043290
9558.000000;1.043503
9557.000000;1.043536
9556.000000;1.043122
9555.000000;1.042207
9554.000000;1.041169
9553.000000;1.040528
9552.000000;1.040335
9551.000000;1.040137
9550.000000;1.039593
9549.000000;1.038843
9548.000000;1.038192
9547.000000;1.037732
9546.000000;1.037379
9545.000000;1.037092
9544.000000;1.036944
9543.000000;1.037092
9542.000000;1.037624
9541.000000;1.038269
9540.000000;1.038427
9539.000000;1.037767
9538.000000;1.036696
9537.000000;1.035882
9536.000000;1.035429
9535.000000;1.034936
9534.000000;1.034254
9533.000000;1.033697
9532.000000;1.033470
9531.000000;1.033369
9530.000000;1.033165
9529.000000;1.032894
9528.000000;1.032615
9527.000000;1.032274
9526.000000;1.031960
9525.000000;1.031943
9524.000000;1.032270
9523.000000;1.032537
9522.000000;1.032257
9521.000000;1.031262
9520.000000;1.029699
9519.000000;1.027882
9518.000000;1.026250
9517.000000;1.025195
9516.000000;1.024750
9515.000000;1.024617
9514.000000;1.024549
9513.000000;1.024559
9512.000000;1.024708
9511.000000;1.024907
9510.000000;1.025003
9509.000000;1.024851
9508.000000;1.024300
9507.000000;1.023321
9506.000000;1.022189
9505.000000;1.021339
9504.000000;1.020949
9503.000000;1.020850
9502.000000;1.020800
9501.000000;1.020656
9500.000000;1.020321
9499.000000;1.019840
9498.000000;1.019589
9497.000000;1.020033
9496.000000;1.021138
9495.000000;1.022202
9494.000000;1.022422
9493.000000;1.021567
9492.000000;1.020056
9491.000000;1.018539
9490.000000;1.017449
9489.000000;1.016816
9488.000000;1.016394
9487.000000;1.015990
9486.000000;1.015622
9485.000000;1.015329
9484.000000;1.014944
9483.000000;1.014246
9482.000000;1.013274
9481.000000;1.012359
9480.000000;1.011885
9479.000000;1.012068
9478.000000;1.012782
9477.000000;1.013488
9476.000000;1.013541
9475.000000;1.012785
9474.000000;1.011686
9473.000000;1.010716
9472.000000;1.009865
9471.000000;1.008979
9470.000000;1.008235
9469.000000;1.007882
9468.000000;1.007753
9467.000000;1.007467
9466.000000;1.006992
9465.000000;1.006602
9464.000000;1.006377
9463.000000;1.006186
9462.000000;1.006076
9461.000000;1.006237
9460.000000;1.006550
9459.000000;1.006607
9458.000000;1.006232
9457.000000;1.005613
9456.000000;1.004879
9455.000000;1.003923
9454.000000;1.002748
9453.000000;1.001625
9452.000000;1.000807
9451.000000;1.000295
9450.000000;0.999944
9449.000000;0.999554
9448.000000;0.998896
9447.000000;0.997953
9446.000000;0.997141
9445.000000;0.996980
9444.000000;0.997476
9443.000000;0.998105
9442.000000;0.998413
9441.000000;0.998352
9440.000000;0.998040
9439.000000;0.997538
9438.000000;0.996967
9437.000000;0.996535
9436.000000;0.996330
9435.000000;0.996285
9434.000000;0.996347
9433.000000;0.996428
9432.000000;0.996221
9431.000000;0.995410
9430.000000;0.994156
9429.000000;0.993056
9428.000000;0.992487
9427.000000;0.992246
9426.000000;0.991940
9425.000000;0.991478
9424.000000;0.991054
9423.000000;0.990857
9422.000000;0.990951
9421.000000;0.991293
9420.000000;0.991718
9419.000000;0.991999
9418.000000;0.991985
9417.000000;0.991617
9416.000000;0.990856
9415.000000;0.989775
9414.000000;0.988693
9413.000000;0.987983
9412.000000;0.987665
9411.000000;0.987369
9410.000000;0.986775
9409.000000;0.985939
9408.000000;0.985138
9407.000000;0.984552
9406.000000;0.984191
9405.000000;0.983997
9404.000000;0.983917
9403.000000;0.983910
9402.000000;0.983896
9401.000000;0.983714
9400.000000;0.983215
9399.000000;0.982465
9398.000000;0.981790
9397.000000;0.981476
9396.000000;0.981511
9395.000000;0.981699
9394.000000;0.981920
9393.000000;0.982137
9392.000000;0.982244
9391.000000;0.982111
9390.000000;0.981748
9389.000000;0.981299
9388.000000;0.980867
9387.000000;0.980457
9386.000000;0.980016
9385.000000;0.979489
9384.000000;0.978910
9383.000000;0.978452
9382.000000;0.978266
9381.000000;0.978221
9380.000000;0.978010
9379.000000;0.977564
9378.000000;0.977096
9377.000000;0.976672
9376.000000;0.976082
9375.000000;0.975297
9374.000000;0.974683
9373.000000;0.974460
9372.000000;0.974283
9371.000000;0.973750
9370.000000;0.973042
9369.000000;0.972640
9368.000000;0.972584
9367.000000;0.972502
9366.000000;0.972254
9365.000000;0.972102
9364.000000;0.972229
9363.000000;0.972447
9362.000000;0.972464
9361.000000;0.972122
9360.000000;0.971381
9359.000000;0.970332
9358.000000;0.969267
9357.000000;0.968511
9356.000000;0.968146
9355.000000;0.968058
9354.000000;0.968178
9353.000000;0.968461
9352.000000;0.968702
9351.000000;0.968616
9350.000000;0.968088
9349.000000;0.967209
9348.000000;0.966169
9347.000000;0.965287
9346.000000;0.964939
9345.000000;0.965175
9344.000000;0.965507
9343.000000;0.965377
9342.000000;0.964782
9341.000000;0.964182
9340.000000;0.963880
9339.000000;0.963796
9338.000000;0.963778
9337.000000;0.963813
9336.000000;0.963919
9335.000000;0.964027
9334.000000;0.964015
9333.000000;0.963706
9332.000000;0.962929
9331.000000;0.961766
9330.000000;0.960627
9329.000000;0.959888
9328.000000;0.959533
9327.000000;0.959326
9326.000000;0.959170
9325.000000;0.959121
9324.000000;0.959176
9323.000000;0.959282
9322.000000;0.959411
9321.000000;0.959426
9320.000000;0.959081
9319.000000;0.958392
9318.000000;0.957780
9317.000000;0.957558
9316.000000;0.957475
9315.000000;0.957081
9314.000000;0.956371
9313.000000;0.955706
9312.000000;0.955265
9311.000000;0.954956
9310.000000;0.954739
9309.000000;0.954646
9308.000000;0.954553
9307.000000;0.954296
9306.000000;0.953935
9305.000000;0.953611
9304.000000;0.953243
9303.000000;0.952739
9302.000000;0.952349
9301.000000;0.952381
9300.000000;0.952655
9299.000000;0.952684
9298.000000;0.952353
9297.000000;0.951982
9296.000000;0.951710
9295.000000;0.951305
9294.000000;0.950683
9293.000000;0.950181
9292.000000;0.950097
9291.000000;0.950267
9290.000000;0.950273
9289.000000;0.949895
9288.000000;0.949228
9287.000000;0.948516
9286.000000;0.947965
9285.000000;0.947609
9284.000000;0.947315
9283.000000;0.946973
9282.000000;0.946600
9281.000000;0.946196
9280.000000;0.945683
9279.000000;0.945144
9278.000000;0.944895
9277.000000;0.945040
9276.000000;0.945187
9275.000000;0.944933
9274.000000;0.944458
9273.000000;0.944232
9272.000000;0.944285
9271.000000;0.944207
9270.000000;0.943831
9269.000000;0.943457
9268.000000;0.943346
9267.000000;0.943372
9266.000000;0.943276
9265.000000;0.942965
9264.000000;0.942468
9263.000000;0.941885
9262.000000;0.941416
9261.000000;0.941203
9260.000000;0.941103
9259.000000;0.940840
9258.000000;0.940374
9257.000000;0.939895
9256.000000;0.939478
9255.000000;0.939015
9254.000000;0.938516
9253.000000;0.938177
9252.000000;0.938101
9251.000000;0.938149
9250.000000;0.938134
9249.000000;0.937975
9248.000000;0.937662
9247.000000;0.937247
9246.000000;0.936874
9245.000000;0.936630
9244.000000;0.936414
9243.000000;0.936076
9242.000000;0.935622
9241.000000;0.935106
9240.000000;0.934451
9239.000000;0.933576
9238.000000;0.932628
9237.000000;0.931861
9236.000000;0.931402
9235.000000;0.931293
9234.000000;0.931612
9233.000000;0.932276
9232.000000;0.932889
9231.000000;0.933078
9230.000000;0.932913
9229.000000;0.932713
9228.000000;0.932565
9227.000000;0.932326
9226.000000;0.931969
9225.000000;0.931570
9224.000000;0.931072
9223.000000;0.930404
9222.000000;0.929785
9221.000000;0.929530
9220.000000;0.929581
9219.000000;0.929559
9218.000000;0.929312
9217.000000;0.929075
9216.000000;0.929066
9215.000000;0.929181
9214.000000;0.929146
9213.000000;0.928762
9212.000000;0.928014
9211.000000;0.927145
9210.000000;0.926564
9209.000000;0.926474
9208.000000;0.926660
9207.000000;0.926802
9206.000000;0.926846
9205.000000;0.926824
9204.000000;0.926547
9203.000000;0.925881
9202.000000;0.925175
9201.000000;0.924958
9200.000000;0.925248
9199.000000;0.925547
9198.000000;0.925495
9197.000000;0.925163
9196.000000;0.924694
9195.000000;0.924092
9194.000000;0.923413
9193.000000;0.922796
9192.000000;0.922215
9191.000000;0.921529
9190.000000;0.920831
9189.000000;0.920456
9188.000000;0.920531
9187.000000;0.920787
9186.000000;0.920883
9185.000000;0.920715
9184.000000;0.920367
9183.000000;0.919978
9182.000000;0.919679
9181.000000;0.919490
9180.000000;0.919298
9179.000000;0.919092
9178.000000;0.919107
9177.000000;0.919455
9176.000000;0.919776
9175.000000;0.919601
9174.000000;0.918977
9173.000000;0.918349
9172.000000;0.917899
9171.000000;0.917424
9170.000000;0.916883
9169.000000;0.916601
9168.000000;0.916801
9167.000000;0.917284
9166.000000;0.917676
9165.000000;0.917736
9164.000000;0.917366
9163.000000;0.916613
9162.000000;0.915728
9161.000000;0.914968
9160.000000;0.914291
9159.000000;0.913504
9158.000000;0.912713
9157.000000;0.912278
9156.000000;0.912295
9155.000000;0.912470
9154.000000;0.912552
9153.000000;0.912567
9152.000000;0.912535
9151.000000;0.912345
9150.000000;0.912039
9149.000000;0.911868
9148.000000;0.911876
9147.000000;0.911731
9146.000000;0.911175
9145.000000;0.910410
9144.000000;0.909834
9143.000000;0.909593
9142.000000;0.909574
9141.000000;0.909657
9140.000000;0.909767
9139.000000;0.909827
9138.000000;0.909809
9137.000000;0.909745
9136.000000;0.909606
9135.000000;0.909280
9134.000000;0.908767
9133.000000;0.908263
9132.000000;0.907965
9131.000000;0.907872
9130.000000;0.907838
9129.000000;0.907721
9128.000000;0.907464
9127.000000;0.907113
9126.000000;0.906777
9125.000000;0.906498
9124.000000;0.906190
9123.000000;0.905820
9122.000000;0.905536
9121.000000;0.905445
9120.000000;0.905374
9119.000000;0.905088
9118.000000;0.904689
9117.000000;0.904521
9116.000000;0.904677
9115.000000;0.904847
9114.000000;0.904693
9113.000000;0.904193
9112.000000;0.903567
9111.000000;0.903084
9110.000000;0.902925
9109.000000;0.903027
9108.000000;0.903032
9107.000000;0.902615
9106.000000;0.901894
9105.000000;0.901308
9104.000000;0.901088
9103.000000;0.901087
9102.000000;0.901095
9101.000000;0.901038
9100.000000;0.900816
9099.000000;0.900262
9098.000000;0.899441
9097.000000;0.898757
9096.000000;0.898582
9095.000000;0.898872
9094.000000;0.899258
9093.000000;0.899414
9092.000000;0.899234
9091.000000;0.898795
9090.000000;0.898263
9089.000000;0.897800
9088.000000;0.897514
9087.000000;0.897461
9086.000000;0.897634
9085.000000;0.897880
9084.000000;0.897942
9083.000000;0.897735
9082.000000;0.897482
9081.000000;0.897409
9080.000000;0.897414
9079.000000;0.897243
9078.000000;0.896919
9077.000000;0.896737
9076.000000;0.896823
9075.000000;0.896973
9074.000000;0.896921
9073.000000;0.896571
9072.000000;0.895939
9071.000000;0.895115
9070.000000;0.894319
9069.000000;0.893772
9068.000000;0.893458
9067.000000;0.893197
9066.000000;0.892961
9065.000000;0.892914
9064.000000;0.893095
9063.000000;0.893297
9062.000000;0.893341
9061.000000;0.893275
9060.000000;0.893223
9059.000000;0.893192
9058.000000;0.893138
9057.000000;0.893026
9056.000000;0.892767
9055.000000;0.892231
9054.000000;0.891472
9053.000000;0.890812
