Criado como novo conjunto de dados;"e2410_daniel_v2.spp","34203.5 Secs"
cm-1;Abs
10000.000000;0.459547
9999.000000;0.459081
9998.000000;0.458572
9997.000000;0.458170
9996.000000;0.457893
9995.000000;0.457577
9994.000000;0.457110
9993.000000;0.456489
9992.000000;0.455769
9991.000000;0.455002
9990.000000;0.454302
9989.000000;0.453795
9988.000000;0.453481
9987.000000;0.453201
9986.000000;0.452773
9985.000000;0.452132
9984.000000;0.451356
9983.000000;0.450633
9982.000000;0.450145
9981.000000;0.449890
9980.000000;0.449623
9979.000000;0.449102
9978.000000;0.448371
9977.000000;0.447669
9976.000000;0.447094
9975.000000;0.446516
9974.000000;0.445841
9973.000000;0.445186
9972.000000;0.444719
9971.000000;0.444453
9970.000000;0.444271
9969.000000;0.444064
9968.000000;0.443752
9967.000000;0.443307
9966.000000;0.442809
9965.000000;0.442409
9964.000000;0.442128
9963.000000;0.441781
9962.000000;0.441201
9961.000000;0.440469
9960.000000;0.439824
9959.000000;0.439359
9958.000000;0.438922
9957.000000;0.438314
9956.000000;0.437527
9955.000000;0.436735
9954.000000;0.436117
9953.000000;0.435706
9952.000000;0.435390
9951.000000;0.435021
9950.000000;0.434516
9949.000000;0.433898
9948.000000;0.433258
9947.000000;0.432691
9946.000000;0.432204
9945.000000;0.431704
9944.000000;0.431090
9943.000000;0.430378
9942.000000;0.429689
9941.000000;0.429109
9940.000000;0.428631
9939.000000;0.428241
9938.000000;0.427949
9937.000000;0.427718
9936.000000;0.427440
9935.000000;0.427070
9934.000000;0.426703
9933.000000;0.426428
9932.000000;0.426175
9931.000000;0.425802
9930.000000;0.425250
9929.000000;0.424546
9928.000000;0.423745
9927.000000;0.422990
9926.000000;0.422518
9925.000000;0.422422
9924.000000;0.422450
9923.000000;0.422198
9922.000000;0.421523
9921.000000;0.420643
9920.000000;0.419827
9919.000000;0.419149
9918.000000;0.418550
9917.000000;0.417989
9916.000000;0.417470
9915.000000;0.417015
9914.000000;0.416639
9913.000000;0.416302
9912.000000;0.415886
9911.000000;0.415304
9910.000000;0.414632
9909.000000;0.414021
9908.000000;0.413508
9907.000000;0.413015
9906.000000;0.412544
9905.000000;0.412210
9904.000000;0.412049
9903.000000;0.411890
9902.000000;0.411520
9901.000000;0.410905
9900.000000;0.410203
9899.000000;0.409593
9898.000000;0.409150
9897.000000;0.408824
9896.000000;0.408507
9895.000000;0.408122
9894.000000;0.407662
9893.000000;0.407146
9892.000000;0.406572
9891.000000;0.405950
9890.000000;0.405332
9889.000000;0.404756
9888.000000;0.404198
9887.000000;0.403623
9886.000000;0.403062
9885.000000;0.402567
9884.000000;0.402136
9883.000000;0.401735
9882.000000;0.401326
9881.000000;0.400835
9880.000000;0.400164
9879.000000;0.399338
9878.000000;0.398586
9877.000000;0.398133
9876.000000;0.397953
9875.000000;0.397813
9874.000000;0.397541
9873.000000;0.397128
9872.000000;0.396604
9871.000000;0.395966
9870.000000;0.395237
9869.000000;0.394502
9868.000000;0.393829
9867.000000;0.393241
9866.000000;0.392731
9865.000000;0.392270
9864.000000;0.391820
9863.000000;0.391397
9862.000000;0.391090
9861.000000;0.390933
9860.000000;0.390824
9859.000000;0.390641
9858.000000;0.390366
9857.000000;0.389990
9856.000000;0.389412
9855.000000;0.388600
9854.000000;0.387760
9853.000000;0.387136
9852.000000;0.386684
9851.000000;0.386161
9850.000000;0.385505
9849.000000;0.384898
9848.000000;0.384418
9847.000000;0.383891
9846.000000;0.383191
9845.000000;0.382485
9844.000000;0.382015
9843.000000;0.381798
9842.000000;0.381659
9841.000000;0.381463
9840.000000;0.381168
9839.000000;0.380743
9838.000000;0.380185
9837.000000;0.379587
9836.000000;0.379076
9835.000000;0.378660
9834.000000;0.378227
9833.000000;0.377666
9832.000000;0.376960
9831.000000;0.376193
9830.000000;0.375511
9829.000000;0.375047
9828.000000;0.374798
9827.000000;0.374599
9826.000000;0.374272
9825.000000;0.373806
9824.000000;0.373340
9823.000000;0.372964
9822.000000;0.372587
9821.000000;0.372045
9820.000000;0.371329
9819.000000;0.370644
9818.000000;0.370204
9817.000000;0.369998
9816.000000;0.369815
9815.000000;0.369476
9814.000000;0.368961
9813.000000;0.368337
9812.000000;0.367667
9811.000000;0.367045
9810.000000;0.366573
9809.000000;0.366230
9808.000000;0.365848
9807.000000;0.365324
9806.000000;0.364766
9805.000000;0.364324
9804.000000;0.363962
9803.000000;0.363520
9802.000000;0.362942
9801.000000;0.362310
9800.000000;0.361689
9799.000000;0.361080
9798.000000;0.360528
9797.000000;0.360111
9796.000000;0.359808
9795.000000;0.359504
9794.000000;0.359154
9793.000000;0.358833
9792.000000;0.358579
9791.000000;0.358288
9790.000000;0.357825
9789.000000;0.357185
9788.000000;0.356482
9787.000000;0.355838
9786.000000;0.355289
9785.000000;0.354809
9784.000000;0.354372
9783.000000;0.353996
9782.000000;0.353700
9781.000000;0.353405
9780.000000;0.352957
9779.000000;0.352294
9778.000000;0.351545
9777.000000;0.350889
9776.000000;0.350363
9775.000000;0.349889
9774.000000;0.349440
9773.000000;0.349085
9772.000000;0.348865
9771.000000;0.348713
9770.000000;0.348491
9769.000000;0.348079
9768.000000;0.347443
9767.000000;0.346682
9766.000000;0.345970
9765.000000;0.345420
9764.000000;0.345002
9763.000000;0.344633
9762.000000;0.344274
9761.000000;0.343892
9760.000000;0.343429
9759.000000;0.342896
9758.000000;0.342420
9757.000000;0.342094
9756.000000;0.341821
9755.000000;0.341434
9754.000000;0.340896
9753.000000;0.340299
9752.000000;0.339694
9751.000000;0.339077
9750.000000;0.338505
9749.000000;0.338094
9748.000000;0.337857
9747.000000;0.337665
9746.000000;0.337372
9745.000000;0.336924
9744.000000;0.336348
9743.000000;0.335733
9742.000000;0.335182
9741.000000;0.334734
9740.000000;0.334336
9739.000000;0.333945
9738.000000;0.333604
9737.000000;0.333330
9736.000000;0.333007
9735.000000;0.332511
9734.000000;0.331904
9733.000000;0.331366
9732.000000;0.330981
9731.000000;0.330691
9730.000000;0.330441
9729.000000;0.330232
9728.000000;0.330034
9727.000000;0.329767
9726.000000;0.329385
9725.000000;0.328881
9724.000000;0.328237
9723.000000;0.327476
9722.000000;0.326743
9721.000000;0.326199
9720.000000;0.325824
9719.000000;0.325442
9718.000000;0.324952
9717.000000;0.324434
9716.000000;0.323998
9715.000000;0.323635
9714.000000;0.323254
9713.000000;0.322784
9712.000000;0.322207
9711.000000;0.321552
9710.000000;0.320907
9709.000000;0.320385
9708.000000;0.320040
9707.000000;0.319837
9706.000000;0.319675
9705.000000;0.319430
9704.000000;0.319018
9703.000000;0.318479
9702.000000;0.317959
9701.000000;0.317546
9700.000000;0.317166
9699.000000;0.316703
9698.000000;0.316173
9697.000000;0.315702
9696.000000;0.315370
9695.000000;0.315148
9694.000000;0.314943
9693.000000;0.314641
9692.000000;0.314159
9691.000000;0.313533
9690.000000;0.312899
9689.000000;0.312311
9688.000000;0.311677
9687.000000;0.310959
9686.000000;0.310350
9685.000000;0.310080
9684.000000;0.310105
9683.000000;0.310113
9682.000000;0.309850
9681.000000;0.309309
9680.000000;0.308652
9679.000000;0.308057
9678.000000;0.307624
9677.000000;0.307294
9676.000000;0.306882
9675.000000;0.306286
9674.000000;0.305658
9673.000000;0.305225
9672.000000;0.305012
9671.000000;0.304853
9670.000000;0.304639
9669.000000;0.304387
9668.000000;0.304078
9667.000000;0.303623
9666.000000;0.302996
9665.000000;0.302279
9664.000000;0.301544
9663.000000;0.300822
9662.000000;0.300198
9661.000000;0.299784
9660.000000;0.299546
9659.000000;0.299276
9658.000000;0.298783
9657.000000;0.298051
9656.000000;0.297206
9655.000000;0.296465
9654.000000;0.296090
9653.000000;0.296188
9652.000000;0.296508
9651.000000;0.296565
9650.000000;0.296085
9649.000000;0.295238
9648.000000;0.294398
9647.000000;0.293765
9646.000000;0.293304
9645.000000;0.292915
9644.000000;0.292543
9643.000000;0.292146
9642.000000;0.291691
9641.000000;0.291201
9640.000000;0.290775
9639.000000;0.290515
9638.000000;0.290407
9637.000000;0.290288
9636.000000;0.289979
9635.000000;0.289480
9634.000000;0.288969
9633.000000;0.288580
9632.000000;0.288249
9631.000000;0.287840
9630.000000;0.287344
9629.000000;0.286847
9628.000000;0.286363
9627.000000;0.285830
9626.000000;0.285252
9625.000000;0.284715
9624.000000;0.284265
9623.000000;0.283870
9622.000000;0.283516
9621.000000;0.283233
9620.000000;0.283013
9619.000000;0.282781
9618.000000;0.282472
9617.000000;0.282067
9616.000000;0.281548
9615.000000;0.280916
9614.000000;0.280245
9613.000000;0.279664
9612.000000;0.279245
9611.000000;0.278950
9610.000000;0.278682
9609.000000;0.278357
9608.000000;0.277948
9607.000000;0.277522
9606.000000;0.277178
9605.000000;0.276919
9604.000000;0.276606
9603.000000;0.276120
9602.000000;0.275509
9601.000000;0.274911
9600.000000;0.274380
9599.000000;0.273886
9598.000000;0.273438
9597.000000;0.273071
9596.000000;0.272758
9595.000000;0.272425
9594.000000;0.272055
9593.000000;0.271672
9592.000000;0.271260
9591.000000;0.270771
9590.000000;0.270235
9589.000000;0.269739
9588.000000;0.269322
9587.000000;0.268968
9586.000000;0.268690
9585.000000;0.268520
9584.000000;0.268417
9583.000000;0.268278
9582.000000;0.268033
9581.000000;0.267676
9580.000000;0.267209
9579.000000;0.266650
9578.000000;0.266065
9577.000000;0.265522
9576.000000;0.265015
9575.000000;0.264507
9574.000000;0.264026
9573.000000;0.263631
9572.000000;0.263317
9571.000000;0.263013
9570.000000;0.262679
9569.000000;0.262321
9568.000000;0.261936
9567.000000;0.261523
9566.000000;0.261115
9565.000000;0.260734
9564.000000;0.260349
9563.000000;0.259925
9562.000000;0.259500
9561.000000;0.259120
9560.000000;0.258768
9559.000000;0.258411
9558.000000;0.258085
9557.000000;0.257823
9556.000000;0.257573
9555.000000;0.257248
9554.000000;0.256818
9553.000000;0.256284
9552.000000;0.255639
9551.000000;0.254935
9550.000000;0.254316
9549.000000;0.253853
9548.000000;0.253462
9547.000000;0.253073
9546.000000;0.252778
9545.000000;0.252641
9544.000000;0.252487
9543.000000;0.252081
9542.000000;0.251461
9541.000000;0.250880
9540.000000;0.250445
9539.000000;0.250037
9538.000000;0.249577
9537.000000;0.249148
9536.000000;0.248811
9535.000000;0.248494
9534.000000;0.248126
9533.000000;0.247733
9532.000000;0.247353
9531.000000;0.246981
9530.000000;0.246656
9529.000000;0.246452
9528.000000;0.246345
9527.000000;0.246193
9526.000000;0.245909
9525.000000;0.245550
9524.000000;0.245184
9523.000000;0.244797
9522.000000;0.244370
9521.000000;0.243929
9520.000000;0.243468
9519.000000;0.242919
9518.000000;0.242285
9517.000000;0.241708
9516.000000;0.241325
9515.000000;0.241098
9514.000000;0.240871
9513.000000;0.240551
9512.000000;0.240186
9511.000000;0.239880
9510.000000;0.239653
9509.000000;0.239395
9508.000000;0.238979
9507.000000;0.238406
9506.000000;0.237819
9505.000000;0.237340
9504.000000;0.236966
9503.000000;0.236638
9502.000000;0.236344
9501.000000;0.236057
9500.000000;0.235683
9499.000000;0.235179
9498.000000;0.234664
9497.000000;0.234297
9496.000000;0.234074
9495.000000;0.233859
9494.000000;0.233590
9493.000000;0.233299
9492.000000;0.232992
9491.000000;0.232636
9490.000000;0.232262
9489.000000;0.231941
9488.000000;0.231631
9487.000000;0.231194
9486.000000;0.230583
9485.000000;0.229930
9484.000000;0.229414
9483.000000;0.229110
9482.000000;0.228956
9481.000000;0.228796
9480.000000;0.228472
9479.000000;0.227980
9478.000000;0.227488
9477.000000;0.227145
9476.000000;0.226908
9475.000000;0.226651
9474.000000;0.226383
9473.000000;0.226192
9472.000000;0.226039
9471.000000;0.225779
9470.000000;0.225400
9469.000000;0.225041
9468.000000;0.224771
9467.000000;0.224501
9466.000000;0.224150
9465.000000;0.223738
9464.000000;0.223275
9463.000000;0.222709
9462.000000;0.222057
9461.000000;0.221467
9460.000000;0.221055
9459.000000;0.220772
9458.000000;0.220489
9457.000000;0.220153
9456.000000;0.219779
9455.000000;0.219386
9454.000000;0.218994
9453.000000;0.218646
9452.000000;0.218377
9451.000000;0.218180
9450.000000;0.218012
9449.000000;0.217802
9448.000000;0.217471
9447.000000;0.217002
9446.000000;0.216480
9445.000000;0.216002
9444.000000;0.215570
9443.000000;0.215129
9442.000000;0.214686
9441.000000;0.214306
9440.000000;0.214015
9439.000000;0.213770
9438.000000;0.213515
9437.000000;0.213193
9436.000000;0.212756
9435.000000;0.212252
9434.000000;0.211840
9433.000000;0.211630
9432.000000;0.211532
9431.000000;0.211365
9430.000000;0.211067
9429.000000;0.210688
9428.000000;0.210226
9427.000000;0.209662
9426.000000;0.209106
9425.000000;0.208741
9424.000000;0.208595
9423.000000;0.208509
9422.000000;0.208348
9421.000000;0.208114
9420.000000;0.207838
9419.000000;0.207510
9418.000000;0.207142
9417.000000;0.206781
9416.000000;0.206397
9415.000000;0.205898
9414.000000;0.205282
9413.000000;0.204680
9412.000000;0.204204
9411.000000;0.203846
9410.000000;0.203550
9409.000000;0.203286
9408.000000;0.203012
9407.000000;0.202678
9406.000000;0.202317
9405.000000;0.202032
9404.000000;0.201859
9403.000000;0.201731
9402.000000;0.201585
9401.000000;0.201421
9400.000000;0.201223
9399.000000;0.200937
9398.000000;0.200561
9397.000000;0.200172
9396.000000;0.199814
9395.000000;0.199442
9394.000000;0.199005
9393.000000;0.198524
9392.000000;0.198055
9391.000000;0.197643
9390.000000;0.197318
9389.000000;0.197056
9388.000000;0.196752
9387.000000;0.196327
9386.000000;0.195862
9385.000000;0.195532
9384.000000;0.195377
9383.000000;0.195260
9382.000000;0.195048
9381.000000;0.194746
9380.000000;0.194422
9379.000000;0.194106
9378.000000;0.193811
9377.000000;0.193530
9376.000000;0.193213
9375.000000;0.192805
9374.000000;0.192345
9373.000000;0.191948
9372.000000;0.191670
9371.000000;0.191473
9370.000000;0.191337
9369.000000;0.191268
9368.000000;0.191189
9367.000000;0.190946
9366.000000;0.190479
9365.000000;0.189897
9364.000000;0.189329
9363.000000;0.188813
9362.000000;0.188339
9361.000000;0.187928
9360.000000;0.187591
9359.000000;0.187283
9358.000000;0.186964
9357.000000;0.186636
9356.000000;0.186301
9355.000000;0.185963
9354.000000;0.185684
9353.000000;0.185555
9352.000000;0.185549
9351.000000;0.185496
9350.000000;0.185240
9349.000000;0.184788
9348.000000;0.184281
9347.000000;0.183874
9346.000000;0.183646
9345.000000;0.183560
9344.000000;0.183444
9343.000000;0.183123
9342.000000;0.182596
9341.000000;0.182037
9340.000000;0.181593
9339.000000;0.181251
9338.000000;0.180922
9337.000000;0.180584
9336.000000;0.180276
9335.000000;0.180028
9334.000000;0.179844
9333.000000;0.179717
9332.000000;0.179615
9331.000000;0.179478
9330.000000;0.179245
9329.000000;0.178881
9328.000000;0.178385
9327.000000;0.177837
9326.000000;0.177373
9325.000000;0.177074
9324.000000;0.176862
9323.000000;0.176592
9322.000000;0.176226
9321.000000;0.175840
9320.000000;0.175486
9319.000000;0.175136
9318.000000;0.174779
9317.000000;0.174473
9316.000000;0.174269
9315.000000;0.174151
9314.000000;0.174059
9313.000000;0.173912
9312.000000;0.173624
9311.000000;0.173192
9310.000000;0.172752
9309.000000;0.172466
9308.000000;0.172319
9307.000000;0.172134
9306.000000;0.171799
9305.000000;0.171385
9304.000000;0.171004
9303.000000;0.170656
9302.000000;0.170274
9301.000000;0.169841
9300.000000;0.169413
9299.000000;0.169070
9298.000000;0.168873
9297.000000;0.168799
9296.000000;0.168710
9295.000000;0.168454
9294.000000;0.168034
9293.000000;0.167611
9292.000000;0.167316
9291.000000;0.167127
9290.000000;0.166943
9289.000000;0.166694
9288.000000;0.166375
9287.000000;0.166036
9286.000000;0.165786
9285.000000;0.165707
9284.000000;0.165722
9283.000000;0.165619
9282.000000;0.165261
9281.000000;0.164736
9280.000000;0.164251
9279.000000;0.163921
9278.000000;0.163704
9277.000000;0.163483
9276.000000;0.163183
9275.000000;0.162824
9274.000000;0.162518
9273.000000;0.162373
9272.000000;0.162376
9271.000000;0.162374
9270.000000;0.162188
9269.000000;0.161733
9268.000000;0.161079
9267.000000;0.160419
9266.000000;0.159944
9265.000000;0.159694
9264.000000;0.159522
9263.000000;0.159276
9262.000000;0.158976
9261.000000;0.158758
9260.000000;0.158667
9259.000000;0.158600
9258.000000;0.158437
9257.000000;0.158153
9256.000000;0.157795
9255.000000;0.157412
9254.000000;0.157047
9253.000000;0.156724
9252.000000;0.156421
9251.000000;0.156115
9250.000000;0.155837
9249.000000;0.155634
9248.000000;0.155479
9247.000000;0.155284
9246.000000;0.155024
9245.000000;0.154744
9244.000000;0.154472
9243.000000;0.154174
9242.000000;0.153835
9241.000000;0.153495
9240.000000;0.153207
9239.000000;0.152987
9238.000000;0.152830
9237.000000;0.152698
9236.000000;0.152502
9235.000000;0.152189
9234.000000;0.151825
9233.000000;0.151529
9232.000000;0.151313
9231.000000;0.151087
9230.000000;0.150815
9229.000000;0.150566
9228.000000;0.150371
9227.000000;0.150156
9226.000000;0.149860
9225.000000;0.149527
9224.000000;0.149224
9223.000000;0.148931
9222.000000;0.148600
9221.000000;0.148268
9220.000000;0.148020
9219.000000;0.147861
9218.000000;0.147696
9217.000000;0.147439
9216.000000;0.147108
9215.000000;0.146803
9214.000000;0.146600
9213.000000;0.146476
9212.000000;0.146326
9211.000000;0.146061
9210.000000;0.145678
9209.000000;0.145245
9208.000000;0.144844
9207.000000;0.144544
9206.000000;0.144372
9205.000000;0.144275
9204.000000;0.144139
9203.000000;0.143911
9202.000000;0.143663
9201.000000;0.143477
9200.000000;0.143308
9199.000000;0.143038
9198.000000;0.142665
9197.000000;0.142335
9196.000000;0.142168
9195.000000;0.142124
9194.000000;0.142054
9193.000000;0.141855
9192.000000;0.141547
9191.000000;0.141214
9190.000000;0.140909
9189.000000;0.140601
9188.000000;0.140239
9187.000000;0.139855
9186.000000;0.139546
9185.000000;0.139343
9184.000000;0.139175
9183.000000;0.138996
9182.000000;0.138863
9181.000000;0.138831
9180.000000;0.138832
9179.000000;0.138753
9178.000000;0.138569
9177.000000;0.138313
9176.000000;0.137970
9175.000000;0.137533
9174.000000;0.137109
9173.000000;0.136835
9172.000000;0.136702
9171.000000;0.136574
9170.000000;0.136374
9169.000000;0.136141
9168.000000;0.135898
9167.000000;0.135606
9166.000000;0.135270
9165.000000;0.134967
9164.000000;0.134733
9163.000000;0.134520
9162.000000;0.134294
9161.000000;0.134098
9160.000000;0.133957
9159.000000;0.133803
9158.000000;0.133568
9157.000000;0.133272
9156.000000;0.132989
9155.000000;0.132760
9154.000000;0.132578
9153.000000;0.132419
9152.000000;0.132246
9151.000000;0.132038
9150.000000;0.131813
9149.000000;0.131616
9148.000000;0.131456
9147.000000;0.131297
9146.000000;0.131085
9145.000000;0.130779
9144.000000;0.130373
9143.000000;0.129948
9142.000000;0.129659
9141.000000;0.129589
9140.000000;0.129619
9139.000000;0.129530
9138.000000;0.129239
9137.000000;0.128849
9136.000000;0.128492
9135.000000;0.128184
9134.000000;0.127887
9133.000000;0.127604
9132.000000;0.127377
9131.000000;0.127235
9130.000000;0.127159
9129.000000;0.127097
9128.000000;0.126979
9127.000000;0.126773
9126.000000;0.126521
9125.000000;0.126288
9124.000000;0.126090
9123.000000;0.125898
9122.000000;0.125701
9121.000000;0.125515
9120.000000;0.125328
9119.000000;0.125095
9118.000000;0.124792
9117.000000;0.124450
9116.000000;0.124147
9115.000000;0.123975
9114.000000;0.123976
9113.000000;0.124066
9112.000000;0.124076
9111.000000;0.123903
9110.000000;0.123604
9109.000000;0.123280
9108.000000;0.122954
9107.000000;0.122610
9106.000000;0.122291
9105.000000;0.122043
9104.000000;0.121811
9103.000000;0.121518
9102.000000;0.121209
9101.000000;0.121016
9100.000000;0.120960
9099.000000;0.120912
9098.000000;0.120758
9097.000000;0.120495
9096.000000;0.120167
9095.000000;0.119802
9094.000000;0.119452
9093.000000;0.119193
9092.000000;0.119037
9091.000000;0.118910
9090.000000;0.118751
9089.000000;0.118587
9088.000000;0.118475
9087.000000;0.118425
9086.000000;0.118399
9085.000000;0.118348
9084.000000;0.118226
9083.000000;0.118020
9082.000000;0.117772
9081.000000;0.117536
9080.000000;0.117317
9079.000000;0.117077
9078.000000;0.116798
9077.000000;0.116487
9076.000000;0.116153
9075.000000;0.115813
9074.000000;0.115511
9073.000000;0.115268
9072.000000;0.115051
9071.000000;0.114834
9070.000000;0.114652
9069.000000;0.114548
9068.000000;0.114485
9067.000000;0.114400
9066.000000;0.114298
9065.000000;0.114210
9064.000000;0.114092
9063.000000;0.113865
9062.000000;0.113539
9061.000000;0.113216
9060.000000;0.112954
9059.000000;0.112724
9058.000000;0.112497
9057.000000;0.112279
9056.000000;0.112074
9055.000000;0.111865
9054.000000;0.111656
9053.000000;0.111466
