Criado como novo conjunto de dados;"e2410_daniel_v2.spp","87846.9 Secs"
cm-1;Abs
10000.000000;0.086982
9999.000000;0.087178
9998.000000;0.087364
9997.000000;0.087572
9996.000000;0.087658
9995.000000;0.087558
9994.000000;0.087382
9993.000000;0.087190
9992.000000;0.087043
9991.000000;0.086981
9990.000000;0.087000
9989.000000;0.087034
9988.000000;0.086987
9987.000000;0.086821
9986.000000;0.086576
9985.000000;0.086349
9984.000000;0.086238
9983.000000;0.086286
9982.000000;0.086446
9981.000000;0.086603
9980.000000;0.086660
9979.000000;0.086634
9978.000000;0.086625
9977.000000;0.086703
9976.000000;0.086821
9975.000000;0.086857
9974.000000;0.086729
9973.000000;0.086475
9972.000000;0.086228
9971.000000;0.086129
9970.000000;0.086236
9969.000000;0.086477
9968.000000;0.086677
9967.000000;0.086678
9966.000000;0.086469
9965.000000;0.086218
9964.000000;0.086130
9963.000000;0.086254
9962.000000;0.086434
9961.000000;0.086476
9960.000000;0.086342
9959.000000;0.086166
9958.000000;0.086100
9957.000000;0.086168
9956.000000;0.086284
9955.000000;0.086363
9954.000000;0.086393
9953.000000;0.086413
9952.000000;0.086459
9951.000000;0.086536
9950.000000;0.086626
9949.000000;0.086698
9948.000000;0.086719
9947.000000;0.086662
9946.000000;0.086524
9945.000000;0.086333
9944.000000;0.086141
9943.000000;0.085996
9942.000000;0.085926
9941.000000;0.085940
9940.000000;0.086038
9939.000000;0.086190
9938.000000;0.086327
9937.000000;0.086359
9936.000000;0.086243
9935.000000;0.086031
9934.000000;0.085849
9933.000000;0.085805
9932.000000;0.085887
9931.000000;0.085965
9930.000000;0.085916
9929.000000;0.085763
9928.000000;0.085654
9927.000000;0.085692
9926.000000;0.085837
9925.000000;0.085991
9924.000000;0.086103
9923.000000;0.086157
9922.000000;0.086104
9921.000000;0.085929
9920.000000;0.085738
9919.000000;0.085688
9918.000000;0.085788
9917.000000;0.085877
9916.000000;0.085830
9915.000000;0.085700
9914.000000;0.085613
9913.000000;0.085605
9912.000000;0.085635
9911.000000;0.085706
9910.000000;0.085866
9909.000000;0.086116
9908.000000;0.086361
9907.000000;0.086471
9906.000000;0.086353
9905.000000;0.086006
9904.000000;0.085552
9903.000000;0.085179
9902.000000;0.085003
9901.000000;0.084990
9900.000000;0.085047
9899.000000;0.085144
9898.000000;0.085292
9897.000000;0.085462
9896.000000;0.085600
9895.000000;0.085711
9894.000000;0.085831
9893.000000;0.085918
9892.000000;0.085844
9891.000000;0.085535
9890.000000;0.085076
9889.000000;0.084673
9888.000000;0.084518
9887.000000;0.084670
9886.000000;0.084984
9885.000000;0.085191
9884.000000;0.085134
9883.000000;0.084932
9882.000000;0.084856
9881.000000;0.085022
9880.000000;0.085298
9879.000000;0.085502
9878.000000;0.085601
9877.000000;0.085640
9876.000000;0.085597
9875.000000;0.085412
9874.000000;0.085136
9873.000000;0.084934
9872.000000;0.084915
9871.000000;0.085022
9870.000000;0.085123
9869.000000;0.085158
9868.000000;0.085176
9867.000000;0.085227
9866.000000;0.085286
9865.000000;0.085281
9864.000000;0.085193
9863.000000;0.085075
9862.000000;0.084988
9861.000000;0.084954
9860.000000;0.084976
9859.000000;0.085081
9858.000000;0.085278
9857.000000;0.085504
9856.000000;0.085652
9855.000000;0.085659
9854.000000;0.085537
9853.000000;0.085322
9852.000000;0.085051
9851.000000;0.084765
9850.000000;0.084508
9849.000000;0.084331
9848.000000;0.084314
9847.000000;0.084544
9846.000000;0.084991
9845.000000;0.085439
9844.000000;0.085639
9843.000000;0.085544
9842.000000;0.085325
9841.000000;0.085137
9840.000000;0.084971
9839.000000;0.084781
9838.000000;0.084627
9837.000000;0.084619
9836.000000;0.084754
9835.000000;0.084924
9834.000000;0.085053
9833.000000;0.085137
9832.000000;0.085177
9831.000000;0.085144
9830.000000;0.085040
9829.000000;0.084917
9828.000000;0.084806
9827.000000;0.084669
9826.000000;0.084460
9825.000000;0.084210
9824.000000;0.084022
9823.000000;0.083985
9822.000000;0.084104
9821.000000;0.084309
9820.000000;0.084496
9819.000000;0.084593
9818.000000;0.084589
9817.000000;0.084533
9816.000000;0.084481
9815.000000;0.084439
9814.000000;0.084360
9813.000000;0.084210
9812.000000;0.084037
9811.000000;0.083954
9810.000000;0.084035
9809.000000;0.084268
9808.000000;0.084608
9807.000000;0.085034
9806.000000;0.085494
9805.000000;0.085832
9804.000000;0.085882
9803.000000;0.085650
9802.000000;0.085359
9801.000000;0.085229
9800.000000;0.085249
9799.000000;0.085206
9798.000000;0.084939
9797.000000;0.084523
9796.000000;0.084189
9795.000000;0.084076
9794.000000;0.084112
9793.000000;0.084136
9792.000000;0.084121
9791.000000;0.084195
9790.000000;0.084437
9789.000000;0.084722
9788.000000;0.084850
9787.000000;0.084768
9786.000000;0.084607
9785.000000;0.084485
9784.000000;0.084397
9783.000000;0.084291
9782.000000;0.084166
9781.000000;0.084045
9780.000000;0.083936
9779.000000;0.083883
9778.000000;0.083996
9777.000000;0.084333
9776.000000;0.084779
9775.000000;0.085102
9774.000000;0.085151
9773.000000;0.084960
9772.000000;0.084653
9771.000000;0.084309
9770.000000;0.083955
9769.000000;0.083668
9768.000000;0.083591
9767.000000;0.083792
9766.000000;0.084122
9765.000000;0.084307
9764.000000;0.084237
9763.000000;0.084105
9762.000000;0.084191
9761.000000;0.084528
9760.000000;0.084867
9759.000000;0.084950
9758.000000;0.084732
9757.000000;0.084355
9756.000000;0.083993
9755.000000;0.083774
9754.000000;0.083748
9753.000000;0.083857
9752.000000;0.083989
9751.000000;0.084086
9750.000000;0.084164
9749.000000;0.084229
9748.000000;0.084268
9747.000000;0.084328
9746.000000;0.084497
9745.000000;0.084750
9744.000000;0.084925
9743.000000;0.084918
9742.000000;0.084818
9741.000000;0.084756
9740.000000;0.084710
9739.000000;0.084587
9738.000000;0.084435
9737.000000;0.084421
9736.000000;0.084588
9735.000000;0.084776
9734.000000;0.084808
9733.000000;0.084666
9732.000000;0.084460
9731.000000;0.084309
9730.000000;0.084288
9729.000000;0.084413
9728.000000;0.084613
9727.000000;0.084760
9726.000000;0.084783
9725.000000;0.084734
9724.000000;0.084716
9723.000000;0.084759
9722.000000;0.084795
9721.000000;0.084761
9720.000000;0.084683
9719.000000;0.084664
9718.000000;0.084762
9717.000000;0.084905
9716.000000;0.084947
9715.000000;0.084822
9714.000000;0.084625
9713.000000;0.084531
9712.000000;0.084642
9711.000000;0.084921
9710.000000;0.085239
9709.000000;0.085454
9708.000000;0.085488
9707.000000;0.085364
9706.000000;0.085165
9705.000000;0.084961
9704.000000;0.084787
9703.000000;0.084689
9702.000000;0.084720
9701.000000;0.084845
9700.000000;0.084918
9699.000000;0.084821
9698.000000;0.084606
9697.000000;0.084446
9696.000000;0.084463
9695.000000;0.084654
9694.000000;0.084924
9693.000000;0.085138
9692.000000;0.085179
9691.000000;0.085061
9690.000000;0.084955
9689.000000;0.085031
9688.000000;0.085256
9687.000000;0.085422
9686.000000;0.085381
9685.000000;0.085175
9684.000000;0.084927
9683.000000;0.084715
9682.000000;0.084574
9681.000000;0.084541
9680.000000;0.084631
9679.000000;0.084782
9678.000000;0.084892
9677.000000;0.084902
9676.000000;0.084843
9675.000000;0.084791
9674.000000;0.084803
9673.000000;0.084878
9672.000000;0.084975
9671.000000;0.085070
9670.000000;0.085163
9669.000000;0.085245
9668.000000;0.085284
9667.000000;0.085266
9666.000000;0.085223
9665.000000;0.085198
9664.000000;0.085222
9663.000000;0.085316
9662.000000;0.085469
9661.000000;0.085574
9660.000000;0.085486
9659.000000;0.085227
9658.000000;0.085046
9657.000000;0.085161
9656.000000;0.085482
9655.000000;0.085710
9654.000000;0.085695
9653.000000;0.085557
9652.000000;0.085458
9651.000000;0.085432
9650.000000;0.085460
9649.000000;0.085564
9648.000000;0.085698
9647.000000;0.085673
9646.000000;0.085341
9645.000000;0.084818
9644.000000;0.084433
9643.000000;0.084446
9642.000000;0.084856
9641.000000;0.085436
9640.000000;0.085890
9639.000000;0.086014
9638.000000;0.085795
9637.000000;0.085397
9636.000000;0.085024
9635.000000;0.084812
9634.000000;0.084816
9633.000000;0.085030
9632.000000;0.085358
9631.000000;0.085644
9630.000000;0.085790
9629.000000;0.085820
9628.000000;0.085780
9627.000000;0.085634
9626.000000;0.085346
9625.000000;0.085027
9624.000000;0.084897
9623.000000;0.085059
9622.000000;0.085405
9621.000000;0.085740
9620.000000;0.085971
9619.000000;0.086123
9618.000000;0.086218
9617.000000;0.086206
9616.000000;0.086027
9615.000000;0.085742
9614.000000;0.085534
9613.000000;0.085554
9612.000000;0.085745
9611.000000;0.085903
9610.000000;0.085908
9609.000000;0.085836
9608.000000;0.085817
9607.000000;0.085842
9606.000000;0.085820
9605.000000;0.085754
9604.000000;0.085749
9603.000000;0.085827
9602.000000;0.085850
9601.000000;0.085689
9600.000000;0.085419
9599.000000;0.085276
9598.000000;0.085426
9597.000000;0.085825
9596.000000;0.086283
9595.000000;0.086626
9594.000000;0.086790
9593.000000;0.086789
9592.000000;0.086650
9591.000000;0.086418
9590.000000;0.086204
9589.000000;0.086137
9588.000000;0.086240
9587.000000;0.086395
9586.000000;0.086468
9585.000000;0.086460
9584.000000;0.086483
9583.000000;0.086605
9582.000000;0.086769
9581.000000;0.086870
9580.000000;0.086859
9579.000000;0.086770
9578.000000;0.086683
9577.000000;0.086632
9576.000000;0.086542
9575.000000;0.086281
9574.000000;0.085824
9573.000000;0.085365
9572.000000;0.085180
9571.000000;0.085370
9570.000000;0.085806
9569.000000;0.086299
9568.000000;0.086753
9567.000000;0.087123
9566.000000;0.087329
9565.000000;0.087314
9564.000000;0.087150
9563.000000;0.087002
9562.000000;0.086994
9561.000000;0.087123
9560.000000;0.087279
9559.000000;0.087323
9558.000000;0.087198
9557.000000;0.086987
9556.000000;0.086837
9555.000000;0.086774
9554.000000;0.086657
9553.000000;0.086369
9552.000000;0.086000
9551.000000;0.085763
9550.000000;0.085771
9549.000000;0.085985
9548.000000;0.086344
9547.000000;0.086806
9546.000000;0.087259
9545.000000;0.087526
9544.000000;0.087550
9543.000000;0.087472
9542.000000;0.087468
9541.000000;0.087559
9540.000000;0.087648
9539.000000;0.087675
9538.000000;0.087654
9537.000000;0.087605
9536.000000;0.087546
9535.000000;0.087539
9534.000000;0.087632
9533.000000;0.087753
9532.000000;0.087752
9531.000000;0.087569
9530.000000;0.087336
9529.000000;0.087262
9528.000000;0.087452
9527.000000;0.087813
9526.000000;0.088142
9525.000000;0.088284
9524.000000;0.088252
9523.000000;0.088166
9522.000000;0.088086
9521.000000;0.087956
9520.000000;0.087736
9519.000000;0.087526
9518.000000;0.087451
9517.000000;0.087476
9516.000000;0.087454
9515.000000;0.087358
9514.000000;0.087329
9513.000000;0.087473
9512.000000;0.087713
9511.000000;0.087918
9510.000000;0.088063
9509.000000;0.088190
9508.000000;0.088273
9507.000000;0.088242
9506.000000;0.088108
9505.000000;0.087957
9504.000000;0.087842
9503.000000;0.087765
9502.000000;0.087741
9501.000000;0.087819
9500.000000;0.088019
9499.000000;0.088294
9498.000000;0.088569
9497.000000;0.088759
9496.000000;0.088776
9495.000000;0.088593
9494.000000;0.088312
9493.000000;0.088108
9492.000000;0.088070
9491.000000;0.088142
9490.000000;0.088221
9489.000000;0.088268
9488.000000;0.088312
9487.000000;0.088395
9486.000000;0.088558
9485.000000;0.088816
9484.000000;0.089108
9483.000000;0.089302
9482.000000;0.089285
9481.000000;0.089053
9480.000000;0.088688
9479.000000;0.088293
9478.000000;0.087975
9477.000000;0.087864
9476.000000;0.088057
9475.000000;0.088501
9474.000000;0.088980
9473.000000;0.089260
9472.000000;0.089291
9471.000000;0.089248
9470.000000;0.089362
9469.000000;0.089696
9468.000000;0.090084
9467.000000;0.090279
9466.000000;0.090167
9465.000000;0.089862
9464.000000;0.089597
9463.000000;0.089531
9462.000000;0.089653
9461.000000;0.089842
9460.000000;0.089988
9459.000000;0.090031
9458.000000;0.089927
9457.000000;0.089651
9456.000000;0.089280
9455.000000;0.088988
9454.000000;0.088911
9453.000000;0.089027
9452.000000;0.089227
9451.000000;0.089468
9450.000000;0.089772
9449.000000;0.090095
9448.000000;0.090307
9447.000000;0.090329
9446.000000;0.090202
9445.000000;0.089993
9444.000000;0.089738
9443.000000;0.089503
9442.000000;0.089406
9441.000000;0.089497
9440.000000;0.089682
9439.000000;0.089850
9438.000000;0.089977
9437.000000;0.090047
9436.000000;0.089971
9435.000000;0.089730
9434.000000;0.089502
9433.000000;0.089499
9432.000000;0.089694
9431.000000;0.089858
9430.000000;0.089859
9429.000000;0.089767
9428.000000;0.089687
9427.000000;0.089642
9426.000000;0.089644
9425.000000;0.089728
9424.000000;0.089851
9423.000000;0.089930
9422.000000;0.090013
9421.000000;0.090270
9420.000000;0.090721
9419.000000;0.091114
9418.000000;0.091188
9417.000000;0.090956
9416.000000;0.090607
9415.000000;0.090258
9414.000000;0.089952
9413.000000;0.089804
9412.000000;0.089961
9411.000000;0.090425
9410.000000;0.091027
9409.000000;0.091590
9408.000000;0.091990
9407.000000;0.092101
9406.000000;0.091854
9405.000000;0.091389
9404.000000;0.091038
9403.000000;0.091062
9402.000000;0.091437
9401.000000;0.091928
9400.000000;0.092294
9399.000000;0.092437
9398.000000;0.092384
9397.000000;0.092219
9396.000000;0.092018
9395.000000;0.091842
9394.000000;0.091760
9393.000000;0.091807
9392.000000;0.091902
9391.000000;0.091874
9390.000000;0.091662
9389.000000;0.091432
9388.000000;0.091391
9387.000000;0.091524
9386.000000;0.091632
9385.000000;0.091622
9384.000000;0.091624
9383.000000;0.091809
9382.000000;0.092179
9381.000000;0.092610
9380.000000;0.092962
9379.000000;0.093118
9378.000000;0.092985
9377.000000;0.092575
9376.000000;0.092046
9375.000000;0.091608
9374.000000;0.091413
9373.000000;0.091538
9372.000000;0.091966
9371.000000;0.092533
9370.000000;0.092970
9369.000000;0.093101
9368.000000;0.092973
9367.000000;0.092727
9366.000000;0.092434
9365.000000;0.092132
9364.000000;0.091956
9363.000000;0.092067
9362.000000;0.092425
9361.000000;0.092780
9360.000000;0.092938
9359.000000;0.092952
9358.000000;0.092987
9357.000000;0.093083
9356.000000;0.093156
9355.000000;0.093160
9354.000000;0.093142
9353.000000;0.093126
9352.000000;0.093051
9351.000000;0.092884
9350.000000;0.092725
9349.000000;0.092718
9348.000000;0.092886
9347.000000;0.093099
9346.000000;0.093217
9345.000000;0.093203
9344.000000;0.093107
9343.000000;0.092982
9342.000000;0.092869
9341.000000;0.092827
9340.000000;0.092912
9339.000000;0.093144
9338.000000;0.093495
9337.000000;0.093896
9336.000000;0.094224
9335.000000;0.094331
9334.000000;0.094158
9333.000000;0.093844
9332.000000;0.093633
9331.000000;0.093656
9330.000000;0.093829
9329.000000;0.094003
9328.000000;0.094148
9327.000000;0.094329
9326.000000;0.094563
9325.000000;0.094761
9324.000000;0.094831
9323.000000;0.094757
9322.000000;0.094557
9321.000000;0.094250
9320.000000;0.093889
9319.000000;0.093593
9318.000000;0.093477
9317.000000;0.093560
9316.000000;0.093782
9315.000000;0.094105
9314.000000;0.094509
9313.000000;0.094888
9312.000000;0.095025
9311.000000;0.094801
9310.000000;0.094392
9309.000000;0.094154
9308.000000;0.094259
9307.000000;0.094513
9306.000000;0.094593
9305.000000;0.094421
9304.000000;0.094223
9303.000000;0.094242
9302.000000;0.094504
9301.000000;0.094881
9300.000000;0.095276
9299.000000;0.095676
9298.000000;0.096059
9297.000000;0.096351
9296.000000;0.096497
9295.000000;0.096538
9294.000000;0.096584
9293.000000;0.096725
9292.000000;0.096940
9291.000000;0.097094
9290.000000;0.097020
9289.000000;0.096658
9288.000000;0.096130
9287.000000;0.095681
9286.000000;0.095516
9285.000000;0.095648
9284.000000;0.095896
9283.000000;0.096038
9282.000000;0.095995
9281.000000;0.095883
9280.000000;0.095873
9279.000000;0.096037
9278.000000;0.096339
9277.000000;0.096723
9276.000000;0.097144
9275.000000;0.097494
9274.000000;0.097617
9273.000000;0.097473
9272.000000;0.097245
9271.000000;0.097190
9270.000000;0.097372
9269.000000;0.097604
9268.000000;0.097668
9267.000000;0.097547
9266.000000;0.097386
9265.000000;0.097294
9264.000000;0.097258
9263.000000;0.097245
9262.000000;0.097290
9261.000000;0.097432
9260.000000;0.097603
9259.000000;0.097663
9258.000000;0.097545
9257.000000;0.097329
9256.000000;0.097147
9255.000000;0.097085
9254.000000;0.097169
9253.000000;0.097373
9252.000000;0.097590
9251.000000;0.097674
9250.000000;0.097583
9249.000000;0.097474
9248.000000;0.097564
9247.000000;0.097894
9246.000000;0.098287
9245.000000;0.098543
9244.000000;0.098606
9243.000000;0.098537
9242.000000;0.098410
9241.000000;0.098282
9240.000000;0.098207
9239.000000;0.098202
9238.000000;0.098231
9237.000000;0.098258
9236.000000;0.098298
9235.000000;0.098399
9234.000000;0.098598
9233.000000;0.098902
9232.000000;0.099264
9231.000000;0.099551
9230.000000;0.099601
9229.000000;0.099386
9228.000000;0.099067
9227.000000;0.098830
9226.000000;0.098705
9225.000000;0.098613
9224.000000;0.098568
9223.000000;0.098697
9222.000000;0.099053
9221.000000;0.099502
9220.000000;0.099833
9219.000000;0.099948
9218.000000;0.099883
9217.000000;0.099708
9216.000000;0.099476
9215.000000;0.099251
9214.000000;0.099127
9213.000000;0.099189
9212.000000;0.099445
9211.000000;0.099804
9210.000000;0.100117
9209.000000;0.100289
9208.000000;0.100346
9207.000000;0.100408
9206.000000;0.100572
9205.000000;0.100841
9204.000000;0.101132
9203.000000;0.101336
9202.000000;0.101356
9201.000000;0.101168
9200.000000;0.100865
9199.000000;0.100622
9198.000000;0.100555
9197.000000;0.100622
9196.000000;0.100668
9195.000000;0.100596
9194.000000;0.100461
9193.000000;0.100400
9192.000000;0.100491
9191.000000;0.100679
9190.000000;0.100855
9189.000000;0.100979
9188.000000;0.101076
9187.000000;0.101145
9186.000000;0.101132
9185.000000;0.101028
9184.000000;0.100943
9183.000000;0.100995
9182.000000;0.101154
9181.000000;0.101282
9180.000000;0.101317
9179.000000;0.101330
9178.000000;0.101384
9177.000000;0.101456
9176.000000;0.101534
9175.000000;0.101676
9174.000000;0.101894
9173.000000;0.102049
9172.000000;0.102001
9171.000000;0.101810
9170.000000;0.101692
9169.000000;0.101770
9168.000000;0.101996
9167.000000;0.102302
9166.000000;0.102673
9165.000000;0.103040
9164.000000;0.103216
9163.000000;0.103064
9162.000000;0.102684
9161.000000;0.102325
9160.000000;0.102160
9159.000000;0.102207
9158.000000;0.102423
9157.000000;0.102750
9156.000000;0.103059
9155.000000;0.103171
9154.000000;0.103031
9153.000000;0.102804
9152.000000;0.102742
9151.000000;0.102923
9150.000000;0.103179
9149.000000;0.103278
9148.000000;0.103167
9147.000000;0.103005
9146.000000;0.102980
9145.000000;0.103118
9144.000000;0.103295
9143.000000;0.103413
9142.000000;0.103504
9141.000000;0.103661
9140.000000;0.103886
9139.000000;0.104069
9138.000000;0.104110
9137.000000;0.104017
9136.000000;0.103877
9135.000000;0.103755
9134.000000;0.103652
9133.000000;0.103556
9132.000000;0.103493
9131.000000;0.103536
9130.000000;0.103735
9129.000000;0.104057
9128.000000;0.104393
9127.000000;0.104645
9126.000000;0.104817
9125.000000;0.104989
9124.000000;0.105196
9123.000000;0.105356
9122.000000;0.105365
9121.000000;0.105242
9120.000000;0.105133
9119.000000;0.105152
9118.000000;0.105252
9117.000000;0.105297
9116.000000;0.105262
9115.000000;0.105277
9114.000000;0.105461
9113.000000;0.105749
9112.000000;0.105944
9111.000000;0.105941
9110.000000;0.105827
9109.000000;0.105763
9108.000000;0.105803
9107.000000;0.105887
9106.000000;0.105939
9105.000000;0.105961
9104.000000;0.106007
9103.000000;0.106137
9102.000000;0.106361
9101.000000;0.106614
9100.000000;0.106783
9099.000000;0.106802
9098.000000;0.106727
9097.000000;0.106695
9096.000000;0.106804
9095.000000;0.107031
9094.000000;0.107258
9093.000000;0.107344
9092.000000;0.107212
9091.000000;0.106906
9090.000000;0.106584
9089.000000;0.106407
9088.000000;0.106429
9087.000000;0.106608
9086.000000;0.106881
9085.000000;0.107196
9084.000000;0.107462
9083.000000;0.107565
9082.000000;0.107458
9081.000000;0.107224
9080.000000;0.107007
9079.000000;0.106918
9078.000000;0.106999
9077.000000;0.107226
9076.000000;0.107500
9075.000000;0.107698
9074.000000;0.107784
9073.000000;0.107865
9072.000000;0.108079
9071.000000;0.108425
9070.000000;0.108746
9069.000000;0.108885
9068.000000;0.108819
9067.000000;0.108659
9066.000000;0.108519
9065.000000;0.108414
9064.000000;0.108286
9063.000000;0.108102
9062.000000;0.107940
9061.000000;0.107936
9060.000000;0.108170
9059.000000;0.108596
9058.000000;0.109072
9057.000000;0.109434
9056.000000;0.109578
9055.000000;0.109524
9054.000000;0.109404
9053.000000;0.109336
