Criado como novo conjunto de dados;"e2410_daniel_v2.spp","96487.1 Secs"
cm-1;Abs
10000.000000;0.125623
9999.000000;0.126172
9998.000000;0.126725
9997.000000;0.127273
9996.000000;0.127844
9995.000000;0.128388
9994.000000;0.128845
9993.000000;0.129299
9992.000000;0.129864
9991.000000;0.130588
9990.000000;0.131431
9989.000000;0.132313
9988.000000;0.133136
9987.000000;0.133803
9986.000000;0.134270
9985.000000;0.134610
9984.000000;0.134992
9983.000000;0.135552
9982.000000;0.136290
9981.000000;0.137069
9980.000000;0.137755
9979.000000;0.138328
9978.000000;0.138875
9977.000000;0.139458
9976.000000;0.140036
9975.000000;0.140527
9974.000000;0.140951
9973.000000;0.141447
9972.000000;0.142116
9971.000000;0.142882
9970.000000;0.143580
9969.000000;0.144182
9968.000000;0.144842
9967.000000;0.145686
9966.000000;0.146610
9965.000000;0.147378
9964.000000;0.147891
9963.000000;0.148289
9962.000000;0.148759
9961.000000;0.149357
9960.000000;0.150042
9959.000000;0.150818
9958.000000;0.151722
9957.000000;0.152683
9956.000000;0.153518
9955.000000;0.154153
9954.000000;0.154756
9953.000000;0.155548
9952.000000;0.156508
9951.000000;0.157365
9950.000000;0.157936
9949.000000;0.158336
9948.000000;0.158796
9947.000000;0.159346
9946.000000;0.159834
9945.000000;0.160187
9944.000000;0.160519
9943.000000;0.160955
9942.000000;0.161503
9941.000000;0.162167
9940.000000;0.163050
9939.000000;0.164227
9938.000000;0.165562
9937.000000;0.166762
9936.000000;0.167615
9935.000000;0.168131
9934.000000;0.168492
9933.000000;0.168920
9932.000000;0.169550
9931.000000;0.170342
9930.000000;0.171105
9929.000000;0.171684
9928.000000;0.172120
9927.000000;0.172591
9926.000000;0.173236
9925.000000;0.174065
9924.000000;0.174994
9923.000000;0.175886
9922.000000;0.176610
9921.000000;0.177141
9920.000000;0.177591
9919.000000;0.178062
9918.000000;0.178515
9917.000000;0.178878
9916.000000;0.179245
9915.000000;0.179825
9914.000000;0.180681
9913.000000;0.181661
9912.000000;0.182624
9911.000000;0.183601
9910.000000;0.184662
9909.000000;0.185733
9908.000000;0.186673
9907.000000;0.187467
9906.000000;0.188230
9905.000000;0.189026
9904.000000;0.189772
9903.000000;0.190337
9902.000000;0.190688
9901.000000;0.190949
9900.000000;0.191332
9899.000000;0.191982
9898.000000;0.192855
9897.000000;0.193782
9896.000000;0.194636
9895.000000;0.195431
9894.000000;0.196217
9893.000000;0.196983
9892.000000;0.197713
9891.000000;0.198467
9890.000000;0.199321
9889.000000;0.200221
9888.000000;0.201014
9887.000000;0.201632
9886.000000;0.202208
9885.000000;0.202947
9884.000000;0.203915
9883.000000;0.204977
9882.000000;0.205944
9881.000000;0.206736
9880.000000;0.207423
9879.000000;0.208118
9878.000000;0.208872
9877.000000;0.209654
9876.000000;0.210386
9875.000000;0.210977
9874.000000;0.211379
9873.000000;0.211663
9872.000000;0.211998
9871.000000;0.212501
9870.000000;0.213106
9869.000000;0.213665
9868.000000;0.214179
9867.000000;0.214818
9866.000000;0.215709
9865.000000;0.216779
9864.000000;0.217860
9863.000000;0.218871
9862.000000;0.219817
9861.000000;0.220695
9860.000000;0.221501
9859.000000;0.222321
9858.000000;0.223294
9857.000000;0.224434
9856.000000;0.225559
9855.000000;0.226465
9854.000000;0.227125
9853.000000;0.227700
9852.000000;0.228380
9851.000000;0.229238
9850.000000;0.230211
9849.000000;0.231155
9848.000000;0.231929
9847.000000;0.232475
9846.000000;0.232884
9845.000000;0.233365
9844.000000;0.234097
9843.000000;0.235066
9842.000000;0.236077
9841.000000;0.236936
9840.000000;0.237632
9839.000000;0.238299
9838.000000;0.239036
9837.000000;0.239821
9836.000000;0.240602
9835.000000;0.241408
9834.000000;0.242314
9833.000000;0.243332
9832.000000;0.244382
9831.000000;0.245363
9830.000000;0.246217
9829.000000;0.246940
9828.000000;0.247583
9827.000000;0.248252
9826.000000;0.249043
9825.000000;0.249947
9824.000000;0.250841
9823.000000;0.251630
9822.000000;0.252376
9821.000000;0.253218
9820.000000;0.254162
9819.000000;0.255015
9818.000000;0.255592
9817.000000;0.255945
9816.000000;0.256346
9815.000000;0.257038
9814.000000;0.258077
9813.000000;0.259370
9812.000000;0.260767
9811.000000;0.262091
9810.000000;0.263183
9809.000000;0.263998
9808.000000;0.264630
9807.000000;0.265204
9806.000000;0.265762
9805.000000;0.266313
9804.000000;0.266921
9803.000000;0.267653
9802.000000;0.268459
9801.000000;0.269213
9800.000000;0.269892
9799.000000;0.270630
9798.000000;0.271536
9797.000000;0.272502
9796.000000;0.273269
9795.000000;0.273701
9794.000000;0.273967
9793.000000;0.274406
9792.000000;0.275192
9791.000000;0.276178
9790.000000;0.277097
9789.000000;0.277906
9788.000000;0.278812
9787.000000;0.279951
9786.000000;0.281158
9785.000000;0.282149
9784.000000;0.282845
9783.000000;0.283424
9782.000000;0.284109
9781.000000;0.284996
9780.000000;0.286069
9779.000000;0.287229
9778.000000;0.288343
9777.000000;0.289349
9776.000000;0.290340
9775.000000;0.291420
9774.000000;0.292485
9773.000000;0.293285
9772.000000;0.293755
9771.000000;0.294175
9770.000000;0.294895
9769.000000;0.295973
9768.000000;0.297146
9767.000000;0.298129
9766.000000;0.298871
9765.000000;0.299536
9764.000000;0.300304
9763.000000;0.301200
9762.000000;0.302125
9761.000000;0.303055
9760.000000;0.304137
9759.000000;0.305502
9758.000000;0.306991
9757.000000;0.308212
9756.000000;0.308957
9755.000000;0.309475
9754.000000;0.310231
9753.000000;0.311413
9752.000000;0.312755
9751.000000;0.313840
9750.000000;0.314492
9749.000000;0.314860
9748.000000;0.315207
9747.000000;0.315675
9746.000000;0.316272
9745.000000;0.316995
9744.000000;0.317909
9743.000000;0.319043
9742.000000;0.320244
9741.000000;0.321219
9740.000000;0.321801
9739.000000;0.322161
9738.000000;0.322709
9737.000000;0.323712
9736.000000;0.325036
9735.000000;0.326283
9734.000000;0.327241
9733.000000;0.328129
9732.000000;0.329313
9731.000000;0.330798
9730.000000;0.332131
9729.000000;0.332875
9728.000000;0.333108
9727.000000;0.333322
9726.000000;0.333922
9725.000000;0.334914
9724.000000;0.336070
9723.000000;0.337194
9722.000000;0.338205
9721.000000;0.339061
9720.000000;0.339759
9719.000000;0.340369
9718.000000;0.340991
9717.000000;0.341652
9716.000000;0.342304
9715.000000;0.342911
9714.000000;0.343508
9713.000000;0.344140
9712.000000;0.344777
9711.000000;0.345351
9710.000000;0.345900
9709.000000;0.346627
9708.000000;0.347719
9707.000000;0.349110
9706.000000;0.350503
9705.000000;0.351690
9704.000000;0.352759
9703.000000;0.353923
9702.000000;0.355207
9701.000000;0.356406
9700.000000;0.357334
9699.000000;0.358013
9698.000000;0.358612
9697.000000;0.359294
9696.000000;0.360141
9695.000000;0.361157
9694.000000;0.362290
9693.000000;0.363461
9692.000000;0.364595
9691.000000;0.365618
9690.000000;0.366443
9689.000000;0.367018
9688.000000;0.367429
9687.000000;0.367918
9686.000000;0.368769
9685.000000;0.370083
9684.000000;0.371611
9683.000000;0.372850
9682.000000;0.373431
9681.000000;0.373476
9680.000000;0.373471
9679.000000;0.373789
9678.000000;0.374407
9677.000000;0.375114
9676.000000;0.375823
9675.000000;0.376574
9674.000000;0.377380
9673.000000;0.378224
9672.000000;0.379169
9671.000000;0.380281
9670.000000;0.381503
9669.000000;0.382752
9668.000000;0.384080
9667.000000;0.385550
9666.000000;0.386968
9665.000000;0.387986
9664.000000;0.388535
9663.000000;0.388969
9662.000000;0.389674
9661.000000;0.390655
9660.000000;0.391604
9659.000000;0.392277
9658.000000;0.392735
9657.000000;0.393257
9656.000000;0.394067
9655.000000;0.395083
9654.000000;0.395958
9653.000000;0.396441
9652.000000;0.396721
9651.000000;0.397268
9650.000000;0.398322
9649.000000;0.399685
9648.000000;0.401047
9647.000000;0.402331
9646.000000;0.403586
9645.000000;0.404706
9644.000000;0.405478
9643.000000;0.405895
9642.000000;0.406250
9641.000000;0.406842
9640.000000;0.407657
9639.000000;0.408408
9638.000000;0.408864
9637.000000;0.409101
9636.000000;0.409428
9635.000000;0.410074
9634.000000;0.411006
9633.000000;0.412039
9632.000000;0.413066
9631.000000;0.414094
9630.000000;0.415109
9629.000000;0.416023
9628.000000;0.416792
9627.000000;0.417506
9626.000000;0.418317
9625.000000;0.419319
9624.000000;0.420467
9623.000000;0.421588
9622.000000;0.422493
9621.000000;0.423145
9620.000000;0.423708
9619.000000;0.424355
9618.000000;0.425082
9617.000000;0.425829
9616.000000;0.426689
9615.000000;0.427782
9614.000000;0.428897
9613.000000;0.429535
9612.000000;0.429478
9611.000000;0.429205
9610.000000;0.429514
9609.000000;0.430762
9608.000000;0.432540
9607.000000;0.434085
9606.000000;0.434932
9605.000000;0.435191
9604.000000;0.435287
9603.000000;0.435539
9602.000000;0.436027
9601.000000;0.436771
9600.000000;0.437833
9599.000000;0.439169
9598.000000;0.440482
9597.000000;0.441424
9596.000000;0.441944
9595.000000;0.442274
9594.000000;0.442557
9593.000000;0.442711
9592.000000;0.442740
9591.000000;0.442972
9590.000000;0.443792
9589.000000;0.445199
9588.000000;0.446762
9587.000000;0.448019
9586.000000;0.448827
9585.000000;0.449357
9584.000000;0.449858
9583.000000;0.450432
9582.000000;0.450981
9581.000000;0.451347
9580.000000;0.451541
9579.000000;0.451786
9578.000000;0.452310
9577.000000;0.453113
9576.000000;0.454006
9575.000000;0.454839
9574.000000;0.455640
9573.000000;0.456529
9572.000000;0.457532
9571.000000;0.458509
9570.000000;0.459231
9569.000000;0.459544
9568.000000;0.459530
9567.000000;0.459523
9566.000000;0.459936
9565.000000;0.460945
9564.000000;0.462273
9563.000000;0.463315
9562.000000;0.463646
9561.000000;0.463458
9560.000000;0.463406
9559.000000;0.463965
9558.000000;0.464992
9557.000000;0.465963
9556.000000;0.466557
9555.000000;0.466882
9554.000000;0.467213
9553.000000;0.467660
9552.000000;0.468123
9551.000000;0.468460
9550.000000;0.468661
9549.000000;0.468909
9548.000000;0.469418
9547.000000;0.470162
9546.000000;0.470835
9545.000000;0.471172
9544.000000;0.471261
9543.000000;0.471420
9542.000000;0.471859
9541.000000;0.472591
9540.000000;0.473563
9539.000000;0.474639
9538.000000;0.475515
9537.000000;0.475936
9536.000000;0.476048
9535.000000;0.476307
9534.000000;0.476959
9533.000000;0.477773
9532.000000;0.478353
9531.000000;0.478504
9530.000000;0.478273
9529.000000;0.477869
9528.000000;0.477653
9527.000000;0.477949
9526.000000;0.478673
9525.000000;0.479338
9524.000000;0.479597
9523.000000;0.479636
9522.000000;0.479841
9521.000000;0.480245
9520.000000;0.480547
9519.000000;0.480543
9518.000000;0.480295
9517.000000;0.479945
9516.000000;0.479620
9515.000000;0.479494
9514.000000;0.479728
9513.000000;0.480332
9512.000000;0.481249
9511.000000;0.482470
9510.000000;0.483843
9509.000000;0.484863
9508.000000;0.485002
9507.000000;0.484384
9506.000000;0.483814
9505.000000;0.483972
9504.000000;0.484751
9503.000000;0.485508
9502.000000;0.485770
9501.000000;0.485531
9500.000000;0.485055
9499.000000;0.484695
9498.000000;0.484784
9497.000000;0.485408
9496.000000;0.486236
9495.000000;0.486834
9494.000000;0.487187
9493.000000;0.487721
9492.000000;0.488691
9491.000000;0.489765
9490.000000;0.490373
9489.000000;0.490345
9488.000000;0.489987
9487.000000;0.489644
9486.000000;0.489399
9485.000000;0.489246
9484.000000;0.489272
9483.000000;0.489515
9482.000000;0.489750
9481.000000;0.489605
9480.000000;0.488935
9479.000000;0.488036
9478.000000;0.487450
9477.000000;0.487551
9476.000000;0.488261
9475.000000;0.489105
9474.000000;0.489589
9473.000000;0.489592
9472.000000;0.489407
9471.000000;0.489374
9470.000000;0.489534
9469.000000;0.489668
9468.000000;0.489629
9467.000000;0.489521
9466.000000;0.489523
9465.000000;0.489614
9464.000000;0.489557
9463.000000;0.489168
9462.000000;0.488596
9461.000000;0.488295
9460.000000;0.488655
9459.000000;0.489611
9458.000000;0.490614
9457.000000;0.491046
9456.000000;0.490694
9455.000000;0.489866
9454.000000;0.489080
9453.000000;0.488655
9452.000000;0.488540
9451.000000;0.488429
9450.000000;0.488077
9449.000000;0.487549
9448.000000;0.487193
9447.000000;0.487311
9446.000000;0.487864
9445.000000;0.488495
9444.000000;0.488818
9443.000000;0.488657
9442.000000;0.488098
9441.000000;0.487374
9440.000000;0.486716
9439.000000;0.486220
9438.000000;0.485839
9437.000000;0.485526
9436.000000;0.485360
9435.000000;0.485486
9434.000000;0.485913
9433.000000;0.486449
9432.000000;0.486841
9431.000000;0.486947
9430.000000;0.486791
9429.000000;0.486491
9428.000000;0.486144
9427.000000;0.485739
9426.000000;0.485212
9425.000000;0.484622
9424.000000;0.484189
9423.000000;0.484060
9422.000000;0.484061
9421.000000;0.483825
9420.000000;0.483148
9419.000000;0.482141
9418.000000;0.481028
9417.000000;0.479996
9416.000000;0.479280
9415.000000;0.479184
9414.000000;0.479785
9413.000000;0.480681
9412.000000;0.481222
9411.000000;0.481073
9410.000000;0.480486
9409.000000;0.479994
9408.000000;0.479879
9407.000000;0.479915
9406.000000;0.479622
9405.000000;0.478805
9404.000000;0.477865
9403.000000;0.477456
9402.000000;0.477749
9401.000000;0.478160
9400.000000;0.477935
9399.000000;0.476928
9398.000000;0.475654
9397.000000;0.474633
9396.000000;0.473973
9395.000000;0.473572
9394.000000;0.473406
9393.000000;0.473435
9392.000000;0.473427
9391.000000;0.473125
9390.000000;0.472523
9389.000000;0.471822
9388.000000;0.471206
9387.000000;0.470804
9386.000000;0.470761
9385.000000;0.471085
9384.000000;0.471449
9383.000000;0.471360
9382.000000;0.470638
9381.000000;0.469597
9380.000000;0.468707
9379.000000;0.468199
9378.000000;0.467986
9377.000000;0.467816
9376.000000;0.467445
9375.000000;0.466808
9374.000000;0.466097
9373.000000;0.465607
9372.000000;0.465460
9371.000000;0.465539
9370.000000;0.465627
9369.000000;0.465498
9368.000000;0.464949
9367.000000;0.464003
9366.000000;0.463095
9365.000000;0.462742
9364.000000;0.462878
9363.000000;0.462791
9362.000000;0.461910
9361.000000;0.460479
9360.000000;0.459234
9359.000000;0.458632
9358.000000;0.458591
9357.000000;0.458768
9356.000000;0.458778
9355.000000;0.458316
9354.000000;0.457428
9353.000000;0.456601
9352.000000;0.456246
9351.000000;0.456144
9350.000000;0.455698
9349.000000;0.454710
9348.000000;0.453553
9347.000000;0.452589
9346.000000;0.451827
9345.000000;0.451232
9344.000000;0.450946
9343.000000;0.450986
9342.000000;0.451036
9341.000000;0.450781
9340.000000;0.450250
9339.000000;0.449626
9338.000000;0.448965
9337.000000;0.448322
9336.000000;0.447946
9335.000000;0.448015
9334.000000;0.448295
9333.000000;0.448296
9332.000000;0.447727
9331.000000;0.446639
9330.000000;0.445266
9329.000000;0.443953
9328.000000;0.443076
9327.000000;0.442739
9326.000000;0.442579
9325.000000;0.442113
9324.000000;0.441291
9323.000000;0.440459
9322.000000;0.439816
9321.000000;0.439184
9320.000000;0.438375
9319.000000;0.437493
9318.000000;0.436720
9317.000000;0.436001
9316.000000;0.435118
9315.000000;0.434041
9314.000000;0.433058
9313.000000;0.432580
9312.000000;0.432805
9311.000000;0.433503
9310.000000;0.434070
9309.000000;0.433909
9308.000000;0.432905
9307.000000;0.431505
9306.000000;0.430302
9305.000000;0.429531
9304.000000;0.429016
9303.000000;0.428528
9302.000000;0.428069
9301.000000;0.427743
9300.000000;0.427454
9299.000000;0.426895
9298.000000;0.425881
9297.000000;0.424595
9296.000000;0.423411
9295.000000;0.422548
9294.000000;0.421992
9293.000000;0.421629
9292.000000;0.421287
9291.000000;0.420717
9290.000000;0.419793
9289.000000;0.418780
9288.000000;0.418161
9287.000000;0.418062
9286.000000;0.418053
9285.000000;0.417650
9284.000000;0.416859
9283.000000;0.416047
9282.000000;0.415453
9281.000000;0.415052
9280.000000;0.414775
9279.000000;0.414570
9278.000000;0.414282
9277.000000;0.413719
9276.000000;0.412856
9275.000000;0.411820
9274.000000;0.410694
9273.000000;0.409531
9272.000000;0.408527
9271.000000;0.407908
9270.000000;0.407581
9269.000000;0.407153
9268.000000;0.406421
9267.000000;0.405649
9266.000000;0.405179
9265.000000;0.404933
9264.000000;0.404490
9263.000000;0.403634
9262.000000;0.402643
9261.000000;0.402000
9260.000000;0.401885
9259.000000;0.402021
9258.000000;0.401994
9257.000000;0.401662
9256.000000;0.401154
9255.000000;0.400488
9254.000000;0.399424
9253.000000;0.397872
9252.000000;0.396271
9251.000000;0.395259
9250.000000;0.394966
9249.000000;0.394907
9248.000000;0.394641
9247.000000;0.394201
9246.000000;0.393749
9245.000000;0.393117
9244.000000;0.392058
9243.000000;0.390807
9242.000000;0.389978
9241.000000;0.389839
9240.000000;0.389952
9239.000000;0.389675
9238.000000;0.388883
9237.000000;0.388032
9236.000000;0.387587
9235.000000;0.387517
9234.000000;0.387366
9233.000000;0.386748
9232.000000;0.385722
9231.000000;0.384660
9230.000000;0.383809
9229.000000;0.383077
9228.000000;0.382276
9227.000000;0.381452
9226.000000;0.380846
9225.000000;0.380549
9224.000000;0.380347
9223.000000;0.379938
9222.000000;0.379216
9221.000000;0.378306
9220.000000;0.377408
9219.000000;0.376659
9218.000000;0.376101
9217.000000;0.375684
9216.000000;0.375299
9215.000000;0.374840
9214.000000;0.374243
9213.000000;0.373480
9212.000000;0.372568
9211.000000;0.371584
9210.000000;0.370624
9209.000000;0.369741
9208.000000;0.368965
9207.000000;0.368402
9206.000000;0.368208
9205.000000;0.368375
9204.000000;0.368619
9203.000000;0.368613
9202.000000;0.368327
9201.000000;0.368004
9200.000000;0.367777
9199.000000;0.367444
9198.000000;0.366735
9197.000000;0.365709
9196.000000;0.364735
9195.000000;0.364080
9194.000000;0.363628
9193.000000;0.363053
9192.000000;0.362200
9191.000000;0.361242
9190.000000;0.360493
9189.000000;0.360126
9188.000000;0.360037
9187.000000;0.359924
9186.000000;0.359461
9185.000000;0.358484
9184.000000;0.357094
9183.000000;0.355617
9182.000000;0.354415
9181.000000;0.353683
9180.000000;0.353374
9179.000000;0.353295
9178.000000;0.353235
9177.000000;0.353016
9176.000000;0.352507
9175.000000;0.351719
9174.000000;0.350886
9173.000000;0.350294
9172.000000;0.349954
9171.000000;0.349534
9170.000000;0.348742
9169.000000;0.347723
9168.000000;0.346919
9167.000000;0.346566
9166.000000;0.346474
9165.000000;0.346305
9164.000000;0.345890
9163.000000;0.345221
9162.000000;0.344323
9161.000000;0.343301
9160.000000;0.342405
9159.000000;0.341840
9158.000000;0.341524
9157.000000;0.341171
9156.000000;0.340645
9155.000000;0.340088
9154.000000;0.339681
9153.000000;0.339363
9152.000000;0.338910
9151.000000;0.338215
9150.000000;0.337435
9149.000000;0.336808
9148.000000;0.336368
9147.000000;0.335877
9146.000000;0.335071
9145.000000;0.333988
9144.000000;0.332996
9143.000000;0.332433
9142.000000;0.332254
9141.000000;0.332115
9140.000000;0.331787
9139.000000;0.331375
9138.000000;0.331098
9137.000000;0.330954
9136.000000;0.330716
9135.000000;0.330237
9134.000000;0.329627
9133.000000;0.329073
9132.000000;0.328560
9131.000000;0.327856
9130.000000;0.326815
9129.000000;0.325616
9128.000000;0.324648
9127.000000;0.324138
9126.000000;0.323914
9125.000000;0.323573
9124.000000;0.322885
9123.000000;0.322040
9122.000000;0.321485
9121.000000;0.321494
9120.000000;0.321880
9119.000000;0.322141
9118.000000;0.321897
9117.000000;0.321187
9116.000000;0.320344
9115.000000;0.319655
9114.000000;0.319197
9113.000000;0.318936
9112.000000;0.318837
9111.000000;0.318820
9110.000000;0.318701
9109.000000;0.318278
9108.000000;0.317488
9107.000000;0.316469
9106.000000;0.315469
9105.000000;0.314676
9104.000000;0.314087
9103.000000;0.313533
9102.000000;0.312877
9101.000000;0.312174
9100.000000;0.311582
9099.000000;0.311174
9098.000000;0.310918
9097.000000;0.310811
9096.000000;0.310860
9095.000000;0.310899
9094.000000;0.310619
9093.000000;0.309904
9092.000000;0.309021
9091.000000;0.308339
9090.000000;0.307943
9089.000000;0.307654
9088.000000;0.307308
9087.000000;0.306865
9086.000000;0.306292
9085.000000;0.305564
9084.000000;0.304789
9083.000000;0.304164
9082.000000;0.303755
9081.000000;0.303407
9080.000000;0.302943
9079.000000;0.302336
9078.000000;0.301690
9077.000000;0.301103
9076.000000;0.300606
9075.000000;0.300155
9074.000000;0.299666
9073.000000;0.299109
9072.000000;0.298569
9071.000000;0.298136
9070.000000;0.297755
9069.000000;0.297300
9068.000000;0.296763
9067.000000;0.296253
9066.000000;0.295794
9065.000000;0.295282
9064.000000;0.294670
9063.000000;0.294061
9062.000000;0.293532
9061.000000;0.292999
9060.000000;0.292370
9059.000000;0.291746
9058.000000;0.291311
9057.000000;0.291097
9056.000000;0.290971
9055.000000;0.290836
9054.000000;0.290710
9053.000000;0.290598
