Criado como novo conjunto de dados;"e2410_daniel_v2.spp","79566.0 Secs"
cm-1;Abs
10000.000000;1.179625
9999.000000;1.180100
9998.000000;1.180363
9997.000000;1.179882
9996.000000;1.178567
9995.000000;1.176965
9994.000000;1.175615
9993.000000;1.174630
9992.000000;1.173872
9991.000000;1.173237
9990.000000;1.172561
9989.000000;1.171656
9988.000000;1.170600
9987.000000;1.169738
9986.000000;1.169256
9985.000000;1.169023
9984.000000;1.168942
9983.000000;1.169122
9982.000000;1.169531
9981.000000;1.169801
9980.000000;1.169559
9979.000000;1.168746
9978.000000;1.167501
9977.000000;1.166018
9976.000000;1.164630
9975.000000;1.163719
9974.000000;1.163290
9973.000000;1.162874
9972.000000;1.162044
9971.000000;1.160889
9970.000000;1.159902
9969.000000;1.159563
9968.000000;1.160027
9967.000000;1.160899
9966.000000;1.161334
9965.000000;1.160743
9964.000000;1.159458
9963.000000;1.158324
9962.000000;1.157603
9961.000000;1.156789
9960.000000;1.155576
9959.000000;1.154423
9958.000000;1.153875
9957.000000;1.153874
9956.000000;1.154116
9955.000000;1.154596
9954.000000;1.155317
9953.000000;1.155807
9952.000000;1.155519
9951.000000;1.154537
9950.000000;1.153409
9949.000000;1.152394
9948.000000;1.151308
9947.000000;1.150037
9946.000000;1.148763
9945.000000;1.147635
9944.000000;1.146623
9943.000000;1.145774
9942.000000;1.145304
9941.000000;1.145327
9940.000000;1.145617
9939.000000;1.145686
9938.000000;1.145113
9937.000000;1.143893
9936.000000;1.142530
9935.000000;1.141708
9934.000000;1.141697
9933.000000;1.142119
9932.000000;1.142357
9931.000000;1.142134
9930.000000;1.141603
9929.000000;1.140994
9928.000000;1.140341
9927.000000;1.139539
9926.000000;1.138527
9925.000000;1.137433
9924.000000;1.136544
9923.000000;1.136099
9922.000000;1.136048
9921.000000;1.136073
9920.000000;1.135875
9919.000000;1.135400
9918.000000;1.134819
9917.000000;1.134377
9916.000000;1.134229
9915.000000;1.134279
9914.000000;1.134175
9913.000000;1.133632
9912.000000;1.132764
9911.000000;1.131964
9910.000000;1.131484
9909.000000;1.131266
9908.000000;1.131080
9907.000000;1.130604
9906.000000;1.129465
9905.000000;1.127589
9904.000000;1.125544
9903.000000;1.124163
9902.000000;1.123738
9901.000000;1.123817
9900.000000;1.123810
9899.000000;1.123484
9898.000000;1.122814
9897.000000;1.121806
9896.000000;1.120712
9895.000000;1.120027
9894.000000;1.119952
9893.000000;1.120059
9892.000000;1.119793
9891.000000;1.119117
9890.000000;1.118430
9889.000000;1.118028
9888.000000;1.117925
9887.000000;1.118027
9886.000000;1.118182
9885.000000;1.118149
9884.000000;1.117786
9883.000000;1.117227
9882.000000;1.116700
9881.000000;1.116240
9880.000000;1.115764
9879.000000;1.115296
9878.000000;1.114918
9877.000000;1.114584
9876.000000;1.114191
9875.000000;1.113750
9874.000000;1.113278
9873.000000;1.112605
9872.000000;1.111599
9871.000000;1.110517
9870.000000;1.109820
9869.000000;1.109568
9868.000000;1.109295
9867.000000;1.108604
9866.000000;1.107652
9865.000000;1.106891
9864.000000;1.106502
9863.000000;1.106330
9862.000000;1.106196
9861.000000;1.105995
9860.000000;1.105535
9859.000000;1.104644
9858.000000;1.103557
9857.000000;1.102929
9856.000000;1.103179
9855.000000;1.103939
9854.000000;1.104386
9853.000000;1.104061
9852.000000;1.103176
9851.000000;1.102133
9850.000000;1.101071
9849.000000;1.099926
9848.000000;1.098698
9847.000000;1.097527
9846.000000;1.096627
9845.000000;1.096218
9844.000000;1.096362
9843.000000;1.096779
9842.000000;1.097014
9841.000000;1.096848
9840.000000;1.096400
9839.000000;1.095785
9838.000000;1.094968
9837.000000;1.094085
9836.000000;1.093555
9835.000000;1.093583
9834.000000;1.093745
9833.000000;1.093376
9832.000000;1.092266
9831.000000;1.090750
9830.000000;1.089253
9829.000000;1.088043
9828.000000;1.087247
9827.000000;1.086800
9826.000000;1.086408
9825.000000;1.085831
9824.000000;1.085186
9823.000000;1.084756
9822.000000;1.084571
9821.000000;1.084433
9820.000000;1.084235
9819.000000;1.083975
9818.000000;1.083538
9817.000000;1.082800
9816.000000;1.081952
9815.000000;1.081427
9814.000000;1.081404
9813.000000;1.081581
9812.000000;1.081495
9811.000000;1.080947
9810.000000;1.080134
9809.000000;1.079473
9808.000000;1.079249
9807.000000;1.079284
9806.000000;1.079032
9805.000000;1.078179
9804.000000;1.077049
9803.000000;1.076201
9802.000000;1.075735
9801.000000;1.075251
9800.000000;1.074430
9799.000000;1.073400
9798.000000;1.072536
9797.000000;1.072130
9796.000000;1.072233
9795.000000;1.072586
9794.000000;1.072706
9793.000000;1.072247
9792.000000;1.071289
9791.000000;1.070182
9790.000000;1.069212
9789.000000;1.068561
9788.000000;1.068362
9787.000000;1.068514
9786.000000;1.068595
9785.000000;1.068266
9784.000000;1.067681
9783.000000;1.067187
9782.000000;1.066752
9781.000000;1.066061
9780.000000;1.065132
9779.000000;1.064395
9778.000000;1.064114
9777.000000;1.064059
9776.000000;1.063835
9775.000000;1.063260
9774.000000;1.062402
9773.000000;1.061526
9772.000000;1.061049
9771.000000;1.061210
9770.000000;1.061680
9769.000000;1.061742
9768.000000;1.060992
9767.000000;1.059680
9766.000000;1.058342
9765.000000;1.057338
9764.000000;1.056746
9763.000000;1.056428
9762.000000;1.056062
9761.000000;1.055356
9760.000000;1.054344
9759.000000;1.053356
9758.000000;1.052667
9757.000000;1.052289
9756.000000;1.052084
9755.000000;1.051900
9754.000000;1.051638
9753.000000;1.051388
9752.000000;1.051418
9751.000000;1.051776
9750.000000;1.051959
9749.000000;1.051347
9748.000000;1.049998
9747.000000;1.048662
9746.000000;1.047926
9745.000000;1.047644
9744.000000;1.047335
9743.000000;1.046855
9742.000000;1.046453
9741.000000;1.046333
9740.000000;1.046361
9739.000000;1.046175
9738.000000;1.045502
9737.000000;1.044408
9736.000000;1.043288
9735.000000;1.042518
9734.000000;1.042109
9733.000000;1.041735
9732.000000;1.041111
9731.000000;1.040289
9730.000000;1.039606
9729.000000;1.039365
9728.000000;1.039498
9727.000000;1.039533
9726.000000;1.039014
9725.000000;1.037989
9724.000000;1.036912
9723.000000;1.036063
9722.000000;1.035340
9721.000000;1.034685
9720.000000;1.034293
9719.000000;1.034183
9718.000000;1.033946
9717.000000;1.033313
9716.000000;1.032679
9715.000000;1.032583
9714.000000;1.032897
9713.000000;1.033030
9712.000000;1.032777
9711.000000;1.032457
9710.000000;1.032252
9709.000000;1.031939
9708.000000;1.031287
9707.000000;1.030290
9706.000000;1.028998
9705.000000;1.027516
9704.000000;1.026242
9703.000000;1.025657
9702.000000;1.025791
9701.000000;1.026191
9700.000000;1.026455
9699.000000;1.026484
9698.000000;1.026202
9697.000000;1.025476
9696.000000;1.024415
9695.000000;1.023380
9694.000000;1.022577
9693.000000;1.021910
9692.000000;1.021302
9691.000000;1.020807
9690.000000;1.020381
9689.000000;1.019882
9688.000000;1.019385
9687.000000;1.019131
9686.000000;1.019073
9685.000000;1.018839
9684.000000;1.018265
9683.000000;1.017603
9682.000000;1.017076
9681.000000;1.016582
9680.000000;1.016020
9679.000000;1.015546
9678.000000;1.015251
9677.000000;1.014900
9676.000000;1.014241
9675.000000;1.013374
9674.000000;1.012585
9673.000000;1.012000
9672.000000;1.011594
9671.000000;1.011377
9670.000000;1.011389
9669.000000;1.011611
9668.000000;1.011989
9667.000000;1.012385
9666.000000;1.012461
9665.000000;1.011876
9664.000000;1.010721
9663.000000;1.009546
9662.000000;1.008800
9661.000000;1.008434
9660.000000;1.008168
9659.000000;1.007905
9658.000000;1.007678
9657.000000;1.007347
9656.000000;1.006652
9655.000000;1.005559
9654.000000;1.004393
9653.000000;1.003584
9652.000000;1.003290
9651.000000;1.003247
9650.000000;1.003013
9649.000000;1.002406
9648.000000;1.001642
9647.000000;1.000980
9646.000000;1.000364
9645.000000;0.999601
9644.000000;0.998775
9643.000000;0.998219
9642.000000;0.998090
9641.000000;0.998224
9640.000000;0.998415
9639.000000;0.998584
9638.000000;0.998640
9637.000000;0.998425
9636.000000;0.997891
9635.000000;0.997174
9634.000000;0.996457
9633.000000;0.995878
9632.000000;0.995525
9631.000000;0.995287
9630.000000;0.994788
9629.000000;0.993733
9628.000000;0.992356
9627.000000;0.991213
9626.000000;0.990556
9625.000000;0.990178
9624.000000;0.989882
9623.000000;0.989746
9622.000000;0.989819
9621.000000;0.989919
9620.000000;0.989890
9619.000000;0.989768
9618.000000;0.989510
9617.000000;0.988862
9616.000000;0.987750
9615.000000;0.986581
9614.000000;0.985842
9613.000000;0.985546
9612.000000;0.985313
9611.000000;0.984922
9610.000000;0.984522
9609.000000;0.984291
9608.000000;0.984115
9607.000000;0.983722
9606.000000;0.983044
9605.000000;0.982334
9604.000000;0.981883
9603.000000;0.981693
9602.000000;0.981504
9601.000000;0.981137
9600.000000;0.980689
9599.000000;0.980312
9598.000000;0.979981
9597.000000;0.979595
9596.000000;0.979202
9595.000000;0.978900
9594.000000;0.978582
9593.000000;0.978005
9592.000000;0.977121
9591.000000;0.976180
9590.000000;0.975513
9589.000000;0.975317
9588.000000;0.975538
9587.000000;0.975820
9586.000000;0.975640
9585.000000;0.974749
9584.000000;0.973472
9583.000000;0.972375
9582.000000;0.971685
9581.000000;0.971222
9580.000000;0.970836
9579.000000;0.970631
9578.000000;0.970699
9577.000000;0.970869
9576.000000;0.970858
9575.000000;0.970529
9574.000000;0.969938
9573.000000;0.969225
9572.000000;0.968520
9571.000000;0.967892
9570.000000;0.967349
9569.000000;0.966907
9568.000000;0.966580
9567.000000;0.966279
9566.000000;0.965861
9565.000000;0.965359
9564.000000;0.965001
9563.000000;0.964864
9562.000000;0.964686
9561.000000;0.964191
9560.000000;0.963470
9559.000000;0.962808
9558.000000;0.962296
9557.000000;0.961841
9556.000000;0.961412
9555.000000;0.961009
9554.000000;0.960501
9553.000000;0.959795
9552.000000;0.959071
9551.000000;0.958575
9550.000000;0.958232
9549.000000;0.957783
9548.000000;0.957240
9547.000000;0.956885
9546.000000;0.956839
9545.000000;0.956923
9544.000000;0.956956
9543.000000;0.956905
9542.000000;0.956687
9541.000000;0.956123
9540.000000;0.955205
9539.000000;0.954188
9538.000000;0.953342
9537.000000;0.952752
9536.000000;0.952378
9535.000000;0.952136
9534.000000;0.951877
9533.000000;0.951476
9532.000000;0.950967
9531.000000;0.950503
9530.000000;0.950193
9529.000000;0.950066
9528.000000;0.950044
9527.000000;0.949830
9526.000000;0.949019
9525.000000;0.947613
9524.000000;0.946291
9523.000000;0.945835
9522.000000;0.946294
9521.000000;0.946975
9520.000000;0.947230
9519.000000;0.946976
9518.000000;0.946445
9517.000000;0.945785
9516.000000;0.945048
9515.000000;0.944320
9514.000000;0.943679
9513.000000;0.943116
9512.000000;0.942577
9511.000000;0.942022
9510.000000;0.941458
9509.000000;0.940980
9508.000000;0.940689
9507.000000;0.940505
9506.000000;0.940197
9505.000000;0.939730
9504.000000;0.939381
9503.000000;0.939344
9502.000000;0.939387
9501.000000;0.939160
9500.000000;0.938652
9499.000000;0.938093
9498.000000;0.937588
9497.000000;0.937160
9496.000000;0.936949
9495.000000;0.936950
9494.000000;0.936690
9493.000000;0.935672
9492.000000;0.934179
9491.000000;0.933172
9490.000000;0.933240
9489.000000;0.933949
9488.000000;0.934337
9487.000000;0.933836
9486.000000;0.932638
9485.000000;0.931393
9484.000000;0.930653
9483.000000;0.930482
9482.000000;0.930523
9481.000000;0.930463
9480.000000;0.930364
9479.000000;0.930422
9478.000000;0.930600
9477.000000;0.930704
9476.000000;0.930660
9475.000000;0.930425
9474.000000;0.929809
9473.000000;0.928740
9472.000000;0.927578
9471.000000;0.926807
9470.000000;0.926467
9469.000000;0.926247
9468.000000;0.926005
9467.000000;0.925831
9466.000000;0.925639
9465.000000;0.925170
9464.000000;0.924440
9463.000000;0.923760
9462.000000;0.923213
9461.000000;0.922534
9460.000000;0.921614
9459.000000;0.920771
9458.000000;0.920324
9457.000000;0.920182
9456.000000;0.920008
9455.000000;0.919610
9454.000000;0.919058
9453.000000;0.918606
9452.000000;0.918546
9451.000000;0.918927
9450.000000;0.919398
9449.000000;0.919491
9448.000000;0.919091
9447.000000;0.918427
9446.000000;0.917661
9445.000000;0.916773
9444.000000;0.915873
9443.000000;0.915277
9442.000000;0.915153
9441.000000;0.915258
9440.000000;0.915130
9439.000000;0.914452
9438.000000;0.913292
9437.000000;0.912126
9436.000000;0.911533
9435.000000;0.911628
9434.000000;0.911868
9433.000000;0.911651
9432.000000;0.911036
9431.000000;0.910596
9430.000000;0.910656
9429.000000;0.910995
9428.000000;0.911208
9427.000000;0.911001
9426.000000;0.910204
9425.000000;0.908880
9424.000000;0.907469
9423.000000;0.906488
9422.000000;0.906006
9421.000000;0.905685
9420.000000;0.905322
9419.000000;0.905051
9418.000000;0.905000
9417.000000;0.905095
9416.000000;0.905234
9415.000000;0.905380
9414.000000;0.905428
9413.000000;0.905257
9412.000000;0.904923
9411.000000;0.904556
9410.000000;0.904100
9409.000000;0.903461
9408.000000;0.902846
9407.000000;0.902578
9406.000000;0.902595
9405.000000;0.902505
9404.000000;0.902135
9403.000000;0.901654
9402.000000;0.901133
9401.000000;0.900409
9400.000000;0.899499
9399.000000;0.898730
9398.000000;0.898327
9397.000000;0.898165
9396.000000;0.898048
9395.000000;0.897930
9394.000000;0.897780
9393.000000;0.897512
9392.000000;0.897145
9391.000000;0.896782
9390.000000;0.896378
9389.000000;0.895796
9388.000000;0.895122
9387.000000;0.894625
9386.000000;0.894377
9385.000000;0.894212
9384.000000;0.894054
9383.000000;0.893955
9382.000000;0.893832
9381.000000;0.893509
9380.000000;0.893027
9379.000000;0.892515
9378.000000;0.891805
9377.000000;0.890653
9376.000000;0.889372
9375.000000;0.888687
9374.000000;0.888815
9373.000000;0.889148
9372.000000;0.889051
9371.000000;0.888549
9370.000000;0.888044
9369.000000;0.887774
9368.000000;0.887807
9367.000000;0.888143
9366.000000;0.888533
9365.000000;0.888527
9364.000000;0.887990
9363.000000;0.887261
9362.000000;0.886600
9361.000000;0.885846
9360.000000;0.884862
9359.000000;0.883929
9358.000000;0.883376
9357.000000;0.883119
9356.000000;0.882919
9355.000000;0.882819
9354.000000;0.882956
9353.000000;0.883157
9352.000000;0.883084
9351.000000;0.882708
9350.000000;0.882313
9349.000000;0.882084
9348.000000;0.881921
9347.000000;0.881626
9346.000000;0.881091
9345.000000;0.880362
9344.000000;0.879618
9343.000000;0.879024
9342.000000;0.878562
9341.000000;0.878118
9340.000000;0.877697
9339.000000;0.877366
9338.000000;0.877002
9337.000000;0.876419
9336.000000;0.875760
9335.000000;0.875408
9334.000000;0.875411
9333.000000;0.875381
9332.000000;0.875117
9331.000000;0.874909
9330.000000;0.874971
9329.000000;0.874956
9328.000000;0.874419
9327.000000;0.873507
9326.000000;0.872836
9325.000000;0.872814
9324.000000;0.873334
9323.000000;0.873977
9322.000000;0.874251
9321.000000;0.873828
9320.000000;0.872843
9319.000000;0.871839
9318.000000;0.871213
9317.000000;0.870850
9316.000000;0.870479
9315.000000;0.870168
9314.000000;0.870155
9313.000000;0.870353
9312.000000;0.870371
9311.000000;0.869980
9310.000000;0.869309
9309.000000;0.868622
9308.000000;0.868113
9307.000000;0.867858
9306.000000;0.867742
9305.000000;0.867466
9304.000000;0.866828
9303.000000;0.865977
9302.000000;0.865244
9301.000000;0.864771
9300.000000;0.864478
9299.000000;0.864272
9298.000000;0.864103
9297.000000;0.863857
9296.000000;0.863437
9295.000000;0.862940
9294.000000;0.862617
9293.000000;0.862604
9292.000000;0.862790
9291.000000;0.862926
9290.000000;0.862789
9289.000000;0.862310
9288.000000;0.861662
9287.000000;0.861159
9286.000000;0.860959
9285.000000;0.860872
9284.000000;0.860559
9283.000000;0.859907
9282.000000;0.859156
9281.000000;0.858673
9280.000000;0.858654
9279.000000;0.858956
9278.000000;0.859174
9277.000000;0.858953
9276.000000;0.858291
9275.000000;0.857525
9274.000000;0.856980
9273.000000;0.856702
9272.000000;0.856517
9271.000000;0.856255
9270.000000;0.855853
9269.000000;0.855369
9268.000000;0.854945
9267.000000;0.854686
9266.000000;0.854530
9265.000000;0.854320
9264.000000;0.854011
9263.000000;0.853690
9262.000000;0.853379
9261.000000;0.852969
9260.000000;0.852411
9259.000000;0.851812
9258.000000;0.851266
9257.000000;0.850715
9256.000000;0.850106
9255.000000;0.849570
9254.000000;0.849327
9253.000000;0.849445
9252.000000;0.849784
9251.000000;0.850131
9250.000000;0.850320
9249.000000;0.850262
9248.000000;0.849961
9247.000000;0.849509
9246.000000;0.849048
9245.000000;0.848687
9244.000000;0.848431
9243.000000;0.848159
9242.000000;0.847761
9241.000000;0.847308
9240.000000;0.846980
9239.000000;0.846746
9238.000000;0.846296
9237.000000;0.845471
9236.000000;0.844619
9235.000000;0.844276
9234.000000;0.844541
9233.000000;0.844996
9232.000000;0.845221
9231.000000;0.845146
9230.000000;0.844871
9229.000000;0.844433
9228.000000;0.843848
9227.000000;0.843209
9226.000000;0.842635
9225.000000;0.842237
9224.000000;0.842148
9223.000000;0.842425
9222.000000;0.842852
9221.000000;0.843003
9220.000000;0.842598
9219.000000;0.841712
9218.000000;0.840643
9217.000000;0.839706
9216.000000;0.839123
9215.000000;0.838934
9214.000000;0.838961
9213.000000;0.838978
9212.000000;0.838929
9211.000000;0.838861
9210.000000;0.838701
9209.000000;0.838309
9208.000000;0.837738
9207.000000;0.837223
9206.000000;0.836905
9205.000000;0.836754
9204.000000;0.836748
9203.000000;0.836878
9202.000000;0.836949
9201.000000;0.836667
9200.000000;0.836024
9199.000000;0.835326
9198.000000;0.834756
9197.000000;0.834155
9196.000000;0.833409
9195.000000;0.832789
9194.000000;0.832670
9193.000000;0.833013
9192.000000;0.833332
9191.000000;0.833173
9190.000000;0.832527
9189.000000;0.831821
9188.000000;0.831540
9187.000000;0.831819
9186.000000;0.832360
9185.000000;0.832748
9184.000000;0.832796
9183.000000;0.832504
9182.000000;0.831865
9181.000000;0.830931
9180.000000;0.829994
9179.000000;0.829386
9178.000000;0.829067
9177.000000;0.828692
9176.000000;0.828160
9175.000000;0.827793
9174.000000;0.827847
9173.000000;0.828117
9172.000000;0.828194
9171.000000;0.827935
9170.000000;0.827498
9169.000000;0.827074
9168.000000;0.826805
9167.000000;0.826808
9166.000000;0.827063
9165.000000;0.827306
9164.000000;0.827190
9163.000000;0.826590
9162.000000;0.825688
9161.000000;0.824826
9160.000000;0.824280
9159.000000;0.824088
9158.000000;0.824022
9157.000000;0.823803
9156.000000;0.823389
9155.000000;0.822974
9154.000000;0.822712
9153.000000;0.822555
9152.000000;0.822386
9151.000000;0.822179
9150.000000;0.821960
9149.000000;0.821734
9148.000000;0.821516
9147.000000;0.821309
9146.000000;0.821029
9145.000000;0.820539
9144.000000;0.819850
9143.000000;0.819176
9142.000000;0.818747
9141.000000;0.818585
9140.000000;0.818519
9139.000000;0.818353
9138.000000;0.818033
9137.000000;0.817712
9136.000000;0.817603
9135.000000;0.817710
9134.000000;0.817761
9133.000000;0.817533
9132.000000;0.817160
9131.000000;0.816973
9130.000000;0.817090
9129.000000;0.817333
9128.000000;0.817469
9127.000000;0.817328
9126.000000;0.816771
9125.000000;0.815817
9124.000000;0.814816
9123.000000;0.814234
9122.000000;0.814183
9121.000000;0.814339
9120.000000;0.814348
9119.000000;0.814112
9118.000000;0.813684
9117.000000;0.813164
9116.000000;0.812746
9115.000000;0.812627
9114.000000;0.812733
9113.000000;0.812762
9112.000000;0.812624
9111.000000;0.812623
9110.000000;0.813028
9109.000000;0.813601
9108.000000;0.813759
9107.000000;0.813158
9106.000000;0.812021
9105.000000;0.810928
9104.000000;0.810349
9103.000000;0.810322
9102.000000;0.810506
9101.000000;0.810589
9100.000000;0.810577
9099.000000;0.810625
9098.000000;0.810687
9097.000000;0.810533
9096.000000;0.810111
9095.000000;0.809640
9094.000000;0.809305
9093.000000;0.809029
9092.000000;0.808629
9091.000000;0.808046
9090.000000;0.807378
9089.000000;0.806824
9088.000000;0.806602
9087.000000;0.806748
9086.000000;0.806944
9085.000000;0.806714
9084.000000;0.805908
9083.000000;0.804846
9082.000000;0.803973
9081.000000;0.803510
9080.000000;0.803432
9079.000000;0.803606
9078.000000;0.803843
9077.000000;0.803997
9076.000000;0.804099
9075.000000;0.804281
9074.000000;0.804501
9073.000000;0.804513
9072.000000;0.804164
9071.000000;0.803592
9070.000000;0.803048
9069.000000;0.802667
9068.000000;0.802462
9067.000000;0.802389
9066.000000;0.802331
9065.000000;0.802095
9064.000000;0.801573
9063.000000;0.800875
9062.000000;0.800265
9061.000000;0.799960
9060.000000;0.799951
9059.000000;0.799991
9058.000000;0.799822
9057.000000;0.799482
9056.000000;0.799284
9055.000000;0.799379
9054.000000;0.799478
9053.000000;0.799198
