Criado como novo conjunto de dados;"e2410_daniel_v2.spp","72905.6 Secs"
cm-1;Abs
10000.000000;1.387940
9999.000000;1.386156
9998.000000;1.384337
9997.000000;1.383077
9996.000000;1.382949
9995.000000;1.383714
9994.000000;1.384376
9993.000000;1.384231
9992.000000;1.383574
9991.000000;1.383082
9990.000000;1.382826
9989.000000;1.382323
9988.000000;1.381344
9987.000000;1.380184
9986.000000;1.379150
9985.000000;1.378203
9984.000000;1.377257
9983.000000;1.376539
9982.000000;1.376407
9981.000000;1.376807
9980.000000;1.377102
9979.000000;1.376609
9978.000000;1.375336
9977.000000;1.374019
9976.000000;1.373281
9975.000000;1.372964
9974.000000;1.372495
9973.000000;1.371715
9972.000000;1.370966
9971.000000;1.370481
9970.000000;1.370203
9969.000000;1.370189
9968.000000;1.370588
9967.000000;1.371039
9966.000000;1.370754
9965.000000;1.369546
9964.000000;1.368252
9963.000000;1.367670
9962.000000;1.367583
9961.000000;1.367330
9960.000000;1.366879
9959.000000;1.366592
9958.000000;1.366300
9957.000000;1.365459
9956.000000;1.364198
9955.000000;1.363342
9954.000000;1.363265
9953.000000;1.363423
9952.000000;1.363235
9951.000000;1.362828
9950.000000;1.362565
9949.000000;1.362373
9948.000000;1.361927
9947.000000;1.361158
9946.000000;1.360188
9945.000000;1.359039
9944.000000;1.357729
9943.000000;1.356482
9942.000000;1.355533
9941.000000;1.354841
9940.000000;1.354222
9939.000000;1.353643
9938.000000;1.353202
9937.000000;1.352931
9936.000000;1.352765
9935.000000;1.352631
9934.000000;1.352420
9933.000000;1.351988
9932.000000;1.351283
9931.000000;1.350400
9930.000000;1.349469
9929.000000;1.348650
9928.000000;1.348269
9927.000000;1.348651
9926.000000;1.349627
9925.000000;1.350439
9924.000000;1.350402
9923.000000;1.349530
9922.000000;1.348268
9921.000000;1.346843
9920.000000;1.345253
9919.000000;1.343743
9918.000000;1.342822
9917.000000;1.342671
9916.000000;1.342863
9915.000000;1.342829
9914.000000;1.342395
9913.000000;1.341723
9912.000000;1.340985
9911.000000;1.340297
9910.000000;1.339783
9909.000000;1.339424
9908.000000;1.338932
9907.000000;1.338057
9906.000000;1.336990
9905.000000;1.336192
9904.000000;1.335817
9903.000000;1.335606
9902.000000;1.335431
9901.000000;1.335582
9900.000000;1.336240
9899.000000;1.336960
9898.000000;1.337085
9897.000000;1.336588
9896.000000;1.336056
9895.000000;1.335811
9894.000000;1.335450
9893.000000;1.334448
9892.000000;1.332913
9891.000000;1.331486
9890.000000;1.330649
9889.000000;1.330395
9888.000000;1.330471
9887.000000;1.330641
9886.000000;1.330679
9885.000000;1.330340
9884.000000;1.329492
9883.000000;1.328267
9882.000000;1.327033
9881.000000;1.326190
9880.000000;1.325931
9879.000000;1.326104
9878.000000;1.326300
9877.000000;1.326127
9876.000000;1.325434
9875.000000;1.324330
9874.000000;1.323092
9873.000000;1.322054
9872.000000;1.321430
9871.000000;1.321196
9870.000000;1.321150
9869.000000;1.321082
9868.000000;1.320834
9867.000000;1.320323
9866.000000;1.319623
9865.000000;1.319040
9864.000000;1.318879
9863.000000;1.319058
9862.000000;1.319107
9861.000000;1.318667
9860.000000;1.317812
9859.000000;1.316822
9858.000000;1.315922
9857.000000;1.315328
9856.000000;1.315231
9855.000000;1.315437
9854.000000;1.315287
9853.000000;1.314318
9852.000000;1.312914
9851.000000;1.311963
9850.000000;1.311882
9849.000000;1.312291
9848.000000;1.312566
9847.000000;1.312404
9846.000000;1.311777
9845.000000;1.310728
9844.000000;1.309443
9843.000000;1.308340
9842.000000;1.307802
9841.000000;1.307843
9840.000000;1.308121
9839.000000;1.308239
9838.000000;1.307958
9837.000000;1.307214
9836.000000;1.306037
9835.000000;1.304520
9834.000000;1.302899
9833.000000;1.301616
9832.000000;1.301111
9831.000000;1.301402
9830.000000;1.301887
9829.000000;1.301782
9828.000000;1.300858
9827.000000;1.299615
9826.000000;1.298685
9825.000000;1.298243
9824.000000;1.298070
9823.000000;1.297996
9822.000000;1.298027
9821.000000;1.298063
9820.000000;1.297735
9819.000000;1.296785
9818.000000;1.295488
9817.000000;1.294466
9816.000000;1.294051
9815.000000;1.294035
9814.000000;1.294093
9813.000000;1.294193
9812.000000;1.294410
9811.000000;1.294551
9810.000000;1.294316
9809.000000;1.293769
9808.000000;1.293277
9807.000000;1.292937
9806.000000;1.292406
9805.000000;1.291421
9804.000000;1.290203
9803.000000;1.289144
9802.000000;1.288370
9801.000000;1.287840
9800.000000;1.287651
9799.000000;1.287888
9798.000000;1.288286
9797.000000;1.288364
9796.000000;1.287941
9795.000000;1.287288
9794.000000;1.286722
9793.000000;1.286258
9792.000000;1.285751
9791.000000;1.285246
9790.000000;1.285025
9789.000000;1.285252
9788.000000;1.285592
9787.000000;1.285281
9786.000000;1.283793
9785.000000;1.281489
9784.000000;1.279460
9783.000000;1.278596
9782.000000;1.278898
9781.000000;1.279668
9780.000000;1.280167
9779.000000;1.279962
9778.000000;1.278896
9777.000000;1.277087
9776.000000;1.275025
9775.000000;1.273433
9774.000000;1.272857
9773.000000;1.273325
9772.000000;1.274277
9771.000000;1.274826
9770.000000;1.274375
9769.000000;1.273187
9768.000000;1.272192
9767.000000;1.272024
9766.000000;1.272332
9765.000000;1.272198
9764.000000;1.271191
9763.000000;1.269800
9762.000000;1.268872
9761.000000;1.268844
9760.000000;1.269510
9759.000000;1.270304
9758.000000;1.270697
9757.000000;1.270482
9756.000000;1.269787
9755.000000;1.268835
9754.000000;1.267735
9753.000000;1.266551
9752.000000;1.265450
9751.000000;1.264610
9750.000000;1.264088
9749.000000;1.263887
9748.000000;1.263990
9747.000000;1.264137
9746.000000;1.263756
9745.000000;1.262456
9744.000000;1.260619
9743.000000;1.259158
9742.000000;1.258662
9741.000000;1.258958
9740.000000;1.259495
9739.000000;1.259844
9738.000000;1.259803
9737.000000;1.259351
9736.000000;1.258691
9735.000000;1.258088
9734.000000;1.257536
9733.000000;1.256806
9732.000000;1.255906
9731.000000;1.255214
9730.000000;1.255001
9729.000000;1.255022
9728.000000;1.254828
9727.000000;1.254292
9726.000000;1.253592
9725.000000;1.252809
9724.000000;1.251864
9723.000000;1.250830
9722.000000;1.249993
9721.000000;1.249517
9720.000000;1.249213
9719.000000;1.248752
9718.000000;1.248029
9717.000000;1.247281
9716.000000;1.246880
9715.000000;1.247000
9714.000000;1.247379
9713.000000;1.247456
9712.000000;1.246886
9711.000000;1.245924
9710.000000;1.245147
9709.000000;1.244788
9708.000000;1.244539
9707.000000;1.244055
9706.000000;1.243415
9705.000000;1.242900
9704.000000;1.242511
9703.000000;1.242024
9702.000000;1.241501
9701.000000;1.241375
9700.000000;1.241839
9699.000000;1.242390
9698.000000;1.242221
9697.000000;1.241043
9696.000000;1.239386
9695.000000;1.238112
9694.000000;1.237714
9693.000000;1.237992
9692.000000;1.238267
9691.000000;1.237979
9690.000000;1.237199
9689.000000;1.236506
9688.000000;1.236302
9687.000000;1.236357
9686.000000;1.236171
9685.000000;1.235646
9684.000000;1.235140
9683.000000;1.234898
9682.000000;1.234773
9681.000000;1.234535
9680.000000;1.234177
9679.000000;1.233742
9678.000000;1.233090
9677.000000;1.232045
9676.000000;1.230674
9675.000000;1.229268
9674.000000;1.228118
9673.000000;1.227377
9672.000000;1.227025
9671.000000;1.226838
9670.000000;1.226500
9669.000000;1.225878
9668.000000;1.225184
9667.000000;1.224820
9666.000000;1.225057
9665.000000;1.225799
9664.000000;1.226522
9663.000000;1.226532
9662.000000;1.225576
9661.000000;1.224256
9660.000000;1.223538
9659.000000;1.223716
9658.000000;1.224076
9657.000000;1.223751
9656.000000;1.222693
9655.000000;1.221564
9654.000000;1.220842
9653.000000;1.220393
9652.000000;1.219849
9651.000000;1.219119
9650.000000;1.218413
9649.000000;1.217916
9648.000000;1.217516
9647.000000;1.216871
9646.000000;1.215841
9645.000000;1.214844
9644.000000;1.214556
9643.000000;1.215110
9642.000000;1.215779
9641.000000;1.215690
9640.000000;1.214711
9639.000000;1.213391
9638.000000;1.212221
9637.000000;1.211310
9636.000000;1.210672
9635.000000;1.210361
9634.000000;1.210228
9633.000000;1.209918
9632.000000;1.209290
9631.000000;1.208646
9630.000000;1.208358
9629.000000;1.208405
9628.000000;1.208422
9627.000000;1.208100
9626.000000;1.207441
9625.000000;1.206690
9624.000000;1.206130
9623.000000;1.205903
9622.000000;1.205942
9621.000000;1.206090
9620.000000;1.206282
9619.000000;1.206543
9618.000000;1.206797
9617.000000;1.206769
9616.000000;1.206176
9615.000000;1.205050
9614.000000;1.203875
9613.000000;1.203271
9612.000000;1.203414
9611.000000;1.203735
9610.000000;1.203426
9609.000000;1.202330
9608.000000;1.201159
9607.000000;1.200652
9606.000000;1.200734
9605.000000;1.200758
9604.000000;1.200373
9603.000000;1.199761
9602.000000;1.199113
9601.000000;1.198358
9600.000000;1.197524
9599.000000;1.196927
9598.000000;1.196729
9597.000000;1.196624
9596.000000;1.196263
9595.000000;1.195786
9594.000000;1.195618
9593.000000;1.195813
9592.000000;1.195919
9591.000000;1.195489
9590.000000;1.194510
9589.000000;1.193309
9588.000000;1.192227
9587.000000;1.191411
9586.000000;1.190781
9585.000000;1.190168
9584.000000;1.189557
9583.000000;1.189159
9582.000000;1.189099
9581.000000;1.189113
9580.000000;1.188790
9579.000000;1.188138
9578.000000;1.187647
9577.000000;1.187656
9576.000000;1.187905
9575.000000;1.187896
9574.000000;1.187557
9573.000000;1.187237
9572.000000;1.187103
9571.000000;1.186880
9570.000000;1.186305
9569.000000;1.185574
9568.000000;1.185102
9567.000000;1.184983
9566.000000;1.184892
9565.000000;1.184482
9564.000000;1.183698
9563.000000;1.182674
9562.000000;1.181550
9561.000000;1.180498
9560.000000;1.179767
9559.000000;1.179488
9558.000000;1.179451
9557.000000;1.179227
9556.000000;1.178597
9555.000000;1.177798
9554.000000;1.177314
9553.000000;1.177432
9552.000000;1.178039
9551.000000;1.178781
9550.000000;1.179352
9549.000000;1.179597
9548.000000;1.179465
9547.000000;1.178993
9546.000000;1.178331
9545.000000;1.177635
9544.000000;1.176895
9543.000000;1.176004
9542.000000;1.175059
9541.000000;1.174432
9540.000000;1.174348
9539.000000;1.174497
9538.000000;1.174309
9537.000000;1.173620
9536.000000;1.172833
9535.000000;1.172374
9534.000000;1.172236
9533.000000;1.172186
9532.000000;1.172173
9531.000000;1.172254
9530.000000;1.172231
9529.000000;1.171692
9528.000000;1.170510
9527.000000;1.169159
9526.000000;1.168375
9525.000000;1.168473
9524.000000;1.169043
9523.000000;1.169312
9522.000000;1.168809
9521.000000;1.167670
9520.000000;1.166346
9519.000000;1.165182
9518.000000;1.164316
9517.000000;1.163793
9516.000000;1.163569
9515.000000;1.163435
9514.000000;1.163153
9513.000000;1.162696
9512.000000;1.162204
9511.000000;1.161724
9510.000000;1.161178
9509.000000;1.160583
9508.000000;1.160048
9507.000000;1.159509
9506.000000;1.158743
9505.000000;1.157815
9504.000000;1.157244
9503.000000;1.157459
9502.000000;1.158222
9501.000000;1.158816
9500.000000;1.158755
9499.000000;1.158118
9498.000000;1.157288
9497.000000;1.156599
9496.000000;1.156211
9495.000000;1.156047
9494.000000;1.155759
9493.000000;1.154982
9492.000000;1.153762
9491.000000;1.152649
9490.000000;1.152245
9489.000000;1.152639
9488.000000;1.153324
9487.000000;1.153643
9486.000000;1.153315
9485.000000;1.152525
9484.000000;1.151552
9483.000000;1.150488
9482.000000;1.149378
9481.000000;1.148508
9480.000000;1.148248
9479.000000;1.148548
9478.000000;1.148838
9477.000000;1.148589
9476.000000;1.147849
9475.000000;1.147054
9474.000000;1.146468
9473.000000;1.146020
9472.000000;1.145595
9471.000000;1.145214
9470.000000;1.144947
9469.000000;1.144840
9468.000000;1.144950
9467.000000;1.145264
9466.000000;1.145551
9465.000000;1.145477
9464.000000;1.144982
9463.000000;1.144382
9462.000000;1.143996
9461.000000;1.143774
9460.000000;1.143358
9459.000000;1.142474
9458.000000;1.141202
9457.000000;1.139957
9456.000000;1.139267
9455.000000;1.139436
9454.000000;1.140283
9453.000000;1.141172
9452.000000;1.141455
9451.000000;1.140959
9450.000000;1.140048
9449.000000;1.139196
9448.000000;1.138561
9447.000000;1.137990
9446.000000;1.137387
9445.000000;1.136914
9444.000000;1.136760
9443.000000;1.136814
9442.000000;1.136706
9441.000000;1.136191
9440.000000;1.135359
9439.000000;1.134405
9438.000000;1.133359
9437.000000;1.132238
9436.000000;1.131334
9435.000000;1.131075
9434.000000;1.131562
9433.000000;1.132397
9432.000000;1.133034
9431.000000;1.133249
9430.000000;1.133137
9429.000000;1.132785
9428.000000;1.132192
9427.000000;1.131504
9426.000000;1.131054
9425.000000;1.130975
9424.000000;1.130971
9423.000000;1.130708
9422.000000;1.130314
9421.000000;1.130169
9420.000000;1.130225
9419.000000;1.129912
9418.000000;1.128871
9417.000000;1.127490
9416.000000;1.126459
9415.000000;1.126032
9414.000000;1.125969
9413.000000;1.126007
9412.000000;1.126044
9411.000000;1.125970
9410.000000;1.125679
9409.000000;1.125293
9408.000000;1.125054
9407.000000;1.124942
9406.000000;1.124646
9405.000000;1.123993
9404.000000;1.123199
9403.000000;1.122633
9402.000000;1.122506
9401.000000;1.122825
9400.000000;1.123383
9399.000000;1.123713
9398.000000;1.123354
9397.000000;1.122346
9396.000000;1.121281
9395.000000;1.120682
9394.000000;1.120510
9393.000000;1.120384
9392.000000;1.120095
9391.000000;1.119720
9390.000000;1.119357
9389.000000;1.118978
9388.000000;1.118515
9387.000000;1.117917
9386.000000;1.117160
9385.000000;1.116305
9384.000000;1.115520
9383.000000;1.114943
9382.000000;1.114587
9381.000000;1.114431
9380.000000;1.114485
9379.000000;1.114667
9378.000000;1.114705
9377.000000;1.114321
9376.000000;1.113527
9375.000000;1.112662
9374.000000;1.112110
9373.000000;1.111991
9372.000000;1.112105
9371.000000;1.112192
9370.000000;1.112208
9369.000000;1.112294
9368.000000;1.112421
9367.000000;1.112228
9366.000000;1.111398
9365.000000;1.110082
9364.000000;1.108746
9363.000000;1.107678
9362.000000;1.106919
9361.000000;1.106573
9360.000000;1.106785
9359.000000;1.107315
9358.000000;1.107538
9357.000000;1.107124
9356.000000;1.106439
9355.000000;1.106038
9354.000000;1.106004
9353.000000;1.106033
9352.000000;1.105889
9351.000000;1.105491
9350.000000;1.104759
9349.000000;1.103717
9348.000000;1.102674
9347.000000;1.102021
9346.000000;1.101865
9345.000000;1.102048
9344.000000;1.102409
9343.000000;1.102805
9342.000000;1.103006
9341.000000;1.102837
9340.000000;1.102412
9339.000000;1.101943
9338.000000;1.101352
9337.000000;1.100371
9336.000000;1.099077
9335.000000;1.098035
9334.000000;1.097777
9333.000000;1.098270
9332.000000;1.098992
9331.000000;1.099381
9330.000000;1.099186
9329.000000;1.098491
9328.000000;1.097584
9327.000000;1.096785
9326.000000;1.096319
9325.000000;1.096246
9324.000000;1.096444
9323.000000;1.096682
9322.000000;1.096793
9321.000000;1.096774
9320.000000;1.096645
9319.000000;1.096261
9318.000000;1.095464
9317.000000;1.094415
9316.000000;1.093554
9315.000000;1.093155
9314.000000;1.093054
9313.000000;1.092899
9312.000000;1.092497
9311.000000;1.091873
9310.000000;1.091211
9309.000000;1.090856
9308.000000;1.091120
9307.000000;1.091876
9306.000000;1.092499
9305.000000;1.092429
9304.000000;1.091655
9303.000000;1.090531
9302.000000;1.089355
9301.000000;1.088368
9300.000000;1.087920
9299.000000;1.088241
9298.000000;1.089074
9297.000000;1.089809
9296.000000;1.090004
9295.000000;1.089650
9294.000000;1.089033
9293.000000;1.088496
9292.000000;1.088247
9291.000000;1.088159
9290.000000;1.087872
9289.000000;1.087283
9288.000000;1.086748
9287.000000;1.086555
9286.000000;1.086424
9285.000000;1.085882
9284.000000;1.084944
9283.000000;1.083991
9282.000000;1.083123
9281.000000;1.082192
9280.000000;1.081464
9279.000000;1.081593
9278.000000;1.082689
9277.000000;1.083881
9276.000000;1.084187
9275.000000;1.083540
9274.000000;1.082581
9273.000000;1.081722
9272.000000;1.080843
9271.000000;1.079799
9270.000000;1.078788
9269.000000;1.078110
9268.000000;1.077838
9267.000000;1.077843
9266.000000;1.078004
9265.000000;1.078239
9264.000000;1.078405
9263.000000;1.078310
9262.000000;1.077896
9261.000000;1.077368
9260.000000;1.077020
9259.000000;1.076879
9258.000000;1.076638
9257.000000;1.076073
9256.000000;1.075465
9255.000000;1.075384
9254.000000;1.075993
9253.000000;1.076754
9252.000000;1.076930
9251.000000;1.076314
9250.000000;1.075349
9249.000000;1.074649
9248.000000;1.074497
9247.000000;1.074743
9246.000000;1.075004
9245.000000;1.074879
9244.000000;1.074110
9243.000000;1.072725
9242.000000;1.071151
9241.000000;1.070069
9240.000000;1.069917
9239.000000;1.070437
9238.000000;1.070842
9237.000000;1.070567
9236.000000;1.069762
9235.000000;1.068954
9234.000000;1.068413
9233.000000;1.068063
9232.000000;1.067833
9231.000000;1.067780
9230.000000;1.067866
9229.000000;1.067899
9228.000000;1.067790
9227.000000;1.067626
9226.000000;1.067407
9225.000000;1.066945
9224.000000;1.066177
9223.000000;1.065369
9222.000000;1.064830
9221.000000;1.064561
9220.000000;1.064368
9219.000000;1.064218
9218.000000;1.064240
9217.000000;1.064413
9216.000000;1.064483
9215.000000;1.064259
9214.000000;1.063811
9213.000000;1.063286
9212.000000;1.062693
9211.000000;1.062043
9210.000000;1.061596
9209.000000;1.061722
9208.000000;1.062463
9207.000000;1.063347
9206.000000;1.063772
9205.000000;1.063520
9204.000000;1.062817
9203.000000;1.062000
9202.000000;1.061272
9201.000000;1.060744
9200.000000;1.060519
9199.000000;1.060648
9198.000000;1.061053
9197.000000;1.061516
9196.000000;1.061720
9195.000000;1.061360
9194.000000;1.060385
9193.000000;1.059144
9192.000000;1.058151
9191.000000;1.057677
9190.000000;1.057626
9189.000000;1.057742
9188.000000;1.057782
9187.000000;1.057516
9186.000000;1.056870
9185.000000;1.056153
9184.000000;1.055895
9183.000000;1.056284
9182.000000;1.056888
9181.000000;1.057108
9180.000000;1.056776
9179.000000;1.056183
9178.000000;1.055680
9177.000000;1.055424
9176.000000;1.055397
9175.000000;1.055449
9174.000000;1.055390
9173.000000;1.055170
9172.000000;1.054942
9171.000000;1.054850
9170.000000;1.054828
9169.000000;1.054683
9168.000000;1.054300
9167.000000;1.053686
9166.000000;1.052971
9165.000000;1.052414
9164.000000;1.052215
9163.000000;1.052207
9162.000000;1.051964
9161.000000;1.051371
9160.000000;1.050828
9159.000000;1.050682
9158.000000;1.050717
9157.000000;1.050511
9156.000000;1.050047
9155.000000;1.049601
9154.000000;1.049221
9153.000000;1.048731
9152.000000;1.048160
9151.000000;1.047727
9150.000000;1.047446
9149.000000;1.047167
9148.000000;1.047025
9147.000000;1.047371
9146.000000;1.048120
9145.000000;1.048587
9144.000000;1.048198
9143.000000;1.047125
9142.000000;1.045979
9141.000000;1.045127
9140.000000;1.044519
9139.000000;1.044001
9138.000000;1.043577
9137.000000;1.043381
9136.000000;1.043524
9135.000000;1.043906
9134.000000;1.044198
9133.000000;1.044156
9132.000000;1.043943
9131.000000;1.043946
9130.000000;1.044240
9129.000000;1.044451
9128.000000;1.044238
9127.000000;1.043685
9126.000000;1.043093
9125.000000;1.042607
9124.000000;1.042179
9123.000000;1.041757
9122.000000;1.041362
9121.000000;1.041092
9120.000000;1.041115
9119.000000;1.041518
9118.000000;1.042034
9117.000000;1.042123
9116.000000;1.041510
9115.000000;1.040534
9114.000000;1.039818
9113.000000;1.039651
9112.000000;1.039799
9111.000000;1.039798
9110.000000;1.039347
9109.000000;1.038526
9108.000000;1.037722
9107.000000;1.037295
9106.000000;1.037231
9105.000000;1.037190
9104.000000;1.036923
9103.000000;1.036527
9102.000000;1.036228
9101.000000;1.036096
9100.000000;1.036057
9099.000000;1.036020
9098.000000;1.035885
9097.000000;1.035568
9096.000000;1.035175
9095.000000;1.034964
9094.000000;1.034977
9093.000000;1.034873
9092.000000;1.034349
9091.000000;1.033603
9090.000000;1.033121
9089.000000;1.033085
9088.000000;1.033242
9087.000000;1.033346
9086.000000;1.033433
9085.000000;1.033613
9084.000000;1.033792
9083.000000;1.033746
9082.000000;1.033346
9081.000000;1.032650
9080.000000;1.031864
9079.000000;1.031258
9078.000000;1.031019
9077.000000;1.031080
9076.000000;1.031188
9075.000000;1.031178
9074.000000;1.031108
9073.000000;1.031054
9072.000000;1.030935
9071.000000;1.030659
9070.000000;1.030350
9069.000000;1.030250
9068.000000;1.030403
9067.000000;1.030574
9066.000000;1.030536
9065.000000;1.030310
9064.000000;1.030056
9063.000000;1.029804
9062.000000;1.029393
9061.000000;1.028683
9060.000000;1.027778
9059.000000;1.027025
9058.000000;1.026771
9057.000000;1.027062
9056.000000;1.027549
9055.000000;1.027776
9054.000000;1.027581
9053.000000;1.027148
