Criado como novo conjunto de dados;"e2410_daniel_v2.spp","9002.2 Secs"
cm-1;Abs
10000.000000;0.228649
9999.000000;0.228000
9998.000000;0.227352
9997.000000;0.226705
9996.000000;0.226059
9995.000000;0.225414
9994.000000;0.224769
9993.000000;0.224126
9992.000000;0.223483
9991.000000;0.222843
9990.000000;0.222200
9989.000000;0.221594
9988.000000;0.221151
9987.000000;0.220853
9986.000000;0.220537
9985.000000;0.220106
9984.000000;0.219560
9983.000000;0.218914
9982.000000;0.218176
9981.000000;0.217422
9980.000000;0.216768
9979.000000;0.216258
9978.000000;0.215831
9977.000000;0.215426
9976.000000;0.215060
9975.000000;0.214779
9974.000000;0.214568
9973.000000;0.214362
9972.000000;0.214089
9971.000000;0.213710
9970.000000;0.213237
9969.000000;0.212742
9968.000000;0.212287
9967.000000;0.211833
9966.000000;0.211262
9965.000000;0.210525
9964.000000;0.209718
9963.000000;0.208986
9962.000000;0.208390
9961.000000;0.207911
9960.000000;0.207513
9959.000000;0.207137
9958.000000;0.206695
9957.000000;0.206153
9956.000000;0.205601
9955.000000;0.205151
9954.000000;0.204789
9953.000000;0.204403
9952.000000;0.203948
9951.000000;0.203488
9950.000000;0.203071
9949.000000;0.202664
9948.000000;0.202229
9947.000000;0.201780
9946.000000;0.201304
9945.000000;0.200727
9944.000000;0.200030
9943.000000;0.199325
9942.000000;0.198756
9941.000000;0.198343
9940.000000;0.197993
9939.000000;0.197617
9938.000000;0.197169
9937.000000;0.196620
9936.000000;0.195975
9935.000000;0.195322
9934.000000;0.194778
9933.000000;0.194379
9932.000000;0.194065
9931.000000;0.193753
9930.000000;0.193373
9929.000000;0.192884
9928.000000;0.192303
9927.000000;0.191731
9926.000000;0.191265
9925.000000;0.190884
9924.000000;0.190494
9923.000000;0.190057
9922.000000;0.189605
9921.000000;0.189163
9920.000000;0.188717
9919.000000;0.188291
9918.000000;0.187927
9917.000000;0.187598
9916.000000;0.187197
9915.000000;0.186678
9914.000000;0.186114
9913.000000;0.185583
9912.000000;0.185067
9911.000000;0.184512
9910.000000;0.183932
9909.000000;0.183384
9908.000000;0.182887
9907.000000;0.182428
9906.000000;0.182009
9905.000000;0.181633
9904.000000;0.181267
9903.000000;0.180855
9902.000000;0.180355
9901.000000;0.179757
9900.000000;0.179091
9899.000000;0.178437
9898.000000;0.177873
9897.000000;0.177395
9896.000000;0.176923
9895.000000;0.176423
9894.000000;0.175950
9893.000000;0.175526
9892.000000;0.175070
9891.000000;0.174538
9890.000000;0.174051
9889.000000;0.173771
9888.000000;0.173666
9887.000000;0.173511
9886.000000;0.173140
9885.000000;0.172601
9884.000000;0.172049
9883.000000;0.171568
9882.000000;0.171141
9881.000000;0.170729
9880.000000;0.170301
9879.000000;0.169839
9878.000000;0.169335
9877.000000;0.168807
9876.000000;0.168284
9875.000000;0.167774
9874.000000;0.167253
9873.000000;0.166690
9872.000000;0.166091
9871.000000;0.165538
9870.000000;0.165115
9869.000000;0.164803
9868.000000;0.164470
9867.000000;0.164017
9866.000000;0.163489
9865.000000;0.162980
9864.000000;0.162493
9863.000000;0.161959
9862.000000;0.161385
9861.000000;0.160869
9860.000000;0.160465
9859.000000;0.160103
9858.000000;0.159686
9857.000000;0.159192
9856.000000;0.158684
9855.000000;0.158238
9854.000000;0.157896
9853.000000;0.157630
9852.000000;0.157308
9851.000000;0.156780
9850.000000;0.156036
9849.000000;0.155242
9848.000000;0.154595
9847.000000;0.154157
9846.000000;0.153851
9845.000000;0.153574
9844.000000;0.153251
9843.000000;0.152838
9842.000000;0.152327
9841.000000;0.151763
9840.000000;0.151208
9839.000000;0.150693
9838.000000;0.150209
9837.000000;0.149742
9836.000000;0.149289
9835.000000;0.148842
9834.000000;0.148387
9833.000000;0.147912
9832.000000;0.147434
9831.000000;0.146995
9830.000000;0.146630
9829.000000;0.146316
9828.000000;0.145961
9827.000000;0.145468
9826.000000;0.144827
9825.000000;0.144125
9824.000000;0.143485
9823.000000;0.142981
9822.000000;0.142607
9821.000000;0.142288
9820.000000;0.141943
9819.000000;0.141563
9818.000000;0.141221
9817.000000;0.140993
9816.000000;0.140853
9815.000000;0.140683
9814.000000;0.140365
9813.000000;0.139855
9812.000000;0.139188
9811.000000;0.138468
9810.000000;0.137835
9809.000000;0.137366
9808.000000;0.136994
9807.000000;0.136565
9806.000000;0.136007
9805.000000;0.135387
9804.000000;0.134804
9803.000000;0.134289
9802.000000;0.133814
9801.000000;0.133355
9800.000000;0.132907
9799.000000;0.132485
9798.000000;0.132128
9797.000000;0.131853
9796.000000;0.131572
9795.000000;0.131147
9794.000000;0.130556
9793.000000;0.129939
9792.000000;0.129440
9791.000000;0.129050
9790.000000;0.128681
9789.000000;0.128305
9788.000000;0.127931
9787.000000;0.127509
9786.000000;0.126968
9785.000000;0.126354
9784.000000;0.125816
9783.000000;0.125441
9782.000000;0.125152
9781.000000;0.124806
9780.000000;0.124335
9779.000000;0.123795
9778.000000;0.123305
9777.000000;0.122953
9776.000000;0.122712
9775.000000;0.122446
9774.000000;0.122025
9773.000000;0.121451
9772.000000;0.120833
9771.000000;0.120261
9770.000000;0.119752
9769.000000;0.119299
9768.000000;0.118894
9767.000000;0.118494
9766.000000;0.118050
9765.000000;0.117581
9764.000000;0.117159
9763.000000;0.116798
9762.000000;0.116409
9761.000000;0.115926
9760.000000;0.115406
9759.000000;0.114959
9758.000000;0.114616
9757.000000;0.114312
9756.000000;0.113963
9755.000000;0.113509
9754.000000;0.112931
9753.000000;0.112278
9752.000000;0.111662
9751.000000;0.111168
9750.000000;0.110788
9749.000000;0.110455
9748.000000;0.110132
9747.000000;0.109803
9746.000000;0.109417
9745.000000;0.108932
9744.000000;0.108394
9743.000000;0.107907
9742.000000;0.107498
9741.000000;0.107091
9740.000000;0.106643
9739.000000;0.106228
9738.000000;0.105924
9737.000000;0.105684
9736.000000;0.105373
9735.000000;0.104933
9734.000000;0.104424
9733.000000;0.103919
9732.000000;0.103425
9731.000000;0.102927
9730.000000;0.102438
9729.000000;0.101970
9728.000000;0.101498
9727.000000;0.101009
9726.000000;0.100555
9725.000000;0.100196
9724.000000;0.099890
9723.000000;0.099501
9722.000000;0.098952
9721.000000;0.098324
9720.000000;0.097765
9719.000000;0.097327
9718.000000;0.096942
9717.000000;0.096537
9716.000000;0.096110
9715.000000;0.095686
9714.000000;0.095255
9713.000000;0.094793
9712.000000;0.094330
9711.000000;0.093938
9710.000000;0.093651
9709.000000;0.093421
9708.000000;0.093153
9707.000000;0.092781
9706.000000;0.092311
9705.000000;0.091810
9704.000000;0.091324
9703.000000;0.090824
9702.000000;0.090230
9701.000000;0.089535
9700.000000;0.088873
9699.000000;0.088413
9698.000000;0.088193
9697.000000;0.088085
9696.000000;0.087925
9695.000000;0.087628
9694.000000;0.087177
9693.000000;0.086577
9692.000000;0.085882
9691.000000;0.085220
9690.000000;0.084720
9689.000000;0.084392
9688.000000;0.084134
9687.000000;0.083846
9686.000000;0.083505
9685.000000;0.083126
9684.000000;0.082729
9683.000000;0.082336
9682.000000;0.081975
9681.000000;0.081640
9680.000000;0.081288
9679.000000;0.080888
9678.000000;0.080444
9677.000000;0.079961
9676.000000;0.079435
9675.000000;0.078893
9674.000000;0.078392
9673.000000;0.077958
9672.000000;0.077568
9671.000000;0.077217
9670.000000;0.076937
9669.000000;0.076696
9668.000000;0.076352
9667.000000;0.075803
9666.000000;0.075159
9665.000000;0.074648
9664.000000;0.074345
9663.000000;0.074107
9662.000000;0.073787
9661.000000;0.073399
9660.000000;0.073017
9659.000000;0.072606
9658.000000;0.072074
9657.000000;0.071441
9656.000000;0.070860
9655.000000;0.070447
9654.000000;0.070170
9653.000000;0.069903
9652.000000;0.069545
9651.000000;0.069074
9650.000000;0.068544
9649.000000;0.068058
9648.000000;0.067686
9647.000000;0.067412
9646.000000;0.067155
9645.000000;0.066851
9644.000000;0.066487
9643.000000;0.066075
9642.000000;0.065638
9641.000000;0.065209
9640.000000;0.064816
9639.000000;0.064437
9638.000000;0.064019
9637.000000;0.063544
9636.000000;0.063048
9635.000000;0.062571
9634.000000;0.062124
9633.000000;0.061716
9632.000000;0.061373
9631.000000;0.061090
9630.000000;0.060806
9629.000000;0.060457
9628.000000;0.060039
9627.000000;0.059591
9626.000000;0.059131
9625.000000;0.058650
9624.000000;0.058155
9623.000000;0.057680
9622.000000;0.057247
9621.000000;0.056867
9620.000000;0.056550
9619.000000;0.056292
9618.000000;0.056038
9617.000000;0.055711
9616.000000;0.055289
9615.000000;0.054831
9614.000000;0.054406
9613.000000;0.054025
9612.000000;0.053651
9611.000000;0.053249
9610.000000;0.052808
9609.000000;0.052339
9608.000000;0.051872
9607.000000;0.051453
9606.000000;0.051104
9605.000000;0.050793
9604.000000;0.050465
9603.000000;0.050086
9602.000000;0.049655
9601.000000;0.049193
9600.000000;0.048740
9599.000000;0.048357
9598.000000;0.048063
9597.000000;0.047780
9596.000000;0.047405
9595.000000;0.046940
9594.000000;0.046512
9593.000000;0.046204
9592.000000;0.045920
9591.000000;0.045492
9590.000000;0.044904
9589.000000;0.044329
9588.000000;0.043929
9587.000000;0.043666
9586.000000;0.043366
9585.000000;0.042929
9584.000000;0.042411
9583.000000;0.041921
9582.000000;0.041497
9581.000000;0.041095
9580.000000;0.040684
9579.000000;0.040284
9578.000000;0.039945
9577.000000;0.039674
9576.000000;0.039421
9575.000000;0.039116
9574.000000;0.038740
9573.000000;0.038332
9572.000000;0.037946
9571.000000;0.037607
9570.000000;0.037307
9569.000000;0.037012
9568.000000;0.036670
9567.000000;0.036256
9566.000000;0.035807
9565.000000;0.035387
9564.000000;0.034976
9563.000000;0.034482
9562.000000;0.033883
9561.000000;0.033331
9560.000000;0.033009
9559.000000;0.032904
9558.000000;0.032800
9557.000000;0.032502
9556.000000;0.032008
9555.000000;0.031443
9554.000000;0.030907
9553.000000;0.030441
9552.000000;0.030066
9551.000000;0.029785
9550.000000;0.029563
9549.000000;0.029346
9548.000000;0.029093
9547.000000;0.028767
9546.000000;0.028337
9545.000000;0.027815
9544.000000;0.027272
9543.000000;0.026769
9542.000000;0.026292
9541.000000;0.025801
9540.000000;0.025324
9539.000000;0.024949
9538.000000;0.024714
9537.000000;0.024565
9536.000000;0.024418
9535.000000;0.024223
9534.000000;0.023961
9533.000000;0.023616
9532.000000;0.023203
9531.000000;0.022791
9530.000000;0.022448
9529.000000;0.022177
9528.000000;0.021903
9527.000000;0.021538
9526.000000;0.021070
9525.000000;0.020576
9524.000000;0.020159
9523.000000;0.019844
9522.000000;0.019557
9521.000000;0.019196
9520.000000;0.018725
9519.000000;0.018177
9518.000000;0.017605
9517.000000;0.017052
9516.000000;0.016586
9515.000000;0.016271
9514.000000;0.016099
9513.000000;0.015954
9512.000000;0.015700
9511.000000;0.015301
9510.000000;0.014833
9509.000000;0.014392
9508.000000;0.014003
9507.000000;0.013636
9506.000000;0.013281
9505.000000;0.012971
9504.000000;0.012717
9503.000000;0.012458
9502.000000;0.012123
9501.000000;0.011726
9500.000000;0.011341
9499.000000;0.010994
9498.000000;0.010634
9497.000000;0.010230
9496.000000;0.009839
9495.000000;0.009527
9494.000000;0.009262
9493.000000;0.008954
9492.000000;0.008582
9491.000000;0.008206
9490.000000;0.007860
9489.000000;0.007497
9488.000000;0.007050
9487.000000;0.006504
9486.000000;0.005921
9485.000000;0.005415
9484.000000;0.005096
9483.000000;0.004982
9482.000000;0.004934
9481.000000;0.004752
9480.000000;0.004367
9479.000000;0.003906
9478.000000;0.003556
9477.000000;0.003379
9476.000000;0.003272
9475.000000;0.003090
9474.000000;0.002750
9473.000000;0.002279
9472.000000;0.001790
9471.000000;0.001399
9470.000000;0.001121
9469.000000;0.000859
9468.000000;0.000512
9467.000000;0.000090
9466.000000;-0.000314
9465.000000;-0.000643
9464.000000;-0.000936
9463.000000;-0.001262
9462.000000;-0.001641
9461.000000;-0.002045
9460.000000;-0.002453
9459.000000;-0.002869
9458.000000;-0.003279
9457.000000;-0.003643
9456.000000;-0.003920
9455.000000;-0.004126
9454.000000;-0.004333
9453.000000;-0.004617
9452.000000;-0.005006
9451.000000;-0.005484
9450.000000;-0.006004
9449.000000;-0.006505
9448.000000;-0.006929
9447.000000;-0.007257
9446.000000;-0.007525
9445.000000;-0.007781
9444.000000;-0.008038
9443.000000;-0.008290
9442.000000;-0.008543
9441.000000;-0.008820
9440.000000;-0.009115
9439.000000;-0.009402
9438.000000;-0.009673
9437.000000;-0.009959
9436.000000;-0.010289
9435.000000;-0.010653
9434.000000;-0.011015
9433.000000;-0.011345
9432.000000;-0.011644
9431.000000;-0.011940
9430.000000;-0.012259
9429.000000;-0.012580
9428.000000;-0.012842
9427.000000;-0.013037
9426.000000;-0.013271
9425.000000;-0.013664
9424.000000;-0.014200
9423.000000;-0.014732
9422.000000;-0.015144
9421.000000;-0.015461
9420.000000;-0.015764
9419.000000;-0.016073
9418.000000;-0.016335
9417.000000;-0.016516
9416.000000;-0.016656
9415.000000;-0.016833
9414.000000;-0.017115
9413.000000;-0.017509
9412.000000;-0.017951
9411.000000;-0.018357
9410.000000;-0.018708
9409.000000;-0.019057
9408.000000;-0.019445
9407.000000;-0.019845
9406.000000;-0.020211
9405.000000;-0.020536
9404.000000;-0.020855
9403.000000;-0.021196
9402.000000;-0.021573
9401.000000;-0.021979
9400.000000;-0.022369
9399.000000;-0.022670
9398.000000;-0.022868
9397.000000;-0.023038
9396.000000;-0.023258
9395.000000;-0.023518
9394.000000;-0.023749
9393.000000;-0.023934
9392.000000;-0.024143
9391.000000;-0.024444
9390.000000;-0.024837
9389.000000;-0.025268
9388.000000;-0.025688
9387.000000;-0.026087
9386.000000;-0.026486
9385.000000;-0.026895
9384.000000;-0.027285
9383.000000;-0.027620
9382.000000;-0.027916
9381.000000;-0.028214
9380.000000;-0.028513
9379.000000;-0.028768
9378.000000;-0.028983
9377.000000;-0.029242
9376.000000;-0.029599
9375.000000;-0.029993
9374.000000;-0.030320
9373.000000;-0.030558
9372.000000;-0.030767
9371.000000;-0.030986
9370.000000;-0.031201
9369.000000;-0.031397
9368.000000;-0.031572
9367.000000;-0.031733
9366.000000;-0.031907
9365.000000;-0.032156
9364.000000;-0.032530
9363.000000;-0.033001
9362.000000;-0.033496
9361.000000;-0.033965
9360.000000;-0.034379
9359.000000;-0.034691
9358.000000;-0.034892
9357.000000;-0.035068
9356.000000;-0.035338
9355.000000;-0.035695
9354.000000;-0.036018
9353.000000;-0.036233
9352.000000;-0.036402
9351.000000;-0.036633
9350.000000;-0.036963
9349.000000;-0.037362
9348.000000;-0.037780
9347.000000;-0.038146
9346.000000;-0.038399
9345.000000;-0.038568
9344.000000;-0.038776
9343.000000;-0.039113
9342.000000;-0.039536
9341.000000;-0.039948
9340.000000;-0.040301
9339.000000;-0.040597
9338.000000;-0.040831
9337.000000;-0.041001
9336.000000;-0.041156
9335.000000;-0.041371
9334.000000;-0.041670
9333.000000;-0.042014
9332.000000;-0.042367
9331.000000;-0.042723
9330.000000;-0.043070
9329.000000;-0.043378
9328.000000;-0.043624
9327.000000;-0.043824
9326.000000;-0.044036
9325.000000;-0.044320
9324.000000;-0.044686
9323.000000;-0.045055
9322.000000;-0.045322
9321.000000;-0.045466
9320.000000;-0.045587
9319.000000;-0.045798
9318.000000;-0.046104
9317.000000;-0.046435
9316.000000;-0.046736
9315.000000;-0.047000
9314.000000;-0.047227
9313.000000;-0.047421
9312.000000;-0.047629
9311.000000;-0.047904
9310.000000;-0.048232
9309.000000;-0.048537
9308.000000;-0.048772
9307.000000;-0.048969
9306.000000;-0.049183
9305.000000;-0.049444
9304.000000;-0.049773
9303.000000;-0.050189
9302.000000;-0.050654
9301.000000;-0.051052
9300.000000;-0.051282
9299.000000;-0.051361
9298.000000;-0.051407
9297.000000;-0.051540
9296.000000;-0.051814
9295.000000;-0.052215
9294.000000;-0.052678
9293.000000;-0.053100
9292.000000;-0.053398
9291.000000;-0.053583
9290.000000;-0.053744
9289.000000;-0.053954
9288.000000;-0.054220
9287.000000;-0.054506
9286.000000;-0.054784
9285.000000;-0.055039
9284.000000;-0.055275
9283.000000;-0.055533
9282.000000;-0.055863
9281.000000;-0.056254
9280.000000;-0.056615
9279.000000;-0.056863
9278.000000;-0.057017
9277.000000;-0.057170
9276.000000;-0.057390
9275.000000;-0.057677
9274.000000;-0.058008
9273.000000;-0.058365
9272.000000;-0.058719
9271.000000;-0.059044
9270.000000;-0.059342
9269.000000;-0.059645
9268.000000;-0.059962
9267.000000;-0.060265
9266.000000;-0.060537
9265.000000;-0.060797
9264.000000;-0.061061
9263.000000;-0.061309
9262.000000;-0.061522
9261.000000;-0.061719
9260.000000;-0.061947
9259.000000;-0.062236
9258.000000;-0.062570
9257.000000;-0.062891
9256.000000;-0.063122
9255.000000;-0.063235
9254.000000;-0.063311
9253.000000;-0.063498
9252.000000;-0.063863
9251.000000;-0.064317
9250.000000;-0.064705
9249.000000;-0.064951
9248.000000;-0.065072
9247.000000;-0.065120
9246.000000;-0.065150
9245.000000;-0.065246
9244.000000;-0.065478
9243.000000;-0.065823
9242.000000;-0.066179
9241.000000;-0.066464
9240.000000;-0.066688
9239.000000;-0.066912
9238.000000;-0.067179
9237.000000;-0.067494
9236.000000;-0.067833
9235.000000;-0.068133
9234.000000;-0.068335
9233.000000;-0.068445
9232.000000;-0.068552
9231.000000;-0.068755
9230.000000;-0.069075
9229.000000;-0.069455
9228.000000;-0.069819
9227.000000;-0.070125
9226.000000;-0.070374
9225.000000;-0.070597
9224.000000;-0.070825
9223.000000;-0.071073
9222.000000;-0.071344
9221.000000;-0.071628
9220.000000;-0.071897
9219.000000;-0.072105
9218.000000;-0.072231
9217.000000;-0.072322
9216.000000;-0.072466
9215.000000;-0.072700
9214.000000;-0.072985
9213.000000;-0.073252
9212.000000;-0.073487
9211.000000;-0.073731
9210.000000;-0.074017
9209.000000;-0.074324
9208.000000;-0.074584
9207.000000;-0.074753
9206.000000;-0.074869
9205.000000;-0.075024
9204.000000;-0.075278
9203.000000;-0.075610
9202.000000;-0.075952
9201.000000;-0.076256
9200.000000;-0.076508
9199.000000;-0.076707
9198.000000;-0.076868
9197.000000;-0.077040
9196.000000;-0.077273
9195.000000;-0.077568
9194.000000;-0.077865
9193.000000;-0.078093
9192.000000;-0.078214
9191.000000;-0.078250
9190.000000;-0.078286
9189.000000;-0.078416
9188.000000;-0.078664
9187.000000;-0.078970
9186.000000;-0.079280
9185.000000;-0.079614
9184.000000;-0.079984
9183.000000;-0.080304
9182.000000;-0.080458
9181.000000;-0.080466
9180.000000;-0.080502
9179.000000;-0.080708
9178.000000;-0.081053
9177.000000;-0.081401
9176.000000;-0.081665
9175.000000;-0.081843
9174.000000;-0.081972
9173.000000;-0.082101
9172.000000;-0.082279
9171.000000;-0.082527
9170.000000;-0.082817
9169.000000;-0.083120
9168.000000;-0.083440
9167.000000;-0.083783
9166.000000;-0.084110
9165.000000;-0.084380
9164.000000;-0.084597
9163.000000;-0.084794
9162.000000;-0.084975
9161.000000;-0.085122
9160.000000;-0.085260
9159.000000;-0.085442
9158.000000;-0.085691
9157.000000;-0.085965
9156.000000;-0.086212
9155.000000;-0.086400
9154.000000;-0.086520
9153.000000;-0.086591
9152.000000;-0.086674
9151.000000;-0.086843
9150.000000;-0.087114
9149.000000;-0.087428
9148.000000;-0.087711
9147.000000;-0.087952
9146.000000;-0.088181
9145.000000;-0.088424
9144.000000;-0.088678
9143.000000;-0.088931
9142.000000;-0.089171
9141.000000;-0.089384
9140.000000;-0.089563
9139.000000;-0.089729
9138.000000;-0.089924
9137.000000;-0.090160
9136.000000;-0.090409
9135.000000;-0.090628
9134.000000;-0.090822
9133.000000;-0.091038
9132.000000;-0.091300
9131.000000;-0.091562
9130.000000;-0.091745
9129.000000;-0.091828
9128.000000;-0.091878
9127.000000;-0.091987
9126.000000;-0.092194
9125.000000;-0.092458
9124.000000;-0.092705
9123.000000;-0.092889
9122.000000;-0.093022
9121.000000;-0.093155
9120.000000;-0.093323
9119.000000;-0.093505
9118.000000;-0.093659
9117.000000;-0.093780
9116.000000;-0.093924
9115.000000;-0.094154
9114.000000;-0.094477
9113.000000;-0.094840
9112.000000;-0.095182
9111.000000;-0.095470
9110.000000;-0.095705
9109.000000;-0.095890
9108.000000;-0.096020
9107.000000;-0.096105
9106.000000;-0.096196
9105.000000;-0.096355
9104.000000;-0.096593
9103.000000;-0.096850
9102.000000;-0.097075
9101.000000;-0.097299
9100.000000;-0.097576
9099.000000;-0.097870
9098.000000;-0.098070
9097.000000;-0.098129
9096.000000;-0.098128
9095.000000;-0.098173
9094.000000;-0.098271
9093.000000;-0.098360
9092.000000;-0.098431
9091.000000;-0.098567
9090.000000;-0.098843
9089.000000;-0.099254
9088.000000;-0.099720
9087.000000;-0.100151
9086.000000;-0.100483
9085.000000;-0.100689
9084.000000;-0.100788
9083.000000;-0.100829
9082.000000;-0.100869
9081.000000;-0.100948
9080.000000;-0.101077
9079.000000;-0.101237
9078.000000;-0.101416
9077.000000;-0.101632
9076.000000;-0.101910
9075.000000;-0.102217
9074.000000;-0.102465
9073.000000;-0.102596
9072.000000;-0.102648
