Criado como novo conjunto de dados;"e2410_daniel_v2.spp","48964.6 Secs"
cm-1;Abs
10000.000000;0.947874
9999.000000;0.947345
9998.000000;0.946602
9997.000000;0.945970
9996.000000;0.945600
9995.000000;0.945498
9994.000000;0.945545
9993.000000;0.945491
9992.000000;0.945145
9991.000000;0.944550
9990.000000;0.943799
9989.000000;0.942810
9988.000000;0.941545
9987.000000;0.940305
9986.000000;0.939500
9985.000000;0.939165
9984.000000;0.938995
9983.000000;0.938796
9982.000000;0.938600
9981.000000;0.938387
9980.000000;0.938036
9979.000000;0.937590
9978.000000;0.937236
9977.000000;0.936956
9976.000000;0.936475
9975.000000;0.935660
9974.000000;0.934734
9973.000000;0.934003
9972.000000;0.933573
9971.000000;0.933393
9970.000000;0.933372
9969.000000;0.933369
9968.000000;0.933216
9967.000000;0.932840
9966.000000;0.932279
9965.000000;0.931558
9964.000000;0.930677
9963.000000;0.929723
9962.000000;0.928838
9961.000000;0.928048
9960.000000;0.927261
9959.000000;0.926496
9958.000000;0.925967
9957.000000;0.925870
9956.000000;0.926140
9955.000000;0.926451
9954.000000;0.926422
9953.000000;0.925855
9952.000000;0.924901
9951.000000;0.923948
9950.000000;0.923276
9949.000000;0.922792
9948.000000;0.922165
9947.000000;0.921231
9946.000000;0.920207
9945.000000;0.919525
9944.000000;0.919448
9943.000000;0.919799
9942.000000;0.920059
9941.000000;0.919830
9940.000000;0.919208
9939.000000;0.918592
9938.000000;0.918153
9937.000000;0.917674
9936.000000;0.916943
9935.000000;0.916076
9934.000000;0.915344
9933.000000;0.914832
9932.000000;0.914417
9931.000000;0.913937
9930.000000;0.913295
9929.000000;0.912522
9928.000000;0.911811
9927.000000;0.911323
9926.000000;0.910903
9925.000000;0.910246
9924.000000;0.909420
9923.000000;0.908913
9922.000000;0.908956
9921.000000;0.909097
9920.000000;0.908772
9919.000000;0.908061
9918.000000;0.907511
9917.000000;0.907332
9916.000000;0.907126
9915.000000;0.906421
9914.000000;0.905199
9913.000000;0.903895
9912.000000;0.903083
9911.000000;0.903115
9910.000000;0.903839
9909.000000;0.904615
9908.000000;0.904788
9907.000000;0.904169
9906.000000;0.903020
9905.000000;0.901679
9904.000000;0.900391
9903.000000;0.899363
9902.000000;0.898756
9901.000000;0.898586
9900.000000;0.898738
9899.000000;0.898990
9898.000000;0.898988
9897.000000;0.898366
9896.000000;0.897120
9895.000000;0.895755
9894.000000;0.894858
9893.000000;0.894549
9892.000000;0.894462
9891.000000;0.894175
9890.000000;0.893526
9889.000000;0.892639
9888.000000;0.891846
9887.000000;0.891486
9886.000000;0.891561
9885.000000;0.891639
9884.000000;0.891283
9883.000000;0.890498
9882.000000;0.889594
9881.000000;0.888758
9880.000000;0.887995
9879.000000;0.887377
9878.000000;0.887031
9877.000000;0.886875
9876.000000;0.886639
9875.000000;0.886203
9874.000000;0.885724
9873.000000;0.885370
9872.000000;0.885089
9871.000000;0.884714
9870.000000;0.884171
9869.000000;0.883524
9868.000000;0.882921
9867.000000;0.882530
9866.000000;0.882438
9865.000000;0.882533
9864.000000;0.882516
9863.000000;0.882082
9862.000000;0.881120
9861.000000;0.879814
9860.000000;0.878543
9859.000000;0.877628
9858.000000;0.877113
9857.000000;0.876787
9856.000000;0.876428
9855.000000;0.875968
9854.000000;0.875501
9853.000000;0.875221
9852.000000;0.875309
9851.000000;0.875682
9850.000000;0.875864
9849.000000;0.875350
9848.000000;0.874187
9847.000000;0.872961
9846.000000;0.872156
9845.000000;0.871709
9844.000000;0.871252
9843.000000;0.870547
9842.000000;0.869577
9841.000000;0.868497
9840.000000;0.867639
9839.000000;0.867338
9838.000000;0.867546
9837.000000;0.867792
9836.000000;0.867690
9835.000000;0.867309
9834.000000;0.866882
9833.000000;0.866420
9832.000000;0.865852
9831.000000;0.865287
9830.000000;0.864857
9829.000000;0.864442
9828.000000;0.863857
9827.000000;0.863194
9826.000000;0.862716
9825.000000;0.862498
9824.000000;0.862417
9823.000000;0.862396
9822.000000;0.862388
9821.000000;0.862200
9820.000000;0.861629
9819.000000;0.860770
9818.000000;0.859970
9817.000000;0.859481
9816.000000;0.859296
9815.000000;0.859241
9814.000000;0.859070
9813.000000;0.858542
9812.000000;0.857626
9811.000000;0.856578
9810.000000;0.855652
9809.000000;0.854821
9808.000000;0.853921
9807.000000;0.852982
9806.000000;0.852197
9805.000000;0.851666
9804.000000;0.851373
9803.000000;0.851330
9802.000000;0.851522
9801.000000;0.851751
9800.000000;0.851749
9799.000000;0.851447
9798.000000;0.850946
9797.000000;0.850268
9796.000000;0.849368
9795.000000;0.848372
9794.000000;0.847576
9793.000000;0.847123
9792.000000;0.846837
9791.000000;0.846415
9790.000000;0.845734
9789.000000;0.844960
9788.000000;0.844382
9787.000000;0.844121
9786.000000;0.843956
9785.000000;0.843537
9784.000000;0.842822
9783.000000;0.842142
9782.000000;0.841757
9781.000000;0.841530
9780.000000;0.841215
9779.000000;0.840862
9778.000000;0.840698
9777.000000;0.840713
9776.000000;0.840625
9775.000000;0.840217
9774.000000;0.839503
9773.000000;0.838617
9772.000000;0.837719
9771.000000;0.837001
9770.000000;0.836593
9769.000000;0.836427
9768.000000;0.836314
9767.000000;0.836132
9766.000000;0.835856
9765.000000;0.835475
9764.000000;0.835009
9763.000000;0.834535
9762.000000;0.834077
9761.000000;0.833569
9760.000000;0.833013
9759.000000;0.832560
9758.000000;0.832238
9757.000000;0.831775
9756.000000;0.830913
9755.000000;0.829825
9754.000000;0.828973
9753.000000;0.828576
9752.000000;0.828427
9751.000000;0.828207
9750.000000;0.827793
9749.000000;0.827250
9748.000000;0.826694
9747.000000;0.826233
9746.000000;0.825915
9745.000000;0.825678
9744.000000;0.825401
9743.000000;0.825001
9742.000000;0.824467
9741.000000;0.823913
9740.000000;0.823591
9739.000000;0.823661
9738.000000;0.823856
9737.000000;0.823590
9736.000000;0.822582
9735.000000;0.821224
9734.000000;0.820133
9733.000000;0.819500
9732.000000;0.819101
9731.000000;0.818781
9730.000000;0.818590
9729.000000;0.818510
9728.000000;0.818361
9727.000000;0.818033
9726.000000;0.817585
9725.000000;0.817090
9724.000000;0.816556
9723.000000;0.816023
9722.000000;0.815574
9721.000000;0.815227
9720.000000;0.814931
9719.000000;0.814644
9718.000000;0.814318
9717.000000;0.813878
9716.000000;0.813353
9715.000000;0.812925
9714.000000;0.812677
9713.000000;0.812392
9712.000000;0.811848
9711.000000;0.811180
9710.000000;0.810671
9709.000000;0.810214
9708.000000;0.809347
9707.000000;0.807919
9706.000000;0.806430
9705.000000;0.805526
9704.000000;0.805340
9703.000000;0.805444
9702.000000;0.805327
9701.000000;0.804832
9700.000000;0.804206
9699.000000;0.803827
9698.000000;0.803842
9697.000000;0.804015
9696.000000;0.803979
9695.000000;0.803633
9694.000000;0.803207
9693.000000;0.802909
9692.000000;0.802655
9691.000000;0.802212
9690.000000;0.801498
9689.000000;0.800680
9688.000000;0.799996
9687.000000;0.799548
9686.000000;0.799254
9685.000000;0.798960
9684.000000;0.798605
9683.000000;0.798244
9682.000000;0.797929
9681.000000;0.797606
9680.000000;0.797162
9679.000000;0.796545
9678.000000;0.795794
9677.000000;0.795008
9676.000000;0.794331
9675.000000;0.793896
9674.000000;0.793715
9673.000000;0.793622
9672.000000;0.793400
9671.000000;0.792939
9670.000000;0.792292
9669.000000;0.791654
9668.000000;0.791280
9667.000000;0.791295
9666.000000;0.791482
9665.000000;0.791367
9664.000000;0.790630
9663.000000;0.789414
9662.000000;0.788151
9661.000000;0.787175
9660.000000;0.786555
9659.000000;0.786189
9658.000000;0.785936
9657.000000;0.785699
9656.000000;0.785490
9655.000000;0.785384
9654.000000;0.785351
9653.000000;0.785203
9652.000000;0.784783
9651.000000;0.784142
9650.000000;0.783447
9649.000000;0.782805
9648.000000;0.782260
9647.000000;0.781879
9646.000000;0.781681
9645.000000;0.781546
9644.000000;0.781304
9643.000000;0.780910
9642.000000;0.780461
9641.000000;0.780058
9640.000000;0.779709
9639.000000;0.779332
9638.000000;0.778811
9637.000000;0.778088
9636.000000;0.777260
9635.000000;0.776510
9634.000000;0.775916
9633.000000;0.775399
9632.000000;0.774895
9631.000000;0.774468
9630.000000;0.774172
9629.000000;0.773935
9628.000000;0.773648
9627.000000;0.773302
9626.000000;0.772929
9625.000000;0.772530
9624.000000;0.772149
9623.000000;0.771914
9622.000000;0.771867
9621.000000;0.771844
9620.000000;0.771628
9619.000000;0.771159
9618.000000;0.770522
9617.000000;0.769818
9616.000000;0.769163
9615.000000;0.768698
9614.000000;0.768445
9613.000000;0.768230
9612.000000;0.767879
9611.000000;0.767451
9610.000000;0.767132
9609.000000;0.766939
9608.000000;0.766661
9607.000000;0.766093
9606.000000;0.765213
9605.000000;0.764133
9604.000000;0.762993
9603.000000;0.761950
9602.000000;0.761208
9601.000000;0.760967
9600.000000;0.761247
9599.000000;0.761722
9598.000000;0.761846
9597.000000;0.761312
9596.000000;0.760361
9595.000000;0.759481
9594.000000;0.758835
9593.000000;0.758215
9592.000000;0.757536
9591.000000;0.757078
9590.000000;0.757087
9589.000000;0.757386
9588.000000;0.757576
9587.000000;0.757459
9586.000000;0.757074
9585.000000;0.756509
9584.000000;0.755890
9583.000000;0.755435
9582.000000;0.755244
9581.000000;0.755094
9580.000000;0.754636
9579.000000;0.753780
9578.000000;0.752751
9577.000000;0.751839
9576.000000;0.751226
9575.000000;0.750979
9574.000000;0.750993
9573.000000;0.751015
9572.000000;0.750861
9571.000000;0.750594
9570.000000;0.750331
9569.000000;0.749984
9568.000000;0.749362
9567.000000;0.748492
9566.000000;0.747635
9565.000000;0.746986
9564.000000;0.746551
9563.000000;0.746288
9562.000000;0.746192
9561.000000;0.746205
9560.000000;0.746204
9559.000000;0.746110
9558.000000;0.745924
9557.000000;0.745623
9556.000000;0.745158
9555.000000;0.744596
9554.000000;0.744161
9553.000000;0.744039
9552.000000;0.744149
9551.000000;0.744143
9550.000000;0.743669
9549.000000;0.742708
9548.000000;0.741639
9547.000000;0.740908
9546.000000;0.740613
9545.000000;0.740487
9544.000000;0.740275
9543.000000;0.739941
9542.000000;0.739513
9541.000000;0.738938
9540.000000;0.738278
9539.000000;0.737801
9538.000000;0.737641
9537.000000;0.737472
9536.000000;0.736826
9535.000000;0.735740
9534.000000;0.734812
9533.000000;0.734550
9532.000000;0.734823
9531.000000;0.735023
9530.000000;0.734664
9529.000000;0.733757
9528.000000;0.732720
9527.000000;0.731997
9526.000000;0.731719
9525.000000;0.731654
9524.000000;0.731474
9523.000000;0.731064
9522.000000;0.730564
9521.000000;0.730164
9520.000000;0.729923
9519.000000;0.729759
9518.000000;0.729564
9517.000000;0.729296
9516.000000;0.728981
9515.000000;0.728609
9514.000000;0.728102
9513.000000;0.727432
9512.000000;0.726777
9511.000000;0.726384
9510.000000;0.726258
9509.000000;0.726132
9508.000000;0.725799
9507.000000;0.725363
9506.000000;0.725026
9505.000000;0.724785
9504.000000;0.724467
9503.000000;0.724010
9502.000000;0.723530
9501.000000;0.723145
9500.000000;0.722861
9499.000000;0.722592
9498.000000;0.722224
9497.000000;0.721686
9496.000000;0.721058
9495.000000;0.720557
9494.000000;0.720326
9493.000000;0.720259
9492.000000;0.720145
9491.000000;0.719920
9490.000000;0.719659
9489.000000;0.719368
9488.000000;0.718936
9487.000000;0.718344
9486.000000;0.717782
9485.000000;0.717469
9484.000000;0.717383
9483.000000;0.717231
9482.000000;0.716744
9481.000000;0.715971
9480.000000;0.715244
9479.000000;0.714820
9478.000000;0.714632
9477.000000;0.714458
9476.000000;0.714232
9475.000000;0.714053
9474.000000;0.713924
9473.000000;0.713685
9472.000000;0.713262
9471.000000;0.712800
9470.000000;0.712448
9469.000000;0.712165
9468.000000;0.711832
9467.000000;0.711428
9466.000000;0.710982
9465.000000;0.710467
9464.000000;0.709879
9463.000000;0.709350
9462.000000;0.709038
9461.000000;0.708922
9460.000000;0.708792
9459.000000;0.708440
9458.000000;0.707857
9457.000000;0.707260
9456.000000;0.706932
9455.000000;0.706935
9454.000000;0.706987
9453.000000;0.706724
9452.000000;0.706138
9451.000000;0.705605
9450.000000;0.705432
9449.000000;0.705495
9448.000000;0.705396
9447.000000;0.704872
9446.000000;0.703988
9445.000000;0.703038
9444.000000;0.702349
9443.000000;0.702059
9442.000000;0.701996
9441.000000;0.701848
9440.000000;0.701483
9439.000000;0.701018
9438.000000;0.700551
9437.000000;0.700015
9436.000000;0.699372
9435.000000;0.698762
9434.000000;0.698348
9433.000000;0.698144
9432.000000;0.698095
9431.000000;0.698158
9430.000000;0.698198
9429.000000;0.697979
9428.000000;0.697448
9427.000000;0.696880
9426.000000;0.696554
9425.000000;0.696395
9424.000000;0.696113
9423.000000;0.695599
9422.000000;0.694985
9421.000000;0.694396
9420.000000;0.693870
9419.000000;0.693475
9418.000000;0.693282
9417.000000;0.693196
9416.000000;0.693000
9415.000000;0.692581
9414.000000;0.692030
9413.000000;0.691506
9412.000000;0.691117
9411.000000;0.690919
9410.000000;0.690876
9409.000000;0.690804
9408.000000;0.690469
9407.000000;0.689812
9406.000000;0.689017
9405.000000;0.688336
9404.000000;0.687879
9403.000000;0.687565
9402.000000;0.687241
9401.000000;0.686846
9400.000000;0.686490
9399.000000;0.686334
9398.000000;0.686397
9397.000000;0.686514
9396.000000;0.686493
9395.000000;0.686248
9394.000000;0.685803
9393.000000;0.685253
9392.000000;0.684759
9391.000000;0.684452
9390.000000;0.684291
9389.000000;0.684090
9388.000000;0.683739
9387.000000;0.683308
9386.000000;0.682920
9385.000000;0.682622
9384.000000;0.682430
9383.000000;0.682334
9382.000000;0.682198
9381.000000;0.681804
9380.000000;0.681099
9379.000000;0.680300
9378.000000;0.679654
9377.000000;0.679200
9376.000000;0.678843
9375.000000;0.678529
9374.000000;0.678239
9373.000000;0.677937
9372.000000;0.677634
9371.000000;0.677424
9370.000000;0.677342
9369.000000;0.677271
9368.000000;0.677099
9367.000000;0.676868
9366.000000;0.676667
9365.000000;0.676460
9364.000000;0.676155
9363.000000;0.675766
9362.000000;0.675378
9361.000000;0.675008
9360.000000;0.674610
9359.000000;0.674149
9358.000000;0.673589
9357.000000;0.672902
9356.000000;0.672202
9355.000000;0.671737
9354.000000;0.671622
9353.000000;0.671657
9352.000000;0.671555
9351.000000;0.671297
9350.000000;0.671099
9349.000000;0.671065
9348.000000;0.671044
9347.000000;0.670831
9346.000000;0.670397
9345.000000;0.669868
9344.000000;0.669366
9343.000000;0.668916
9342.000000;0.668488
9341.000000;0.668078
9340.000000;0.667728
9339.000000;0.667428
9338.000000;0.667079
9337.000000;0.666636
9336.000000;0.666251
9335.000000;0.666104
9334.000000;0.666089
9333.000000;0.665885
9332.000000;0.665390
9331.000000;0.664906
9330.000000;0.664756
9329.000000;0.664891
9328.000000;0.664998
9327.000000;0.664863
9326.000000;0.664469
9325.000000;0.663876
9324.000000;0.663188
9323.000000;0.662580
9322.000000;0.662183
9321.000000;0.661966
9320.000000;0.661817
9319.000000;0.661674
9318.000000;0.661471
9317.000000;0.661077
9316.000000;0.660464
9315.000000;0.659862
9314.000000;0.659570
9313.000000;0.659610
9312.000000;0.659703
9311.000000;0.659568
9310.000000;0.659146
9309.000000;0.658534
9308.000000;0.657868
9307.000000;0.657302
9306.000000;0.657009
9305.000000;0.657084
9304.000000;0.657431
9303.000000;0.657738
9302.000000;0.657634
9301.000000;0.656956
9300.000000;0.655925
9299.000000;0.654995
9298.000000;0.654482
9297.000000;0.654325
9296.000000;0.654202
9295.000000;0.653835
9294.000000;0.653210
9293.000000;0.652577
9292.000000;0.652215
9291.000000;0.652152
9290.000000;0.652152
9289.000000;0.652044
9288.000000;0.651968
9287.000000;0.652122
9286.000000;0.652359
9285.000000;0.652288
9284.000000;0.651765
9283.000000;0.651041
9282.000000;0.650378
9281.000000;0.649803
9280.000000;0.649302
9279.000000;0.648971
9278.000000;0.648826
9277.000000;0.648687
9276.000000;0.648408
9275.000000;0.648056
9274.000000;0.647741
9273.000000;0.647459
9272.000000;0.647225
9271.000000;0.647132
9270.000000;0.647095
9269.000000;0.646804
9268.000000;0.646146
9267.000000;0.645494
9266.000000;0.645293
9265.000000;0.645495
9264.000000;0.645657
9263.000000;0.645490
9262.000000;0.645058
9261.000000;0.644528
9260.000000;0.643993
9259.000000;0.643531
9258.000000;0.643239
9257.000000;0.643143
9256.000000;0.643193
9255.000000;0.643324
9254.000000;0.643433
9253.000000;0.643389
9252.000000;0.643178
9251.000000;0.642934
9250.000000;0.642709
9249.000000;0.642357
9248.000000;0.641800
9247.000000;0.641277
9246.000000;0.641078
9245.000000;0.641143
9244.000000;0.641138
9243.000000;0.640898
9242.000000;0.640542
9241.000000;0.640188
9240.000000;0.639778
9239.000000;0.639247
9238.000000;0.638683
9237.000000;0.638247
9236.000000;0.638021
9235.000000;0.637954
9234.000000;0.637899
9233.000000;0.637730
9232.000000;0.637430
9231.000000;0.637031
9230.000000;0.636447
9229.000000;0.635571
9228.000000;0.634608
9227.000000;0.634074
9226.000000;0.634238
9225.000000;0.634716
9224.000000;0.634885
9223.000000;0.634603
9222.000000;0.634251
9221.000000;0.634114
9220.000000;0.634051
9219.000000;0.633795
9218.000000;0.633308
9217.000000;0.632739
9216.000000;0.632221
9215.000000;0.631812
9214.000000;0.631513
9213.000000;0.631245
9212.000000;0.630936
9211.000000;0.630651
9210.000000;0.630549
9209.000000;0.630657
9208.000000;0.630796
9207.000000;0.630771
9206.000000;0.630562
9205.000000;0.630279
9204.000000;0.630025
9203.000000;0.629813
9202.000000;0.629574
9201.000000;0.629223
9200.000000;0.628766
9199.000000;0.628323
9198.000000;0.628016
9197.000000;0.627853
9196.000000;0.627764
9195.000000;0.627694
9194.000000;0.627603
9193.000000;0.627428
9192.000000;0.627129
9191.000000;0.626719
9190.000000;0.626207
9189.000000;0.625577
9188.000000;0.624902
9187.000000;0.624386
9186.000000;0.624161
9185.000000;0.624117
9184.000000;0.624031
9183.000000;0.623812
9182.000000;0.623518
9181.000000;0.623210
9180.000000;0.622927
9179.000000;0.622752
9178.000000;0.622747
9177.000000;0.622820
9176.000000;0.622791
9175.000000;0.622597
9174.000000;0.622343
9173.000000;0.622149
9172.000000;0.622035
9171.000000;0.621936
9170.000000;0.621755
9169.000000;0.621445
9168.000000;0.621063
9167.000000;0.620732
9166.000000;0.620480
9165.000000;0.620198
9164.000000;0.619808
9163.000000;0.619382
9162.000000;0.619021
9161.000000;0.618730
9160.000000;0.618503
9159.000000;0.618413
9158.000000;0.618455
9157.000000;0.618423
9156.000000;0.618132
9155.000000;0.617707
9154.000000;0.617449
9153.000000;0.617448
9152.000000;0.617506
9151.000000;0.617424
9150.000000;0.617204
9149.000000;0.616934
9148.000000;0.616653
9147.000000;0.616361
9146.000000;0.616065
9145.000000;0.615761
9144.000000;0.615462
9143.000000;0.615251
9142.000000;0.615220
9141.000000;0.615319
9140.000000;0.615344
9139.000000;0.615117
9138.000000;0.614637
9137.000000;0.614075
9136.000000;0.613632
9135.000000;0.613383
9134.000000;0.613209
9133.000000;0.612934
9132.000000;0.612548
9131.000000;0.612227
9130.000000;0.612098
9129.000000;0.612084
9128.000000;0.612028
9127.000000;0.611850
9126.000000;0.611529
9125.000000;0.611072
9124.000000;0.610609
9123.000000;0.610377
9122.000000;0.610439
9121.000000;0.610515
9120.000000;0.610272
9119.000000;0.609722
9118.000000;0.609170
9117.000000;0.608837
9116.000000;0.608709
9115.000000;0.608702
9114.000000;0.608780
9113.000000;0.608884
9112.000000;0.608910
9111.000000;0.608794
9110.000000;0.608543
9109.000000;0.608198
9108.000000;0.607865
9107.000000;0.607698
9106.000000;0.607705
9105.000000;0.607643
9104.000000;0.607274
9103.000000;0.606718
9102.000000;0.606356
9101.000000;0.606360
9100.000000;0.606488
9099.000000;0.606387
9098.000000;0.605956
9097.000000;0.605364
9096.000000;0.604836
9095.000000;0.604478
9094.000000;0.604252
9093.000000;0.604058
9092.000000;0.603859
9091.000000;0.603711
9090.000000;0.603631
9089.000000;0.603517
9088.000000;0.603295
9087.000000;0.603070
9086.000000;0.602984
9085.000000;0.602976
9084.000000;0.602837
9083.000000;0.602484
9082.000000;0.602023
9081.000000;0.601557
9080.000000;0.601126
9079.000000;0.600828
9078.000000;0.600801
9077.000000;0.601015
9076.000000;0.601227
9075.000000;0.601231
9074.000000;0.601030
9073.000000;0.600711
9072.000000;0.600288
9071.000000;0.599768
9070.000000;0.599261
9069.000000;0.598900
9068.000000;0.598705
9067.000000;0.598600
9066.000000;0.598529
9065.000000;0.598472
9064.000000;0.598399
9063.000000;0.598265
9062.000000;0.598073
9061.000000;0.597884
9060.000000;0.597780
9059.000000;0.597802
9058.000000;0.597885
9057.000000;0.597872
9056.000000;0.597635
9055.000000;0.597210
9054.000000;0.596764
9053.000000;0.596424
