Criado como novo conjunto de dados;"e2410_daniel_v2.spp","78126.1 Secs"
cm-1;Abs
10000.000000;1.107992
9999.000000;1.107603
9998.000000;1.107215
9997.000000;1.106827
9996.000000;1.106439
9995.000000;1.106052
9994.000000;1.105665
9993.000000;1.105277
9992.000000;1.104897
9991.000000;1.104267
9990.000000;1.103304
9989.000000;1.102266
9988.000000;1.101324
9987.000000;1.100313
9986.000000;1.099126
9985.000000;1.098095
9984.000000;1.097663
9983.000000;1.097826
9982.000000;1.098138
9981.000000;1.098200
9980.000000;1.097927
9979.000000;1.097417
9978.000000;1.096803
9977.000000;1.096215
9976.000000;1.095681
9975.000000;1.095050
9974.000000;1.094199
9973.000000;1.093338
9972.000000;1.092893
9971.000000;1.092974
9970.000000;1.093086
9969.000000;1.092578
9968.000000;1.091345
9967.000000;1.089936
9966.000000;1.088968
9965.000000;1.088598
9964.000000;1.088569
9963.000000;1.088554
9962.000000;1.088298
9961.000000;1.087643
9960.000000;1.086687
9959.000000;1.085829
9958.000000;1.085389
9957.000000;1.085197
9956.000000;1.084796
9955.000000;1.084063
9954.000000;1.083362
9953.000000;1.083025
9952.000000;1.082972
9951.000000;1.082940
9950.000000;1.082826
9949.000000;1.082617
9948.000000;1.082188
9947.000000;1.081401
9946.000000;1.080310
9945.000000;1.079142
9944.000000;1.078147
9943.000000;1.077496
9942.000000;1.077157
9941.000000;1.076817
9940.000000;1.076188
9939.000000;1.075454
9938.000000;1.075108
9937.000000;1.075222
9936.000000;1.075212
9935.000000;1.074565
9934.000000;1.073496
9933.000000;1.072586
9932.000000;1.072067
9931.000000;1.071787
9930.000000;1.071589
9929.000000;1.071366
9928.000000;1.070893
9927.000000;1.070020
9926.000000;1.068981
9925.000000;1.068164
9924.000000;1.067635
9923.000000;1.067148
9922.000000;1.066566
9921.000000;1.065992
9920.000000;1.065545
9919.000000;1.065255
9918.000000;1.065145
9917.000000;1.065139
9916.000000;1.064967
9915.000000;1.064433
9914.000000;1.063746
9913.000000;1.063308
9912.000000;1.063181
9911.000000;1.063030
9910.000000;1.062568
9909.000000;1.061815
9908.000000;1.060880
9907.000000;1.059763
9906.000000;1.058479
9905.000000;1.057234
9904.000000;1.056369
9903.000000;1.056121
9902.000000;1.056364
9901.000000;1.056547
9900.000000;1.056076
9899.000000;1.054912
9898.000000;1.053657
9897.000000;1.052892
9896.000000;1.052618
9895.000000;1.052489
9894.000000;1.052339
9893.000000;1.052192
9892.000000;1.051986
9891.000000;1.051661
9890.000000;1.051400
9889.000000;1.051381
9888.000000;1.051336
9887.000000;1.050783
9886.000000;1.049695
9885.000000;1.048563
9884.000000;1.047708
9883.000000;1.046891
9882.000000;1.045753
9881.000000;1.044353
9880.000000;1.043094
9879.000000;1.042328
9878.000000;1.042152
9877.000000;1.042409
9876.000000;1.042710
9875.000000;1.042588
9874.000000;1.041809
9873.000000;1.040534
9872.000000;1.039165
9871.000000;1.038060
9870.000000;1.037385
9869.000000;1.037092
9868.000000;1.037027
9867.000000;1.037123
9866.000000;1.037451
9865.000000;1.037995
9864.000000;1.038453
9863.000000;1.038448
9862.000000;1.037906
9861.000000;1.037077
9860.000000;1.036191
9859.000000;1.035286
9858.000000;1.034353
9857.000000;1.033470
9856.000000;1.032731
9855.000000;1.032198
9854.000000;1.031979
9853.000000;1.032192
9852.000000;1.032711
9851.000000;1.033049
9850.000000;1.032683
9849.000000;1.031583
9848.000000;1.030342
9847.000000;1.029616
9846.000000;1.029425
9845.000000;1.029132
9844.000000;1.028238
9843.000000;1.027033
9842.000000;1.026234
9841.000000;1.026080
9840.000000;1.026114
9839.000000;1.025843
9838.000000;1.025260
9837.000000;1.024609
9836.000000;1.023981
9835.000000;1.023379
9834.000000;1.022861
9833.000000;1.022352
9832.000000;1.021562
9831.000000;1.020407
9830.000000;1.019312
9829.000000;1.018821
9828.000000;1.018987
9827.000000;1.019383
9826.000000;1.019580
9825.000000;1.019395
9824.000000;1.018834
9823.000000;1.018072
9822.000000;1.017408
9821.000000;1.016998
9820.000000;1.016711
9819.000000;1.016387
9818.000000;1.016053
9817.000000;1.015663
9816.000000;1.014882
9815.000000;1.013504
9814.000000;1.011927
9813.000000;1.010821
9812.000000;1.010361
9811.000000;1.010109
9810.000000;1.009646
9809.000000;1.009004
9808.000000;1.008436
9807.000000;1.008037
9806.000000;1.007719
9805.000000;1.007382
9804.000000;1.007044
9803.000000;1.006868
9802.000000;1.006992
9801.000000;1.007239
9800.000000;1.007154
9799.000000;1.006509
9798.000000;1.005612
9797.000000;1.004871
9796.000000;1.004264
9795.000000;1.003528
9794.000000;1.002725
9793.000000;1.002205
9792.000000;1.002084
9791.000000;1.002120
9790.000000;1.002088
9789.000000;1.001920
9788.000000;1.001498
9787.000000;1.000688
9786.000000;0.999672
9785.000000;0.998854
9784.000000;0.998341
9783.000000;0.997817
9782.000000;0.997058
9781.000000;0.996262
9780.000000;0.995719
9779.000000;0.995399
9778.000000;0.995057
9777.000000;0.994526
9776.000000;0.993769
9775.000000;0.992801
9774.000000;0.991749
9773.000000;0.990851
9772.000000;0.990250
9771.000000;0.989859
9770.000000;0.989542
9769.000000;0.989325
9768.000000;0.989336
9767.000000;0.989571
9766.000000;0.989810
9765.000000;0.989716
9764.000000;0.989044
9763.000000;0.987853
9762.000000;0.986532
9761.000000;0.985525
9760.000000;0.984973
9759.000000;0.984657
9758.000000;0.984275
9757.000000;0.983728
9756.000000;0.983179
9755.000000;0.982922
9754.000000;0.983112
9753.000000;0.983465
9752.000000;0.983306
9751.000000;0.982141
9750.000000;0.980250
9749.000000;0.978531
9748.000000;0.977700
9747.000000;0.977734
9746.000000;0.978072
9745.000000;0.978180
9744.000000;0.977880
9743.000000;0.977276
9742.000000;0.976586
9741.000000;0.976077
9740.000000;0.975986
9739.000000;0.976310
9738.000000;0.976643
9737.000000;0.976415
9736.000000;0.975462
9735.000000;0.974258
9734.000000;0.973384
9733.000000;0.972835
9732.000000;0.972145
9731.000000;0.971151
9730.000000;0.970252
9729.000000;0.969778
9728.000000;0.969488
9727.000000;0.968993
9726.000000;0.968379
9725.000000;0.968058
9724.000000;0.968154
9723.000000;0.968364
9722.000000;0.968334
9721.000000;0.967916
9720.000000;0.967155
9719.000000;0.966275
9718.000000;0.965581
9717.000000;0.965136
9716.000000;0.964661
9715.000000;0.963956
9714.000000;0.963245
9713.000000;0.962785
9712.000000;0.962384
9711.000000;0.961722
9710.000000;0.960989
9709.000000;0.960682
9708.000000;0.960792
9707.000000;0.960676
9706.000000;0.959849
9705.000000;0.958479
9704.000000;0.957032
9703.000000;0.955865
9702.000000;0.955300
9701.000000;0.955559
9700.000000;0.956325
9699.000000;0.956723
9698.000000;0.956164
9697.000000;0.955035
9696.000000;0.954225
9695.000000;0.954121
9694.000000;0.954334
9693.000000;0.954280
9692.000000;0.953744
9691.000000;0.952911
9690.000000;0.952096
9689.000000;0.951514
9688.000000;0.951146
9687.000000;0.950765
9686.000000;0.950154
9685.000000;0.949323
9684.000000;0.948500
9683.000000;0.947939
9682.000000;0.947710
9681.000000;0.947598
9680.000000;0.947212
9679.000000;0.946331
9678.000000;0.945166
9677.000000;0.944194
9676.000000;0.943734
9675.000000;0.943770
9674.000000;0.944136
9673.000000;0.944649
9672.000000;0.945035
9671.000000;0.944964
9670.000000;0.944340
9669.000000;0.943433
9668.000000;0.942594
9667.000000;0.941929
9666.000000;0.941328
9665.000000;0.940652
9664.000000;0.939791
9663.000000;0.938696
9662.000000;0.937535
9661.000000;0.936720
9660.000000;0.936577
9659.000000;0.936962
9658.000000;0.937355
9657.000000;0.937371
9656.000000;0.937087
9655.000000;0.936853
9654.000000;0.936842
9653.000000;0.936811
9652.000000;0.936295
9651.000000;0.935060
9650.000000;0.933390
9649.000000;0.931907
9648.000000;0.931068
9647.000000;0.930867
9646.000000;0.931005
9645.000000;0.931219
9644.000000;0.931386
9643.000000;0.931429
9642.000000;0.931307
9641.000000;0.931075
9640.000000;0.930790
9639.000000;0.930347
9638.000000;0.929581
9637.000000;0.928622
9636.000000;0.927914
9635.000000;0.927730
9634.000000;0.927748
9633.000000;0.927350
9632.000000;0.926333
9631.000000;0.925127
9630.000000;0.924266
9629.000000;0.923863
9628.000000;0.923678
9627.000000;0.923501
9626.000000;0.923239
9625.000000;0.922768
9624.000000;0.921972
9623.000000;0.920968
9622.000000;0.920091
9621.000000;0.919597
9620.000000;0.919482
9619.000000;0.919604
9618.000000;0.919833
9617.000000;0.920016
9616.000000;0.919937
9615.000000;0.919424
9614.000000;0.918488
9613.000000;0.917329
9612.000000;0.916229
9611.000000;0.915424
9610.000000;0.914975
9609.000000;0.914729
9608.000000;0.914464
9607.000000;0.914069
9606.000000;0.913549
9605.000000;0.912942
9604.000000;0.912361
9603.000000;0.912035
9602.000000;0.912097
9601.000000;0.912322
9600.000000;0.912293
9599.000000;0.911884
9598.000000;0.911388
9597.000000;0.911098
9596.000000;0.910950
9595.000000;0.910669
9594.000000;0.910080
9593.000000;0.909157
9592.000000;0.907946
9591.000000;0.906638
9590.000000;0.905605
9589.000000;0.905125
9588.000000;0.905093
9587.000000;0.905100
9586.000000;0.904815
9585.000000;0.904239
9584.000000;0.903641
9583.000000;0.903309
9582.000000;0.903294
9581.000000;0.903351
9580.000000;0.903188
9579.000000;0.902780
9578.000000;0.902348
9577.000000;0.902032
9576.000000;0.901731
9575.000000;0.901315
9574.000000;0.900803
9573.000000;0.900268
9572.000000;0.899700
9571.000000;0.899087
9570.000000;0.898456
9569.000000;0.897753
9568.000000;0.896837
9567.000000;0.895765
9566.000000;0.894908
9565.000000;0.894604
9564.000000;0.894766
9563.000000;0.895012
9562.000000;0.895099
9561.000000;0.895054
9560.000000;0.894917
9559.000000;0.894574
9558.000000;0.893895
9557.000000;0.892965
9556.000000;0.892084
9555.000000;0.891529
9554.000000;0.891286
9553.000000;0.891059
9552.000000;0.890602
9551.000000;0.889994
9550.000000;0.889449
9549.000000;0.888934
9548.000000;0.888227
9547.000000;0.887375
9546.000000;0.886795
9545.000000;0.886738
9544.000000;0.886888
9543.000000;0.886689
9542.000000;0.885950
9541.000000;0.884976
9540.000000;0.884216
9539.000000;0.883928
9538.000000;0.884059
9537.000000;0.884273
9536.000000;0.884194
9535.000000;0.883766
9534.000000;0.883265
9533.000000;0.882880
9532.000000;0.882432
9531.000000;0.881697
9530.000000;0.880826
9529.000000;0.880212
9528.000000;0.880019
9527.000000;0.880044
9526.000000;0.879995
9525.000000;0.879701
9524.000000;0.879094
9523.000000;0.878221
9522.000000;0.877289
9521.000000;0.876574
9520.000000;0.876223
9519.000000;0.876172
9518.000000;0.876190
9517.000000;0.875976
9516.000000;0.875370
9515.000000;0.874544
9514.000000;0.873828
9513.000000;0.873275
9512.000000;0.872611
9511.000000;0.871745
9510.000000;0.871103
9509.000000;0.871195
9508.000000;0.871978
9507.000000;0.872858
9506.000000;0.873237
9505.000000;0.872866
9504.000000;0.871804
9503.000000;0.870367
9502.000000;0.869059
9501.000000;0.868252
9500.000000;0.867854
9499.000000;0.867459
9498.000000;0.866867
9497.000000;0.866308
9496.000000;0.866121
9495.000000;0.866358
9494.000000;0.866736
9493.000000;0.866871
9492.000000;0.866531
9491.000000;0.865800
9490.000000;0.865006
9489.000000;0.864450
9488.000000;0.864176
9487.000000;0.864023
9486.000000;0.863806
9485.000000;0.863422
9484.000000;0.862902
9483.000000;0.862434
9482.000000;0.862201
9481.000000;0.862104
9480.000000;0.861784
9479.000000;0.861046
9478.000000;0.860112
9477.000000;0.859311
9476.000000;0.858727
9475.000000;0.858314
9474.000000;0.858118
9473.000000;0.858097
9472.000000;0.857880
9471.000000;0.857107
9470.000000;0.855958
9469.000000;0.854992
9468.000000;0.854486
9467.000000;0.854243
9466.000000;0.854055
9465.000000;0.853989
9464.000000;0.854129
9463.000000;0.854348
9462.000000;0.854498
9461.000000;0.854589
9460.000000;0.854613
9459.000000;0.854392
9458.000000;0.853772
9457.000000;0.852853
9456.000000;0.851892
9455.000000;0.851094
9454.000000;0.850584
9453.000000;0.850400
9452.000000;0.850375
9451.000000;0.850139
9450.000000;0.849407
9449.000000;0.848257
9448.000000;0.847080
9447.000000;0.846288
9446.000000;0.846070
9445.000000;0.846315
9444.000000;0.846705
9443.000000;0.846953
9442.000000;0.847005
9441.000000;0.846954
9440.000000;0.846766
9439.000000;0.846243
9438.000000;0.845329
9437.000000;0.844304
9436.000000;0.843553
9435.000000;0.843224
9434.000000;0.843186
9433.000000;0.843205
9432.000000;0.843083
9431.000000;0.842705
9430.000000;0.842117
9429.000000;0.841530
9428.000000;0.841095
9427.000000;0.840698
9426.000000;0.840090
9425.000000;0.839231
9424.000000;0.838367
9423.000000;0.837739
9422.000000;0.837332
9421.000000;0.836997
9420.000000;0.836709
9419.000000;0.836545
9418.000000;0.836481
9417.000000;0.836383
9416.000000;0.836223
9415.000000;0.836137
9414.000000;0.836177
9413.000000;0.836137
9412.000000;0.835788
9411.000000;0.835191
9410.000000;0.834628
9409.000000;0.834269
9408.000000;0.834047
9407.000000;0.833837
9406.000000;0.833581
9405.000000;0.833227
9404.000000;0.832726
9403.000000;0.832145
9402.000000;0.831644
9401.000000;0.831274
9400.000000;0.830900
9399.000000;0.830394
9398.000000;0.829802
9397.000000;0.829266
9396.000000;0.828883
9395.000000;0.828656
9394.000000;0.828496
9393.000000;0.828206
9392.000000;0.827621
9391.000000;0.826851
9390.000000;0.826263
9389.000000;0.826089
9388.000000;0.826164
9387.000000;0.826150
9386.000000;0.825939
9385.000000;0.825676
9384.000000;0.825449
9383.000000;0.825144
9382.000000;0.824653
9381.000000;0.824091
9380.000000;0.823679
9379.000000;0.823457
9378.000000;0.823204
9377.000000;0.822716
9376.000000;0.822119
9375.000000;0.821768
9374.000000;0.821780
9373.000000;0.821805
9372.000000;0.821364
9371.000000;0.820369
9370.000000;0.819162
9369.000000;0.818148
9368.000000;0.817561
9367.000000;0.817489
9366.000000;0.817843
9365.000000;0.818262
9364.000000;0.818329
9363.000000;0.817960
9362.000000;0.817424
9361.000000;0.816956
9360.000000;0.816562
9359.000000;0.816211
9358.000000;0.815908
9357.000000;0.815496
9356.000000;0.814723
9355.000000;0.813699
9354.000000;0.812986
9353.000000;0.812955
9352.000000;0.813275
9351.000000;0.813291
9350.000000;0.812764
9349.000000;0.811986
9348.000000;0.811302
9347.000000;0.810842
9346.000000;0.810616
9345.000000;0.810573
9344.000000;0.810556
9343.000000;0.810418
9342.000000;0.810184
9341.000000;0.809959
9340.000000;0.809718
9339.000000;0.809388
9338.000000;0.809060
9337.000000;0.808895
9336.000000;0.808829
9335.000000;0.808599
9334.000000;0.808074
9333.000000;0.807393
9332.000000;0.806759
9331.000000;0.806251
9330.000000;0.805863
9329.000000;0.805565
9328.000000;0.805303
9327.000000;0.805035
9326.000000;0.804780
9325.000000;0.804503
9324.000000;0.804038
9323.000000;0.803273
9322.000000;0.802403
9321.000000;0.801783
9320.000000;0.801541
9319.000000;0.801493
9318.000000;0.801469
9317.000000;0.801508
9316.000000;0.801644
9315.000000;0.801707
9314.000000;0.801506
9313.000000;0.801107
9312.000000;0.800789
9311.000000;0.800707
9310.000000;0.800690
9309.000000;0.800391
9308.000000;0.799614
9307.000000;0.798526
9306.000000;0.797536
9305.000000;0.796946
9304.000000;0.796697
9303.000000;0.796480
9302.000000;0.796081
9301.000000;0.795603
9300.000000;0.795336
9299.000000;0.795415
9298.000000;0.795622
9297.000000;0.795565
9296.000000;0.795090
9295.000000;0.794461
9294.000000;0.794042
9293.000000;0.793854
9292.000000;0.793592
9291.000000;0.793100
9290.000000;0.792599
9289.000000;0.792354
9288.000000;0.792318
9287.000000;0.792263
9286.000000;0.792111
9285.000000;0.791911
9284.000000;0.791613
9283.000000;0.791111
9282.000000;0.790523
9281.000000;0.790173
9280.000000;0.790203
9279.000000;0.790383
9278.000000;0.790375
9277.000000;0.790065
9276.000000;0.789568
9275.000000;0.789011
9274.000000;0.788422
9273.000000;0.787787
9272.000000;0.787123
9271.000000;0.786491
9270.000000;0.785970
9269.000000;0.785597
9268.000000;0.785332
9267.000000;0.785092
9266.000000;0.784836
9265.000000;0.784588
9264.000000;0.784388
9263.000000;0.784235
9262.000000;0.784075
9261.000000;0.783827
9260.000000;0.783442
9259.000000;0.782962
9258.000000;0.782511
9257.000000;0.782199
9256.000000;0.782020
9255.000000;0.781858
9254.000000;0.781595
9253.000000;0.781239
9252.000000;0.780956
9251.000000;0.780917
9250.000000;0.781082
9249.000000;0.781157
9248.000000;0.780874
9247.000000;0.780298
9246.000000;0.779753
9245.000000;0.779470
9244.000000;0.779396
9243.000000;0.779353
9242.000000;0.779258
9241.000000;0.779127
9240.000000;0.778993
9239.000000;0.778871
9238.000000;0.778722
9237.000000;0.778411
9236.000000;0.777809
9235.000000;0.777005
9234.000000;0.776307
9233.000000;0.775931
9232.000000;0.775776
9231.000000;0.775562
9230.000000;0.775149
9229.000000;0.774649
9228.000000;0.774302
9227.000000;0.774276
9226.000000;0.774516
9225.000000;0.774728
9224.000000;0.774588
9223.000000;0.774043
9222.000000;0.773334
9221.000000;0.772697
9220.000000;0.772157
9219.000000;0.771656
9218.000000;0.771237
9217.000000;0.770995
9216.000000;0.770927
9215.000000;0.770949
9214.000000;0.771013
9213.000000;0.771092
9212.000000;0.771114
9211.000000;0.770991
9210.000000;0.770691
9209.000000;0.770225
9208.000000;0.769642
9207.000000;0.769077
9206.000000;0.768713
9205.000000;0.768613
9204.000000;0.768636
9203.000000;0.768578
9202.000000;0.768328
9201.000000;0.767853
9200.000000;0.767160
9199.000000;0.766354
9198.000000;0.765663
9197.000000;0.765274
9196.000000;0.765190
9195.000000;0.765270
9194.000000;0.765348
9193.000000;0.765277
9192.000000;0.764988
9191.000000;0.764576
9190.000000;0.764208
9189.000000;0.763883
9188.000000;0.763442
9187.000000;0.762903
9186.000000;0.762592
9185.000000;0.762760
9184.000000;0.763199
9183.000000;0.763432
9182.000000;0.763234
9181.000000;0.762799
9180.000000;0.762433
9179.000000;0.762256
9178.000000;0.762192
9177.000000;0.762075
9176.000000;0.761781
9175.000000;0.761357
9174.000000;0.761017
9173.000000;0.760880
9172.000000;0.760768
9171.000000;0.760382
9170.000000;0.759671
9169.000000;0.758895
9168.000000;0.758322
9167.000000;0.758004
9166.000000;0.757820
9165.000000;0.757600
9164.000000;0.757196
9163.000000;0.756573
9162.000000;0.755902
9161.000000;0.755456
9160.000000;0.755348
9159.000000;0.755413
9158.000000;0.755382
9157.000000;0.755152
9156.000000;0.754842
9155.000000;0.754613
9154.000000;0.754477
9153.000000;0.754303
9152.000000;0.753992
9151.000000;0.753598
9150.000000;0.753243
9149.000000;0.752959
9148.000000;0.752703
9147.000000;0.752494
9146.000000;0.752393
9145.000000;0.752322
9144.000000;0.752050
9143.000000;0.751458
9142.000000;0.750734
9141.000000;0.750212
9140.000000;0.750062
9139.000000;0.750184
9138.000000;0.750320
9137.000000;0.750202
9136.000000;0.749726
9135.000000;0.749079
9134.000000;0.748627
9133.000000;0.748563
9132.000000;0.748721
9131.000000;0.748820
9130.000000;0.748772
9129.000000;0.748638
9128.000000;0.748378
9127.000000;0.747877
9126.000000;0.747216
9125.000000;0.746728
9124.000000;0.746688
9123.000000;0.747010
9122.000000;0.747316
9121.000000;0.747275
9120.000000;0.746873
9119.000000;0.746378
9118.000000;0.746052
9117.000000;0.745892
9116.000000;0.745677
9115.000000;0.745274
9114.000000;0.744811
9113.000000;0.744495
9112.000000;0.744356
9111.000000;0.744259
9110.000000;0.744102
9109.000000;0.743871
9108.000000;0.743508
9107.000000;0.742914
9106.000000;0.742134
9105.000000;0.741443
9104.000000;0.741124
9103.000000;0.741179
9102.000000;0.741324
9101.000000;0.741271
9100.000000;0.740974
9099.000000;0.740595
9098.000000;0.740293
9097.000000;0.740075
9096.000000;0.739831
9095.000000;0.739472
9094.000000;0.739048
9093.000000;0.738776
9092.000000;0.738893
9091.000000;0.739373
9090.000000;0.739815
9089.000000;0.739744
9088.000000;0.739087
9087.000000;0.738220
9086.000000;0.737520
9085.000000;0.737038
9084.000000;0.736695
9083.000000;0.736544
9082.000000;0.736616
9081.000000;0.736658
9080.000000;0.736351
9079.000000;0.735737
9078.000000;0.735178
9077.000000;0.734889
9076.000000;0.734780
9075.000000;0.734770
9074.000000;0.734946
9073.000000;0.735312
9072.000000;0.735614
9071.000000;0.735592
9070.000000;0.735237
9069.000000;0.734696
9068.000000;0.734077
9067.000000;0.733475
9066.000000;0.733048
9065.000000;0.732908
9064.000000;0.732984
9063.000000;0.733069
9062.000000;0.732956
9061.000000;0.732510
9060.000000;0.731760
9059.000000;0.730965
9058.000000;0.730450
9057.000000;0.730316
9056.000000;0.730385
9055.000000;0.730446
9054.000000;0.730400
9053.000000;0.730185
