Criado como novo conjunto de dados;"e2410_daniel_v2.spp","31503.6 Secs"
cm-1;Abs
10000.000000;0.620587
9999.000000;0.620497
9998.000000;0.620614
9997.000000;0.620629
9996.000000;0.620352
9995.000000;0.619841
9994.000000;0.619203
9993.000000;0.618496
9992.000000;0.617805
9991.000000;0.617195
9990.000000;0.616593
9989.000000;0.615925
9988.000000;0.615303
9987.000000;0.614868
9986.000000;0.614521
9985.000000;0.614069
9984.000000;0.613552
9983.000000;0.613130
9982.000000;0.612732
9981.000000;0.612129
9980.000000;0.611345
9979.000000;0.610654
9978.000000;0.610188
9977.000000;0.609824
9976.000000;0.609464
9975.000000;0.609143
9974.000000;0.608854
9973.000000;0.608512
9972.000000;0.608126
9971.000000;0.607752
9970.000000;0.607281
9969.000000;0.606538
9968.000000;0.605596
9967.000000;0.604770
9966.000000;0.604247
9965.000000;0.603917
9964.000000;0.603581
9963.000000;0.603133
9962.000000;0.602561
9961.000000;0.601941
9960.000000;0.601411
9959.000000;0.601020
9958.000000;0.600636
9957.000000;0.600154
9956.000000;0.599685
9955.000000;0.599353
9954.000000;0.599035
9953.000000;0.598544
9952.000000;0.597939
9951.000000;0.597422
9950.000000;0.597022
9949.000000;0.596618
9948.000000;0.596190
9947.000000;0.595781
9946.000000;0.595293
9945.000000;0.594596
9944.000000;0.593782
9943.000000;0.593096
9942.000000;0.592642
9941.000000;0.592343
9940.000000;0.592106
9939.000000;0.591830
9938.000000;0.591390
9937.000000;0.590803
9936.000000;0.590278
9935.000000;0.589900
9934.000000;0.589443
9933.000000;0.588733
9932.000000;0.587996
9931.000000;0.587533
9930.000000;0.587240
9929.000000;0.586806
9928.000000;0.586214
9927.000000;0.585676
9926.000000;0.585203
9925.000000;0.584637
9924.000000;0.584024
9923.000000;0.583539
9922.000000;0.583090
9921.000000;0.582392
9920.000000;0.581460
9919.000000;0.580646
9918.000000;0.580152
9917.000000;0.579823
9916.000000;0.579456
9915.000000;0.578996
9914.000000;0.578398
9913.000000;0.577612
9912.000000;0.576791
9911.000000;0.576257
9910.000000;0.576175
9909.000000;0.576391
9908.000000;0.576607
9907.000000;0.576521
9906.000000;0.575907
9905.000000;0.574813
9904.000000;0.573678
9903.000000;0.572998
9902.000000;0.572845
9901.000000;0.572881
9900.000000;0.572794
9899.000000;0.572520
9898.000000;0.572131
9897.000000;0.571723
9896.000000;0.571387
9895.000000;0.571063
9894.000000;0.570501
9893.000000;0.569589
9892.000000;0.568624
9891.000000;0.568010
9890.000000;0.567764
9889.000000;0.567560
9888.000000;0.567165
9887.000000;0.566587
9886.000000;0.565871
9885.000000;0.565072
9884.000000;0.564367
9883.000000;0.563908
9882.000000;0.563582
9881.000000;0.563149
9880.000000;0.562567
9879.000000;0.561971
9878.000000;0.561416
9877.000000;0.560882
9876.000000;0.560440
9875.000000;0.560164
9874.000000;0.559933
9873.000000;0.559577
9872.000000;0.559112
9871.000000;0.558615
9870.000000;0.557982
9869.000000;0.557120
9868.000000;0.556254
9867.000000;0.555698
9866.000000;0.555414
9865.000000;0.555110
9864.000000;0.554703
9863.000000;0.554348
9862.000000;0.554065
9861.000000;0.553701
9860.000000;0.553253
9859.000000;0.552859
9858.000000;0.552487
9857.000000;0.551941
9856.000000;0.551226
9855.000000;0.550595
9854.000000;0.550168
9853.000000;0.549792
9852.000000;0.549325
9851.000000;0.548812
9850.000000;0.548324
9849.000000;0.547833
9848.000000;0.547287
9847.000000;0.546639
9846.000000;0.545829
9845.000000;0.544916
9844.000000;0.544177
9843.000000;0.543864
9842.000000;0.543904
9841.000000;0.544040
9840.000000;0.544142
9839.000000;0.544161
9838.000000;0.543893
9837.000000;0.543156
9836.000000;0.542150
9835.000000;0.541307
9834.000000;0.540794
9833.000000;0.540426
9832.000000;0.540029
9831.000000;0.539583
9830.000000;0.539022
9829.000000;0.538234
9828.000000;0.537329
9827.000000;0.536608
9826.000000;0.536205
9825.000000;0.536001
9824.000000;0.535889
9823.000000;0.535869
9822.000000;0.535826
9821.000000;0.535495
9820.000000;0.534789
9819.000000;0.533971
9818.000000;0.533384
9817.000000;0.533133
9816.000000;0.533055
9815.000000;0.532889
9814.000000;0.532482
9813.000000;0.531922
9812.000000;0.531460
9811.000000;0.531176
9810.000000;0.530839
9809.000000;0.530228
9808.000000;0.529482
9807.000000;0.528933
9806.000000;0.528667
9805.000000;0.528463
9804.000000;0.528075
9803.000000;0.527398
9802.000000;0.526444
9801.000000;0.525381
9800.000000;0.524523
9799.000000;0.524057
9798.000000;0.523841
9797.000000;0.523630
9796.000000;0.523379
9795.000000;0.523120
9794.000000;0.522715
9793.000000;0.522029
9792.000000;0.521226
9791.000000;0.520604
9790.000000;0.520195
9789.000000;0.519819
9788.000000;0.519421
9787.000000;0.519046
9786.000000;0.518560
9785.000000;0.517774
9784.000000;0.516830
9783.000000;0.516115
9782.000000;0.515752
9781.000000;0.515496
9780.000000;0.515149
9779.000000;0.514802
9778.000000;0.514581
9777.000000;0.514425
9776.000000;0.514211
9775.000000;0.513908
9774.000000;0.513524
9773.000000;0.513070
9772.000000;0.512594
9771.000000;0.512127
9770.000000;0.511591
9769.000000;0.510933
9768.000000;0.510277
9767.000000;0.509790
9766.000000;0.509448
9765.000000;0.509117
9764.000000;0.508780
9763.000000;0.508474
9762.000000;0.508076
9761.000000;0.507427
9760.000000;0.506606
9759.000000;0.505858
9758.000000;0.505283
9757.000000;0.504836
9756.000000;0.504537
9755.000000;0.504433
9754.000000;0.504382
9753.000000;0.504145
9752.000000;0.503702
9751.000000;0.503234
9750.000000;0.502826
9749.000000;0.502403
9748.000000;0.501941
9747.000000;0.501493
9746.000000;0.501037
9745.000000;0.500516
9744.000000;0.500014
9743.000000;0.499652
9742.000000;0.499337
9741.000000;0.498853
9740.000000;0.498178
9739.000000;0.497494
9738.000000;0.496900
9737.000000;0.496362
9736.000000;0.495902
9735.000000;0.495585
9734.000000;0.495332
9733.000000;0.494964
9732.000000;0.494471
9731.000000;0.494008
9730.000000;0.493647
9729.000000;0.493322
9728.000000;0.493022
9727.000000;0.492808
9726.000000;0.492639
9725.000000;0.492365
9724.000000;0.491889
9723.000000;0.491181
9722.000000;0.490214
9721.000000;0.489095
9720.000000;0.488173
9719.000000;0.487733
9718.000000;0.487604
9717.000000;0.487325
9716.000000;0.486707
9715.000000;0.485995
9714.000000;0.485467
9713.000000;0.485152
9712.000000;0.484945
9711.000000;0.484770
9710.000000;0.484555
9709.000000;0.484218
9708.000000;0.483761
9707.000000;0.483223
9706.000000;0.482593
9705.000000;0.481905
9704.000000;0.481358
9703.000000;0.481122
9702.000000;0.481057
9701.000000;0.480837
9700.000000;0.480343
9699.000000;0.479741
9698.000000;0.479200
9697.000000;0.478755
9696.000000;0.478429
9695.000000;0.478241
9694.000000;0.478084
9693.000000;0.477788
9692.000000;0.477356
9691.000000;0.476952
9690.000000;0.476649
9689.000000;0.476325
9688.000000;0.475811
9687.000000;0.475018
9686.000000;0.473957
9685.000000;0.472823
9684.000000;0.472001
9683.000000;0.471774
9682.000000;0.471997
9681.000000;0.472220
9680.000000;0.472113
9679.000000;0.471658
9678.000000;0.470986
9677.000000;0.470242
9676.000000;0.469609
9675.000000;0.469233
9674.000000;0.469088
9673.000000;0.469020
9672.000000;0.468909
9671.000000;0.468701
9670.000000;0.468351
9669.000000;0.467866
9668.000000;0.467325
9667.000000;0.466728
9666.000000;0.465951
9665.000000;0.464982
9664.000000;0.464084
9663.000000;0.463507
9662.000000;0.463175
9661.000000;0.462861
9660.000000;0.462526
9659.000000;0.462241
9658.000000;0.461902
9657.000000;0.461356
9656.000000;0.460733
9655.000000;0.460314
9654.000000;0.460089
9653.000000;0.459755
9652.000000;0.459177
9651.000000;0.458563
9650.000000;0.458109
9649.000000;0.457743
9648.000000;0.457306
9647.000000;0.456780
9646.000000;0.456245
9645.000000;0.455769
9644.000000;0.455407
9643.000000;0.455179
9642.000000;0.455014
9641.000000;0.454811
9640.000000;0.454536
9639.000000;0.454172
9638.000000;0.453640
9637.000000;0.452917
9636.000000;0.452188
9635.000000;0.451688
9634.000000;0.451451
9633.000000;0.451323
9632.000000;0.451180
9631.000000;0.450959
9630.000000;0.450574
9629.000000;0.450008
9628.000000;0.449426
9627.000000;0.449010
9626.000000;0.448715
9625.000000;0.448367
9624.000000;0.447921
9623.000000;0.447424
9622.000000;0.446837
9621.000000;0.446134
9620.000000;0.445510
9619.000000;0.445200
9618.000000;0.445123
9617.000000;0.444949
9616.000000;0.444530
9615.000000;0.444039
9614.000000;0.443668
9613.000000;0.443413
9612.000000;0.443184
9611.000000;0.442920
9610.000000;0.442555
9609.000000;0.442054
9608.000000;0.441513
9607.000000;0.441059
9606.000000;0.440659
9605.000000;0.440186
9604.000000;0.439649
9603.000000;0.439169
9602.000000;0.438763
9601.000000;0.438329
9600.000000;0.437853
9599.000000;0.437443
9598.000000;0.437138
9597.000000;0.436850
9596.000000;0.436517
9595.000000;0.436169
9594.000000;0.435816
9593.000000;0.435433
9592.000000;0.435025
9591.000000;0.434604
9590.000000;0.434126
9589.000000;0.433575
9588.000000;0.433068
9587.000000;0.432719
9586.000000;0.432435
9585.000000;0.432027
9584.000000;0.431468
9583.000000;0.430883
9582.000000;0.430326
9581.000000;0.429765
9580.000000;0.429239
9579.000000;0.428844
9578.000000;0.428553
9577.000000;0.428234
9576.000000;0.427841
9575.000000;0.427420
9574.000000;0.426967
9573.000000;0.426433
9572.000000;0.425907
9571.000000;0.425578
9570.000000;0.425497
9569.000000;0.425500
9568.000000;0.425390
9567.000000;0.425097
9566.000000;0.424655
9565.000000;0.424137
9564.000000;0.423617
9563.000000;0.423117
9562.000000;0.422612
9561.000000;0.422129
9560.000000;0.421760
9559.000000;0.421498
9558.000000;0.421190
9557.000000;0.420764
9556.000000;0.420380
9555.000000;0.420187
9554.000000;0.420055
9553.000000;0.419731
9552.000000;0.419177
9551.000000;0.418544
9550.000000;0.417921
9549.000000;0.417316
9548.000000;0.416817
9547.000000;0.416517
9546.000000;0.416325
9545.000000;0.416031
9544.000000;0.415590
9543.000000;0.415142
9542.000000;0.414775
9541.000000;0.414426
9540.000000;0.414028
9539.000000;0.413624
9538.000000;0.413301
9537.000000;0.413120
9536.000000;0.413067
9535.000000;0.412987
9534.000000;0.412641
9533.000000;0.411960
9532.000000;0.411178
9531.000000;0.410597
9530.000000;0.410290
9529.000000;0.410130
9528.000000;0.409979
9527.000000;0.409712
9526.000000;0.409185
9525.000000;0.408407
9524.000000;0.407652
9523.000000;0.407206
9522.000000;0.407035
9521.000000;0.406870
9520.000000;0.406551
9519.000000;0.406134
9518.000000;0.405733
9517.000000;0.405413
9516.000000;0.405198
9515.000000;0.405023
9514.000000;0.404750
9513.000000;0.404340
9512.000000;0.403938
9511.000000;0.403656
9510.000000;0.403402
9509.000000;0.403060
9508.000000;0.402706
9507.000000;0.402439
9506.000000;0.402157
9505.000000;0.401713
9504.000000;0.401192
9503.000000;0.400798
9502.000000;0.400564
9501.000000;0.400376
9500.000000;0.400183
9499.000000;0.399963
9498.000000;0.399572
9497.000000;0.398899
9496.000000;0.398110
9495.000000;0.397474
9494.000000;0.397022
9493.000000;0.396597
9492.000000;0.396183
9491.000000;0.395923
9490.000000;0.395811
9489.000000;0.395662
9488.000000;0.395379
9487.000000;0.395038
9486.000000;0.394699
9485.000000;0.394337
9484.000000;0.393978
9483.000000;0.393676
9482.000000;0.393352
9481.000000;0.392828
9480.000000;0.392083
9479.000000;0.391311
9478.000000;0.390723
9477.000000;0.390399
9476.000000;0.390296
9475.000000;0.390267
9474.000000;0.390103
9473.000000;0.389723
9472.000000;0.389282
9471.000000;0.388948
9470.000000;0.388656
9469.000000;0.388226
9468.000000;0.387657
9467.000000;0.387089
9466.000000;0.386565
9465.000000;0.386051
9464.000000;0.385621
9463.000000;0.385402
9462.000000;0.385326
9461.000000;0.385148
9460.000000;0.384736
9459.000000;0.384180
9458.000000;0.383638
9457.000000;0.383229
9456.000000;0.383022
9455.000000;0.382959
9454.000000;0.382814
9453.000000;0.382408
9452.000000;0.381845
9451.000000;0.381375
9450.000000;0.381080
9449.000000;0.380853
9448.000000;0.380614
9447.000000;0.380353
9446.000000;0.380017
9445.000000;0.379587
9444.000000;0.379212
9443.000000;0.379054
9442.000000;0.379027
9441.000000;0.378881
9440.000000;0.378526
9439.000000;0.378070
9438.000000;0.377569
9437.000000;0.376973
9436.000000;0.376316
9435.000000;0.375744
9434.000000;0.375312
9433.000000;0.374937
9432.000000;0.374564
9431.000000;0.374229
9430.000000;0.373943
9429.000000;0.373659
9428.000000;0.373373
9427.000000;0.373107
9426.000000;0.372808
9425.000000;0.372421
9424.000000;0.372017
9423.000000;0.371714
9422.000000;0.371477
9421.000000;0.371177
9420.000000;0.370799
9419.000000;0.370429
9418.000000;0.370070
9417.000000;0.369661
9416.000000;0.369248
9415.000000;0.368928
9414.000000;0.368638
9413.000000;0.368206
9412.000000;0.367649
9411.000000;0.367223
9410.000000;0.367136
9409.000000;0.367337
9408.000000;0.367601
9407.000000;0.367670
9406.000000;0.367347
9405.000000;0.366619
9404.000000;0.365749
9403.000000;0.365099
9402.000000;0.364803
9401.000000;0.364718
9400.000000;0.364671
9399.000000;0.364611
9398.000000;0.364499
9397.000000;0.364228
9396.000000;0.363721
9395.000000;0.363053
9394.000000;0.362416
9393.000000;0.361976
9392.000000;0.361736
9391.000000;0.361512
9390.000000;0.361102
9389.000000;0.360544
9388.000000;0.360120
9387.000000;0.360008
9386.000000;0.360046
9385.000000;0.359939
9384.000000;0.359600
9383.000000;0.359145
9382.000000;0.358672
9381.000000;0.358218
9380.000000;0.357850
9379.000000;0.357603
9378.000000;0.357365
9377.000000;0.356996
9376.000000;0.356540
9375.000000;0.356151
9374.000000;0.355869
9373.000000;0.355609
9372.000000;0.355340
9371.000000;0.355098
9370.000000;0.354857
9369.000000;0.354545
9368.000000;0.354185
9367.000000;0.353873
9366.000000;0.353634
9365.000000;0.353413
9364.000000;0.353192
9363.000000;0.352984
9362.000000;0.352745
9361.000000;0.352417
9360.000000;0.352020
9359.000000;0.351597
9358.000000;0.351136
9357.000000;0.350655
9356.000000;0.350279
9355.000000;0.350082
9354.000000;0.349930
9353.000000;0.349643
9352.000000;0.349246
9351.000000;0.348889
9350.000000;0.348589
9349.000000;0.348235
9348.000000;0.347808
9347.000000;0.347412
9346.000000;0.347100
9345.000000;0.346837
9344.000000;0.346593
9343.000000;0.346353
9342.000000;0.346037
9341.000000;0.345588
9340.000000;0.345110
9339.000000;0.344781
9338.000000;0.344639
9337.000000;0.344576
9336.000000;0.344508
9335.000000;0.344388
9334.000000;0.344126
9333.000000;0.343668
9332.000000;0.343136
9331.000000;0.342727
9330.000000;0.342479
9329.000000;0.342279
9328.000000;0.342081
9327.000000;0.341957
9326.000000;0.341920
9325.000000;0.341845
9324.000000;0.341591
9323.000000;0.341136
9322.000000;0.340562
9321.000000;0.340003
9320.000000;0.339572
9319.000000;0.339258
9318.000000;0.338945
9317.000000;0.338577
9316.000000;0.338255
9315.000000;0.338070
9314.000000;0.337931
9313.000000;0.337668
9312.000000;0.337261
9311.000000;0.336841
9310.000000;0.336525
9309.000000;0.336341
9308.000000;0.336258
9307.000000;0.336175
9306.000000;0.335944
9305.000000;0.335513
9304.000000;0.334989
9303.000000;0.334498
9302.000000;0.334069
9301.000000;0.333715
9300.000000;0.333486
9299.000000;0.333357
9298.000000;0.333165
9297.000000;0.332810
9296.000000;0.332370
9295.000000;0.331948
9294.000000;0.331523
9293.000000;0.331110
9292.000000;0.330866
9291.000000;0.330857
9290.000000;0.330868
9289.000000;0.330660
9288.000000;0.330302
9287.000000;0.330022
9286.000000;0.329856
9285.000000;0.329667
9284.000000;0.329414
9283.000000;0.329169
9282.000000;0.328906
9281.000000;0.328543
9280.000000;0.328138
9279.000000;0.327845
9278.000000;0.327679
9277.000000;0.327522
9276.000000;0.327336
9275.000000;0.327159
9274.000000;0.326951
9273.000000;0.326642
9272.000000;0.326309
9271.000000;0.326103
9270.000000;0.326007
9269.000000;0.325856
9268.000000;0.325583
9267.000000;0.325268
9266.000000;0.324946
9265.000000;0.324579
9264.000000;0.324211
9263.000000;0.323957
9262.000000;0.323802
9261.000000;0.323585
9260.000000;0.323218
9259.000000;0.322770
9258.000000;0.322325
9257.000000;0.321886
9256.000000;0.321464
9255.000000;0.321126
9254.000000;0.320906
9253.000000;0.320756
9252.000000;0.320617
9251.000000;0.320455
9250.000000;0.320231
9249.000000;0.319926
9248.000000;0.319566
9247.000000;0.319197
9246.000000;0.318840
9245.000000;0.318544
9244.000000;0.318373
9243.000000;0.318281
9242.000000;0.318094
9241.000000;0.317723
9240.000000;0.317303
9239.000000;0.316995
9238.000000;0.316762
9237.000000;0.316482
9236.000000;0.316174
9235.000000;0.315945
9234.000000;0.315787
9233.000000;0.315595
9232.000000;0.315366
9231.000000;0.315194
9230.000000;0.315094
9229.000000;0.314988
9228.000000;0.314821
9227.000000;0.314580
9226.000000;0.314219
9225.000000;0.313716
9224.000000;0.313185
9223.000000;0.312780
9222.000000;0.312533
9221.000000;0.312360
9220.000000;0.312196
9219.000000;0.312006
9218.000000;0.311736
9217.000000;0.311370
9216.000000;0.310992
9215.000000;0.310676
9214.000000;0.310391
9213.000000;0.310119
9212.000000;0.309957
9211.000000;0.309961
9210.000000;0.309972
9209.000000;0.309779
9208.000000;0.309387
9207.000000;0.308988
9206.000000;0.308707
9205.000000;0.308547
9204.000000;0.308500
9203.000000;0.308537
9202.000000;0.308524
9201.000000;0.308313
9200.000000;0.307915
9199.000000;0.307452
9198.000000;0.307005
9197.000000;0.306617
9196.000000;0.306381
9195.000000;0.306335
9194.000000;0.306334
9193.000000;0.306182
9192.000000;0.305870
9191.000000;0.305540
9190.000000;0.305256
9189.000000;0.304982
9188.000000;0.304723
9187.000000;0.304517
9186.000000;0.304314
9185.000000;0.304033
9184.000000;0.303706
9183.000000;0.303437
9182.000000;0.303228
9181.000000;0.302989
9180.000000;0.302717
9179.000000;0.302503
9178.000000;0.302373
9177.000000;0.302255
9176.000000;0.302087
9175.000000;0.301856
9174.000000;0.301552
9173.000000;0.301181
9172.000000;0.300819
9171.000000;0.300530
9170.000000;0.300265
9169.000000;0.299943
9168.000000;0.299607
9167.000000;0.299372
9166.000000;0.299266
9165.000000;0.299218
9164.000000;0.299176
9163.000000;0.299116
9162.000000;0.298969
9161.000000;0.298656
9160.000000;0.298189
9159.000000;0.297675
9158.000000;0.297222
9157.000000;0.296915
9156.000000;0.296794
9155.000000;0.296787
9154.000000;0.296734
9153.000000;0.296554
9152.000000;0.296322
9151.000000;0.296113
9150.000000;0.295887
9149.000000;0.295598
9148.000000;0.295316
9147.000000;0.295104
9146.000000;0.294899
9145.000000;0.294618
9144.000000;0.294310
9143.000000;0.294057
9142.000000;0.293846
9141.000000;0.293650
9140.000000;0.293516
9139.000000;0.293434
9138.000000;0.293254
9137.000000;0.292894
9136.000000;0.292521
9135.000000;0.292348
9134.000000;0.292326
9133.000000;0.292225
9132.000000;0.291951
9131.000000;0.291601
9130.000000;0.291264
9129.000000;0.290965
9128.000000;0.290759
9127.000000;0.290693
9126.000000;0.290700
9125.000000;0.290663
9124.000000;0.290569
9123.000000;0.290458
9122.000000;0.290275
9121.000000;0.289933
9120.000000;0.289497
9119.000000;0.289136
9118.000000;0.288932
9117.000000;0.288827
9116.000000;0.288731
9115.000000;0.288566
9114.000000;0.288244
9113.000000;0.287749
9112.000000;0.287207
9111.000000;0.286774
9110.000000;0.286485
9109.000000;0.286301
9108.000000;0.286216
9107.000000;0.286209
9106.000000;0.286170
9105.000000;0.286005
9104.000000;0.285764
9103.000000;0.285545
9102.000000;0.285349
9101.000000;0.285159
9100.000000;0.285050
9099.000000;0.285090
9098.000000;0.285193
9097.000000;0.285203
9096.000000;0.285062
9095.000000;0.284773
9094.000000;0.284329
9093.000000;0.283817
9092.000000;0.283480
9091.000000;0.283458
9090.000000;0.283548
9089.000000;0.283402
9088.000000;0.282930
9087.000000;0.282344
9086.000000;0.281869
9085.000000;0.281587
9084.000000;0.281495
9083.000000;0.281510
9082.000000;0.281456
9081.000000;0.281213
9080.000000;0.280889
9079.000000;0.280678
9078.000000;0.280593
9077.000000;0.280490
9076.000000;0.280323
9075.000000;0.280194
9074.000000;0.280149
9073.000000;0.280100
9072.000000;0.279957
9071.000000;0.279708
9070.000000;0.279384
9069.000000;0.279052
9068.000000;0.278816
9067.000000;0.278702
9066.000000;0.278580
9065.000000;0.278319
9064.000000;0.277979
9063.000000;0.277728
9062.000000;0.277606
9061.000000;0.277508
9060.000000;0.277352
9059.000000;0.277130
9058.000000;0.276834
9057.000000;0.276466
9056.000000;0.276112
9055.000000;0.275853
9054.000000;0.275650
9053.000000;0.275413
