Criado como novo conjunto de dados;"e2410_daniel_v2.spp","60845.0 Secs"
cm-1;Abs
10000.000000;1.133793
9999.000000;1.133354
9998.000000;1.131872
9997.000000;1.129627
9996.000000;1.127913
9995.000000;1.127330
9994.000000;1.127451
9993.000000;1.127484
9992.000000;1.127211
9991.000000;1.126717
9990.000000;1.125961
9989.000000;1.124799
9988.000000;1.123331
9987.000000;1.121964
9986.000000;1.121159
9985.000000;1.121118
9984.000000;1.121581
9983.000000;1.121961
9982.000000;1.121831
9981.000000;1.121245
9980.000000;1.120488
9979.000000;1.119706
9978.000000;1.119008
9977.000000;1.118663
9976.000000;1.118776
9975.000000;1.118885
9974.000000;1.118367
9973.000000;1.117261
9972.000000;1.116262
9971.000000;1.115830
9970.000000;1.115692
9969.000000;1.115372
9968.000000;1.114830
9967.000000;1.114336
9966.000000;1.114009
9965.000000;1.113711
9964.000000;1.113243
9963.000000;1.112502
9962.000000;1.111565
9961.000000;1.110731
9960.000000;1.110320
9959.000000;1.110306
9958.000000;1.110305
9957.000000;1.109993
9956.000000;1.109406
9955.000000;1.108786
9954.000000;1.108315
9953.000000;1.108068
9952.000000;1.108006
9951.000000;1.107890
9950.000000;1.107377
9949.000000;1.106358
9948.000000;1.105096
9947.000000;1.103939
9946.000000;1.103044
9945.000000;1.102460
9944.000000;1.102268
9943.000000;1.102428
9942.000000;1.102590
9941.000000;1.102330
9940.000000;1.101581
9939.000000;1.100647
9938.000000;1.099743
9937.000000;1.098711
9936.000000;1.097352
9935.000000;1.095909
9934.000000;1.094958
9933.000000;1.094761
9932.000000;1.094953
9931.000000;1.095056
9930.000000;1.095083
9929.000000;1.095309
9928.000000;1.095536
9927.000000;1.095117
9926.000000;1.093883
9925.000000;1.092591
9924.000000;1.092107
9923.000000;1.092378
9922.000000;1.092573
9921.000000;1.092081
9920.000000;1.091031
9919.000000;1.089942
9918.000000;1.089229
9917.000000;1.089044
9916.000000;1.089185
9915.000000;1.089104
9914.000000;1.088315
9913.000000;1.086939
9912.000000;1.085687
9911.000000;1.085209
9910.000000;1.085548
9909.000000;1.086170
9908.000000;1.086363
9907.000000;1.085699
9906.000000;1.084339
9905.000000;1.082949
9904.000000;1.082124
9903.000000;1.081851
9902.000000;1.081614
9901.000000;1.080971
9900.000000;1.079889
9899.000000;1.078591
9898.000000;1.077339
9897.000000;1.076351
9896.000000;1.075719
9895.000000;1.075350
9894.000000;1.075121
9893.000000;1.075099
9892.000000;1.075415
9891.000000;1.075921
9890.000000;1.076173
9889.000000;1.075830
9888.000000;1.074954
9887.000000;1.073873
9886.000000;1.072849
9885.000000;1.071920
9884.000000;1.071011
9883.000000;1.070145
9882.000000;1.069527
9881.000000;1.069303
9880.000000;1.069256
9879.000000;1.068943
9878.000000;1.068245
9877.000000;1.067599
9876.000000;1.067495
9875.000000;1.067904
9874.000000;1.068361
9873.000000;1.068456
9872.000000;1.068029
9871.000000;1.067093
9870.000000;1.065915
9869.000000;1.065038
9868.000000;1.064835
9867.000000;1.065006
9866.000000;1.064818
9865.000000;1.063887
9864.000000;1.062531
9863.000000;1.061330
9862.000000;1.060615
9861.000000;1.060374
9860.000000;1.060373
9859.000000;1.060258
9858.000000;1.059739
9857.000000;1.058785
9856.000000;1.057611
9855.000000;1.056538
9854.000000;1.055922
9853.000000;1.056013
9852.000000;1.056656
9851.000000;1.057254
9850.000000;1.057309
9849.000000;1.056924
9848.000000;1.056532
9847.000000;1.056259
9846.000000;1.055897
9845.000000;1.055391
9844.000000;1.054926
9843.000000;1.054509
9842.000000;1.053901
9841.000000;1.053052
9840.000000;1.052231
9839.000000;1.051588
9838.000000;1.050905
9837.000000;1.049994
9836.000000;1.049055
9835.000000;1.048451
9834.000000;1.048295
9833.000000;1.048429
9832.000000;1.048635
9831.000000;1.048714
9830.000000;1.048478
9829.000000;1.047826
9828.000000;1.046805
9827.000000;1.045589
9826.000000;1.044470
9825.000000;1.043766
9824.000000;1.043508
9823.000000;1.043233
9822.000000;1.042388
9821.000000;1.041041
9820.000000;1.039915
9819.000000;1.039582
9818.000000;1.039867
9817.000000;1.040136
9816.000000;1.039962
9815.000000;1.039369
9814.000000;1.038613
9813.000000;1.037930
9812.000000;1.037378
9811.000000;1.036792
9810.000000;1.036018
9809.000000;1.035268
9808.000000;1.035022
9807.000000;1.035406
9806.000000;1.035867
9805.000000;1.035683
9804.000000;1.034692
9803.000000;1.033340
9802.000000;1.032167
9801.000000;1.031466
9800.000000;1.031317
9799.000000;1.031575
9798.000000;1.031809
9797.000000;1.031541
9796.000000;1.030696
9795.000000;1.029665
9794.000000;1.028811
9793.000000;1.028095
9792.000000;1.027327
9791.000000;1.026620
9790.000000;1.026334
9789.000000;1.026542
9788.000000;1.026804
9787.000000;1.026607
9786.000000;1.025935
9785.000000;1.025231
9784.000000;1.024854
9783.000000;1.024739
9782.000000;1.024556
9781.000000;1.024052
9780.000000;1.023195
9779.000000;1.022148
9778.000000;1.021209
9777.000000;1.020668
9776.000000;1.020591
9775.000000;1.020780
9774.000000;1.020958
9773.000000;1.020942
9772.000000;1.020619
9771.000000;1.019910
9770.000000;1.018834
9769.000000;1.017547
9768.000000;1.016257
9767.000000;1.015188
9766.000000;1.014570
9765.000000;1.014477
9764.000000;1.014595
9763.000000;1.014415
9762.000000;1.013802
9761.000000;1.013182
9760.000000;1.012953
9759.000000;1.012910
9758.000000;1.012492
9757.000000;1.011482
9756.000000;1.010194
9755.000000;1.009075
9754.000000;1.008381
9753.000000;1.008198
9752.000000;1.008423
9751.000000;1.008699
9750.000000;1.008648
9749.000000;1.008268
9748.000000;1.007923
9747.000000;1.007871
9746.000000;1.007984
9745.000000;1.007978
9744.000000;1.007699
9743.000000;1.007111
9742.000000;1.006165
9741.000000;1.004874
9740.000000;1.003428
9739.000000;1.002130
9738.000000;1.001228
9737.000000;1.000840
9736.000000;1.000929
9735.000000;1.001254
9734.000000;1.001407
9733.000000;1.001057
9732.000000;1.000224
9731.000000;0.999283
9730.000000;0.998610
9729.000000;0.998204
9728.000000;0.997764
9727.000000;0.997154
9726.000000;0.996675
9725.000000;0.996712
9724.000000;0.997204
9723.000000;0.997704
9722.000000;0.997923
9721.000000;0.997953
9720.000000;0.997857
9719.000000;0.997378
9718.000000;0.996278
9717.000000;0.994737
9716.000000;0.993176
9715.000000;0.991845
9714.000000;0.990831
9713.000000;0.990299
9712.000000;0.990371
9711.000000;0.990805
9710.000000;0.991072
9709.000000;0.990824
9708.000000;0.990158
9707.000000;0.989419
9706.000000;0.988889
9705.000000;0.988630
9704.000000;0.988474
9703.000000;0.988180
9702.000000;0.987703
9701.000000;0.987243
9700.000000;0.986899
9699.000000;0.986417
9698.000000;0.985484
9697.000000;0.984232
9696.000000;0.983204
9695.000000;0.982783
9694.000000;0.982827
9693.000000;0.982859
9692.000000;0.982549
9691.000000;0.981988
9690.000000;0.981575
9689.000000;0.981556
9688.000000;0.981640
9687.000000;0.981166
9686.000000;0.979797
9685.000000;0.977918
9684.000000;0.976248
9683.000000;0.975218
9682.000000;0.974856
9681.000000;0.975037
9680.000000;0.975527
9679.000000;0.975907
9678.000000;0.975777
9677.000000;0.975089
9676.000000;0.974100
9675.000000;0.973061
9674.000000;0.972154
9673.000000;0.971595
9672.000000;0.971501
9671.000000;0.971640
9670.000000;0.971593
9669.000000;0.971225
9668.000000;0.970789
9667.000000;0.970525
9666.000000;0.970364
9665.000000;0.970068
9664.000000;0.969510
9663.000000;0.968738
9662.000000;0.967923
9661.000000;0.967251
9660.000000;0.966768
9659.000000;0.966329
9658.000000;0.965811
9657.000000;0.965310
9656.000000;0.964971
9655.000000;0.964734
9654.000000;0.964458
9653.000000;0.964240
9652.000000;0.964326
9651.000000;0.964668
9650.000000;0.964827
9649.000000;0.964413
9648.000000;0.963443
9647.000000;0.962239
9646.000000;0.961117
9645.000000;0.960254
9644.000000;0.959698
9643.000000;0.959392
9642.000000;0.959223
9641.000000;0.959062
9640.000000;0.958739
9639.000000;0.958128
9638.000000;0.957380
9637.000000;0.956891
9636.000000;0.956859
9635.000000;0.956971
9634.000000;0.956799
9633.000000;0.956408
9632.000000;0.956237
9631.000000;0.956374
9630.000000;0.956328
9629.000000;0.955611
9628.000000;0.954313
9627.000000;0.952984
9626.000000;0.952117
9625.000000;0.951854
9624.000000;0.951983
9623.000000;0.952093
9622.000000;0.951860
9621.000000;0.951279
9620.000000;0.950564
9619.000000;0.949866
9618.000000;0.949228
9617.000000;0.948720
9616.000000;0.948334
9615.000000;0.947777
9614.000000;0.946731
9613.000000;0.945442
9612.000000;0.944732
9611.000000;0.945143
9610.000000;0.946251
9609.000000;0.947027
9608.000000;0.946805
9607.000000;0.945751
9606.000000;0.944477
9605.000000;0.943445
9604.000000;0.942772
9603.000000;0.942371
9602.000000;0.942123
9601.000000;0.941925
9600.000000;0.941679
9599.000000;0.941330
9598.000000;0.940935
9597.000000;0.940606
9596.000000;0.940332
9595.000000;0.939935
9594.000000;0.939326
9593.000000;0.938703
9592.000000;0.938330
9591.000000;0.938159
9590.000000;0.937880
9589.000000;0.937353
9588.000000;0.936776
9587.000000;0.936369
9586.000000;0.936073
9585.000000;0.935683
9584.000000;0.935125
9583.000000;0.934504
9582.000000;0.933955
9581.000000;0.933569
9580.000000;0.933394
9579.000000;0.933382
9578.000000;0.933356
9577.000000;0.933094
9576.000000;0.932489
9575.000000;0.931647
9574.000000;0.930827
9573.000000;0.930260
9572.000000;0.929931
9571.000000;0.929570
9570.000000;0.928916
9569.000000;0.927990
9568.000000;0.927069
9567.000000;0.926428
9566.000000;0.926176
9565.000000;0.926276
9564.000000;0.926601
9563.000000;0.926943
9562.000000;0.927103
9561.000000;0.927018
9560.000000;0.926746
9559.000000;0.926345
9558.000000;0.925812
9557.000000;0.925133
9556.000000;0.924336
9555.000000;0.923507
9554.000000;0.922789
9553.000000;0.922313
9552.000000;0.922026
9551.000000;0.921657
9550.000000;0.920981
9549.000000;0.920103
9548.000000;0.919383
9547.000000;0.919097
9546.000000;0.919233
9545.000000;0.919573
9544.000000;0.919843
9543.000000;0.919824
9542.000000;0.919466
9541.000000;0.918934
9540.000000;0.918436
9539.000000;0.917992
9538.000000;0.917473
9537.000000;0.916855
9536.000000;0.916307
9535.000000;0.915971
9534.000000;0.915763
9533.000000;0.915455
9532.000000;0.914884
9531.000000;0.914056
9530.000000;0.913115
9529.000000;0.912280
9528.000000;0.911768
9527.000000;0.911676
9526.000000;0.911863
9525.000000;0.911974
9524.000000;0.911662
9523.000000;0.910884
9522.000000;0.909978
9521.000000;0.909367
9520.000000;0.909185
9519.000000;0.909226
9518.000000;0.909241
9517.000000;0.909144
9516.000000;0.908931
9515.000000;0.908565
9514.000000;0.908028
9513.000000;0.907394
9512.000000;0.906766
9511.000000;0.906217
9510.000000;0.905844
9509.000000;0.905740
9508.000000;0.905830
9507.000000;0.905847
9506.000000;0.905573
9505.000000;0.905029
9504.000000;0.904386
9503.000000;0.903808
9502.000000;0.903418
9501.000000;0.903224
9500.000000;0.902983
9499.000000;0.902362
9498.000000;0.901377
9497.000000;0.900493
9496.000000;0.900095
9495.000000;0.900036
9494.000000;0.899906
9493.000000;0.899582
9492.000000;0.899241
9491.000000;0.898938
9490.000000;0.898510
9489.000000;0.897918
9488.000000;0.897395
9487.000000;0.897169
9486.000000;0.897181
9485.000000;0.897159
9484.000000;0.896868
9483.000000;0.896266
9482.000000;0.895506
9481.000000;0.894801
9480.000000;0.894247
9479.000000;0.893816
9478.000000;0.893530
9477.000000;0.893474
9476.000000;0.893538
9475.000000;0.893349
9474.000000;0.892642
9473.000000;0.891596
9472.000000;0.890623
9471.000000;0.889958
9470.000000;0.889626
9469.000000;0.889618
9468.000000;0.889793
9467.000000;0.889742
9466.000000;0.889108
9465.000000;0.888068
9464.000000;0.887193
9463.000000;0.886810
9462.000000;0.886766
9461.000000;0.886804
9460.000000;0.886858
9459.000000;0.886914
9458.000000;0.886849
9457.000000;0.886581
9456.000000;0.886192
9455.000000;0.885760
9454.000000;0.885248
9453.000000;0.884661
9452.000000;0.884167
9451.000000;0.883900
9450.000000;0.883733
9449.000000;0.883395
9448.000000;0.882791
9447.000000;0.882125
9446.000000;0.881703
9445.000000;0.881611
9444.000000;0.881584
9443.000000;0.881221
9442.000000;0.880410
9441.000000;0.879515
9440.000000;0.879046
9439.000000;0.879137
9438.000000;0.879421
9437.000000;0.879416
9436.000000;0.878973
9435.000000;0.878331
9434.000000;0.877795
9433.000000;0.877384
9432.000000;0.876797
9431.000000;0.875801
9430.000000;0.874594
9429.000000;0.873646
9428.000000;0.873154
9427.000000;0.872869
9426.000000;0.872553
9425.000000;0.872366
9424.000000;0.872571
9423.000000;0.873022
9422.000000;0.873242
9421.000000;0.872979
9420.000000;0.872411
9419.000000;0.871847
9418.000000;0.871433
9417.000000;0.871168
9416.000000;0.870982
9415.000000;0.870748
9414.000000;0.870393
9413.000000;0.869995
9412.000000;0.869657
9411.000000;0.869295
9410.000000;0.868734
9409.000000;0.867988
9408.000000;0.867248
9407.000000;0.866613
9406.000000;0.866036
9405.000000;0.865532
9404.000000;0.865228
9403.000000;0.865168
9402.000000;0.865245
9401.000000;0.865370
9400.000000;0.865494
9399.000000;0.865440
9398.000000;0.864942
9397.000000;0.863975
9396.000000;0.862889
9395.000000;0.862120
9394.000000;0.861862
9393.000000;0.862047
9392.000000;0.862446
9391.000000;0.862697
9390.000000;0.862437
9389.000000;0.861604
9388.000000;0.860536
9387.000000;0.859674
9386.000000;0.859168
9385.000000;0.858853
9384.000000;0.858515
9383.000000;0.858108
9382.000000;0.857745
9381.000000;0.857543
9380.000000;0.857494
9379.000000;0.857459
9378.000000;0.857294
9377.000000;0.856940
9376.000000;0.856420
9375.000000;0.855809
9374.000000;0.855278
9373.000000;0.855058
9372.000000;0.855240
9371.000000;0.855650
9370.000000;0.855993
9369.000000;0.856075
9368.000000;0.855812
9367.000000;0.855168
9366.000000;0.854269
9365.000000;0.853474
9364.000000;0.853090
9363.000000;0.853016
9362.000000;0.852878
9361.000000;0.852509
9360.000000;0.852091
9359.000000;0.851773
9358.000000;0.851440
9357.000000;0.850948
9356.000000;0.850418
9355.000000;0.850097
9354.000000;0.850055
9353.000000;0.850134
9352.000000;0.850135
9351.000000;0.849920
9350.000000;0.849432
9349.000000;0.848732
9348.000000;0.848011
9347.000000;0.847457
9346.000000;0.847115
9345.000000;0.846883
9344.000000;0.846641
9343.000000;0.846348
9342.000000;0.846029
9341.000000;0.845679
9340.000000;0.845199
9339.000000;0.844469
9338.000000;0.843510
9337.000000;0.842535
9336.000000;0.841784
9335.000000;0.841372
9334.000000;0.841332
9333.000000;0.841696
9332.000000;0.842365
9331.000000;0.842966
9330.000000;0.843042
9329.000000;0.842477
9328.000000;0.841620
9327.000000;0.840924
9326.000000;0.840561
9325.000000;0.840385
9324.000000;0.840203
9323.000000;0.839982
9322.000000;0.839814
9321.000000;0.839733
9320.000000;0.839592
9319.000000;0.839182
9318.000000;0.838490
9317.000000;0.837745
9316.000000;0.837161
9315.000000;0.836716
9314.000000;0.836300
9313.000000;0.835966
9312.000000;0.835873
9311.000000;0.835984
9310.000000;0.836016
9309.000000;0.835778
9308.000000;0.835411
9307.000000;0.835216
9306.000000;0.835279
9305.000000;0.835348
9304.000000;0.835081
9303.000000;0.834379
9302.000000;0.833508
9301.000000;0.832886
9300.000000;0.832731
9299.000000;0.832894
9298.000000;0.833002
9297.000000;0.832738
9296.000000;0.832020
9295.000000;0.831018
9294.000000;0.830060
9293.000000;0.829449
9292.000000;0.829267
9291.000000;0.829320
9290.000000;0.829326
9289.000000;0.829141
9288.000000;0.828822
9287.000000;0.828534
9286.000000;0.828404
9285.000000;0.828382
9284.000000;0.828253
9283.000000;0.827861
9282.000000;0.827323
9281.000000;0.826900
9280.000000;0.826668
9279.000000;0.826474
9278.000000;0.826208
9277.000000;0.825927
9276.000000;0.825641
9275.000000;0.825251
9274.000000;0.824802
9273.000000;0.824555
9272.000000;0.824588
9271.000000;0.824562
9270.000000;0.824132
9269.000000;0.823432
9268.000000;0.822881
9267.000000;0.822626
9266.000000;0.822480
9265.000000;0.822306
9264.000000;0.822169
9263.000000;0.822096
9262.000000;0.821964
9261.000000;0.821672
9260.000000;0.821245
9259.000000;0.820772
9258.000000;0.820410
9257.000000;0.820367
9256.000000;0.820669
9255.000000;0.820963
9254.000000;0.820824
9253.000000;0.820252
9252.000000;0.819637
9251.000000;0.819203
9250.000000;0.818775
9249.000000;0.818154
9248.000000;0.817457
9247.000000;0.816934
9246.000000;0.816640
9245.000000;0.816436
9244.000000;0.816188
9243.000000;0.815853
9242.000000;0.815444
9241.000000;0.815014
9240.000000;0.814610
9239.000000;0.814242
9238.000000;0.813928
9237.000000;0.813762
9236.000000;0.813775
9235.000000;0.813798
9234.000000;0.813614
9233.000000;0.813268
9232.000000;0.813025
9231.000000;0.812988
9230.000000;0.812940
9229.000000;0.812651
9228.000000;0.812173
9227.000000;0.811723
9226.000000;0.811413
9225.000000;0.811225
9224.000000;0.811129
9223.000000;0.811089
9222.000000;0.811026
9221.000000;0.810889
9220.000000;0.810729
9219.000000;0.810616
9218.000000;0.810531
9217.000000;0.810401
9216.000000;0.810185
9215.000000;0.809884
9214.000000;0.809491
9213.000000;0.809010
9212.000000;0.808503
9211.000000;0.808077
9210.000000;0.807815
9209.000000;0.807702
9208.000000;0.807626
9207.000000;0.807449
9206.000000;0.807121
9205.000000;0.806694
9204.000000;0.806222
9203.000000;0.805714
9202.000000;0.805242
9201.000000;0.804983
9200.000000;0.805031
9199.000000;0.805189
9198.000000;0.805107
9197.000000;0.804656
9196.000000;0.804072
9195.000000;0.803692
9194.000000;0.803609
9193.000000;0.803612
9192.000000;0.803394
9191.000000;0.802842
9190.000000;0.802162
9189.000000;0.801686
9188.000000;0.801506
9187.000000;0.801344
9186.000000;0.800881
9185.000000;0.800161
9184.000000;0.799555
9183.000000;0.799341
9182.000000;0.799462
9181.000000;0.799679
9180.000000;0.799836
9179.000000;0.799913
9178.000000;0.799939
9177.000000;0.799915
9176.000000;0.799798
9175.000000;0.799545
9174.000000;0.799205
9173.000000;0.798919
9172.000000;0.798778
9171.000000;0.798700
9170.000000;0.798533
9169.000000;0.798237
9168.000000;0.797877
9167.000000;0.797491
9166.000000;0.797072
9165.000000;0.796664
9164.000000;0.796359
9163.000000;0.796178
9162.000000;0.796039
9161.000000;0.795842
9160.000000;0.795535
9159.000000;0.795109
9158.000000;0.794638
9157.000000;0.794285
9156.000000;0.794168
9155.000000;0.794203
9154.000000;0.794158
9153.000000;0.793896
9152.000000;0.793495
9151.000000;0.793123
9150.000000;0.792879
9149.000000;0.792743
9148.000000;0.792629
9147.000000;0.792455
9146.000000;0.792198
9145.000000;0.791863
9144.000000;0.791433
9143.000000;0.790905
9142.000000;0.790390
9141.000000;0.790049
9140.000000;0.789887
9139.000000;0.789729
9138.000000;0.789493
9137.000000;0.789343
9136.000000;0.789447
9135.000000;0.789670
9134.000000;0.789680
9133.000000;0.789313
9132.000000;0.788697
9131.000000;0.788061
9130.000000;0.787574
9129.000000;0.787335
9128.000000;0.787357
9127.000000;0.787540
9126.000000;0.787740
9125.000000;0.787852
9124.000000;0.787780
9123.000000;0.787423
9122.000000;0.786795
9121.000000;0.786090
9120.000000;0.785490
9119.000000;0.784965
9118.000000;0.784390
9117.000000;0.783812
9116.000000;0.783441
9115.000000;0.783398
9114.000000;0.783613
9113.000000;0.783904
9112.000000;0.784053
9111.000000;0.783868
9110.000000;0.783372
9109.000000;0.782879
9108.000000;0.782712
9107.000000;0.782827
9106.000000;0.782891
9105.000000;0.782690
9104.000000;0.782316
9103.000000;0.781958
9102.000000;0.781700
9101.000000;0.781528
9100.000000;0.781369
9099.000000;0.781118
9098.000000;0.780738
9097.000000;0.780354
9096.000000;0.780076
9095.000000;0.779780
9094.000000;0.779266
9093.000000;0.778618
9092.000000;0.778199
9091.000000;0.778214
9090.000000;0.778456
9089.000000;0.778578
9088.000000;0.778469
9087.000000;0.778265
9086.000000;0.778122
9085.000000;0.778105
9084.000000;0.778212
9083.000000;0.778389
9082.000000;0.778524
9081.000000;0.778481
9080.000000;0.778168
9079.000000;0.777612
9078.000000;0.777013
9077.000000;0.776651
9076.000000;0.776610
9075.000000;0.776632
9074.000000;0.776357
9073.000000;0.775704
9072.000000;0.774943
9071.000000;0.774395
9070.000000;0.774173
9069.000000;0.774171
9068.000000;0.774189
9067.000000;0.774069
9066.000000;0.773827
9065.000000;0.773643
9064.000000;0.773632
9063.000000;0.773684
9062.000000;0.773635
9061.000000;0.773521
9060.000000;0.773473
9059.000000;0.773409
9058.000000;0.773042
9057.000000;0.772229
9056.000000;0.771156
9055.000000;0.770142
9054.000000;0.769430
9053.000000;0.769163
