Criado como novo conjunto de dados;"e2410_daniel_v2.spp","31323.7 Secs"
cm-1;Abs
10000.000000;0.644328
9999.000000;0.643666
9998.000000;0.642693
9997.000000;0.641705
9996.000000;0.640932
9995.000000;0.640253
9994.000000;0.639522
9993.000000;0.638730
9992.000000;0.638109
9991.000000;0.637788
9990.000000;0.637618
9989.000000;0.637337
9988.000000;0.636889
9987.000000;0.636384
9986.000000;0.635830
9985.000000;0.635162
9984.000000;0.634508
9983.000000;0.634133
9982.000000;0.634021
9981.000000;0.633788
9980.000000;0.633139
9979.000000;0.632210
9978.000000;0.631319
9977.000000;0.630620
9976.000000;0.630166
9975.000000;0.630075
9974.000000;0.630361
9973.000000;0.630707
9972.000000;0.630656
9971.000000;0.630035
9970.000000;0.629051
9969.000000;0.628010
9968.000000;0.627094
9967.000000;0.626359
9966.000000;0.625824
9965.000000;0.625508
9964.000000;0.625411
9963.000000;0.625448
9962.000000;0.625418
9961.000000;0.625114
9960.000000;0.624488
9959.000000;0.623677
9958.000000;0.622866
9957.000000;0.622185
9956.000000;0.621664
9955.000000;0.621182
9954.000000;0.620538
9953.000000;0.619736
9952.000000;0.619100
9951.000000;0.618904
9950.000000;0.618940
9949.000000;0.618684
9948.000000;0.617894
9947.000000;0.616812
9946.000000;0.615798
9945.000000;0.615019
9944.000000;0.614496
9943.000000;0.614160
9942.000000;0.613811
9941.000000;0.613278
9940.000000;0.612691
9939.000000;0.612346
9938.000000;0.612260
9937.000000;0.612117
9936.000000;0.611718
9935.000000;0.611183
9934.000000;0.610643
9933.000000;0.610065
9932.000000;0.609472
9931.000000;0.609038
9930.000000;0.608763
9929.000000;0.608355
9928.000000;0.607634
9927.000000;0.606814
9926.000000;0.606206
9925.000000;0.605857
9924.000000;0.605639
9923.000000;0.605460
9922.000000;0.605197
9921.000000;0.604662
9920.000000;0.603856
9919.000000;0.603068
9918.000000;0.602525
9917.000000;0.602123
9916.000000;0.601687
9915.000000;0.601283
9914.000000;0.601028
9913.000000;0.600790
9912.000000;0.600333
9911.000000;0.599679
9910.000000;0.599066
9909.000000;0.598618
9908.000000;0.598241
9907.000000;0.597808
9906.000000;0.597289
9905.000000;0.596735
9904.000000;0.596232
9903.000000;0.595815
9902.000000;0.595370
9901.000000;0.594745
9900.000000;0.594010
9899.000000;0.593431
9898.000000;0.593089
9897.000000;0.592710
9896.000000;0.592021
9895.000000;0.591114
9894.000000;0.590316
9893.000000;0.589822
9892.000000;0.589580
9891.000000;0.589416
9890.000000;0.589138
9889.000000;0.588648
9888.000000;0.588066
9887.000000;0.587631
9886.000000;0.587385
9885.000000;0.587100
9884.000000;0.586601
9883.000000;0.585975
9882.000000;0.585348
9881.000000;0.584668
9880.000000;0.583903
9879.000000;0.583275
9878.000000;0.583054
9877.000000;0.583177
9876.000000;0.583247
9875.000000;0.582873
9874.000000;0.581960
9873.000000;0.580760
9872.000000;0.579749
9871.000000;0.579308
9870.000000;0.579389
9869.000000;0.579568
9868.000000;0.579496
9867.000000;0.579176
9866.000000;0.578733
9865.000000;0.578140
9864.000000;0.577329
9863.000000;0.576423
9862.000000;0.575637
9861.000000;0.575059
9860.000000;0.574664
9859.000000;0.574429
9858.000000;0.574291
9857.000000;0.574083
9856.000000;0.573712
9855.000000;0.573308
9854.000000;0.573044
9853.000000;0.572865
9852.000000;0.572559
9851.000000;0.572028
9850.000000;0.571345
9849.000000;0.570583
9848.000000;0.569748
9847.000000;0.568870
9846.000000;0.568053
9845.000000;0.567413
9844.000000;0.567007
9843.000000;0.566772
9842.000000;0.566524
9841.000000;0.566098
9840.000000;0.565532
9839.000000;0.565014
9838.000000;0.564603
9837.000000;0.564155
9836.000000;0.563574
9835.000000;0.562998
9834.000000;0.562610
9833.000000;0.562369
9832.000000;0.562053
9831.000000;0.561522
9830.000000;0.560871
9829.000000;0.560351
9828.000000;0.560178
9827.000000;0.560322
9826.000000;0.560458
9825.000000;0.560209
9824.000000;0.559495
9823.000000;0.558562
9822.000000;0.557656
9821.000000;0.556820
9820.000000;0.556058
9819.000000;0.555498
9818.000000;0.555246
9817.000000;0.555193
9816.000000;0.555083
9815.000000;0.554730
9814.000000;0.554131
9813.000000;0.553432
9812.000000;0.552830
9811.000000;0.552406
9810.000000;0.552017
9809.000000;0.551463
9808.000000;0.550782
9807.000000;0.550243
9806.000000;0.550004
9805.000000;0.549917
9804.000000;0.549738
9803.000000;0.549394
9802.000000;0.548950
9801.000000;0.548469
9800.000000;0.547993
9799.000000;0.547563
9798.000000;0.547154
9797.000000;0.546672
9796.000000;0.546069
9795.000000;0.545381
9794.000000;0.544649
9793.000000;0.543904
9792.000000;0.543258
9791.000000;0.542820
9790.000000;0.542492
9789.000000;0.542033
9788.000000;0.541400
9787.000000;0.540827
9786.000000;0.540482
9785.000000;0.540215
9784.000000;0.539792
9783.000000;0.539204
9782.000000;0.538605
9781.000000;0.538064
9780.000000;0.537552
9779.000000;0.537088
9778.000000;0.536735
9777.000000;0.536487
9776.000000;0.536279
9775.000000;0.536060
9774.000000;0.535788
9773.000000;0.535423
9772.000000;0.534999
9771.000000;0.534620
9770.000000;0.534320
9769.000000;0.533971
9768.000000;0.533419
9767.000000;0.532657
9766.000000;0.531830
9765.000000;0.531105
9764.000000;0.530567
9763.000000;0.530164
9762.000000;0.529727
9761.000000;0.529137
9760.000000;0.528476
9759.000000;0.527934
9758.000000;0.527555
9757.000000;0.527190
9756.000000;0.526734
9755.000000;0.526273
9754.000000;0.525935
9753.000000;0.525691
9752.000000;0.525374
9751.000000;0.524854
9750.000000;0.524148
9749.000000;0.523430
9748.000000;0.522926
9747.000000;0.522710
9746.000000;0.522604
9745.000000;0.522342
9744.000000;0.521824
9743.000000;0.521139
9742.000000;0.520416
9741.000000;0.519782
9740.000000;0.519413
9739.000000;0.519402
9738.000000;0.519555
9737.000000;0.519509
9736.000000;0.519087
9735.000000;0.518434
9734.000000;0.517784
9733.000000;0.517266
9732.000000;0.516934
9731.000000;0.516771
9730.000000;0.516623
9729.000000;0.516279
9728.000000;0.515689
9727.000000;0.514984
9726.000000;0.514272
9725.000000;0.513570
9724.000000;0.512908
9723.000000;0.512325
9722.000000;0.511758
9721.000000;0.511140
9720.000000;0.510606
9719.000000;0.510350
9718.000000;0.510244
9717.000000;0.509890
9716.000000;0.509147
9715.000000;0.508368
9714.000000;0.507965
9713.000000;0.507952
9712.000000;0.508024
9711.000000;0.507902
9710.000000;0.507460
9709.000000;0.506711
9708.000000;0.505838
9707.000000;0.505126
9706.000000;0.504689
9705.000000;0.504355
9704.000000;0.503935
9703.000000;0.503480
9702.000000;0.503170
9701.000000;0.503034
9700.000000;0.502934
9699.000000;0.502721
9698.000000;0.502333
9697.000000;0.501794
9696.000000;0.501196
9695.000000;0.500614
9694.000000;0.500024
9693.000000;0.499367
9692.000000;0.498710
9691.000000;0.498191
9690.000000;0.497811
9689.000000;0.497433
9688.000000;0.497026
9687.000000;0.496716
9686.000000;0.496520
9685.000000;0.496228
9684.000000;0.495665
9683.000000;0.494937
9682.000000;0.494302
9681.000000;0.493904
9680.000000;0.493702
9679.000000;0.493553
9678.000000;0.493285
9677.000000;0.492817
9676.000000;0.492271
9675.000000;0.491852
9674.000000;0.491581
9673.000000;0.491277
9672.000000;0.490859
9671.000000;0.490446
9670.000000;0.490097
9669.000000;0.489640
9668.000000;0.488915
9667.000000;0.488037
9666.000000;0.487277
9665.000000;0.486780
9664.000000;0.486515
9663.000000;0.486397
9662.000000;0.486323
9661.000000;0.486167
9660.000000;0.485865
9659.000000;0.485459
9658.000000;0.484976
9657.000000;0.484357
9656.000000;0.483581
9655.000000;0.482792
9654.000000;0.482222
9653.000000;0.481991
9652.000000;0.482004
9651.000000;0.481977
9650.000000;0.481616
9649.000000;0.480887
9648.000000;0.480102
9647.000000;0.479608
9646.000000;0.479413
9645.000000;0.479239
9644.000000;0.478922
9643.000000;0.478539
9642.000000;0.478149
9641.000000;0.477680
9640.000000;0.477142
9639.000000;0.476708
9638.000000;0.476459
9637.000000;0.476223
9636.000000;0.475816
9635.000000;0.475270
9634.000000;0.474706
9633.000000;0.474133
9632.000000;0.473536
9631.000000;0.473005
9630.000000;0.472645
9629.000000;0.472431
9628.000000;0.472270
9627.000000;0.472093
9626.000000;0.471812
9625.000000;0.471321
9624.000000;0.470674
9623.000000;0.470111
9622.000000;0.469793
9621.000000;0.469610
9620.000000;0.469369
9619.000000;0.469048
9618.000000;0.468715
9617.000000;0.468343
9616.000000;0.467855
9615.000000;0.467290
9614.000000;0.466768
9613.000000;0.466324
9612.000000;0.465903
9611.000000;0.465453
9610.000000;0.464936
9609.000000;0.464312
9608.000000;0.463641
9607.000000;0.463118
9606.000000;0.462872
9605.000000;0.462743
9604.000000;0.462406
9603.000000;0.461723
9602.000000;0.460902
9601.000000;0.460281
9600.000000;0.460010
9599.000000;0.459944
9598.000000;0.459794
9597.000000;0.459393
9596.000000;0.458812
9595.000000;0.458251
9594.000000;0.457828
9593.000000;0.457504
9592.000000;0.457187
9591.000000;0.456826
9590.000000;0.456434
9589.000000;0.456081
9588.000000;0.455849
9587.000000;0.455717
9586.000000;0.455520
9585.000000;0.455113
9584.000000;0.454550
9583.000000;0.453975
9582.000000;0.453399
9581.000000;0.452733
9580.000000;0.452037
9579.000000;0.451525
9578.000000;0.451288
9577.000000;0.451183
9576.000000;0.451048
9575.000000;0.450868
9574.000000;0.450647
9573.000000;0.450286
9572.000000;0.449700
9571.000000;0.448995
9570.000000;0.448398
9569.000000;0.448057
9568.000000;0.447951
9567.000000;0.447912
9566.000000;0.447729
9565.000000;0.447287
9564.000000;0.446674
9563.000000;0.446082
9562.000000;0.445608
9561.000000;0.445227
9560.000000;0.444916
9559.000000;0.444685
9558.000000;0.444470
9557.000000;0.444143
9556.000000;0.443664
9555.000000;0.443132
9554.000000;0.442647
9553.000000;0.442239
9552.000000;0.441919
9551.000000;0.441682
9550.000000;0.441422
9549.000000;0.440988
9548.000000;0.440366
9547.000000;0.439695
9546.000000;0.439077
9545.000000;0.438491
9544.000000;0.437933
9543.000000;0.437493
9542.000000;0.437245
9541.000000;0.437150
9540.000000;0.437109
9539.000000;0.437012
9538.000000;0.436719
9537.000000;0.436133
9536.000000;0.435359
9535.000000;0.434665
9534.000000;0.434240
9533.000000;0.434051
9532.000000;0.433952
9531.000000;0.433825
9530.000000;0.433598
9529.000000;0.433249
9528.000000;0.432842
9527.000000;0.432455
9526.000000;0.432056
9525.000000;0.431565
9524.000000;0.431040
9523.000000;0.430648
9522.000000;0.430432
9521.000000;0.430236
9520.000000;0.429913
9519.000000;0.429468
9518.000000;0.428938
9517.000000;0.428291
9516.000000;0.427544
9515.000000;0.426858
9514.000000;0.426421
9513.000000;0.426267
9512.000000;0.426269
9511.000000;0.426258
9510.000000;0.426112
9509.000000;0.425798
9508.000000;0.425368
9507.000000;0.424880
9506.000000;0.424357
9505.000000;0.423851
9504.000000;0.423478
9503.000000;0.423274
9502.000000;0.423071
9501.000000;0.422660
9500.000000;0.422034
9499.000000;0.421356
9498.000000;0.420733
9497.000000;0.420180
9496.000000;0.419758
9495.000000;0.419553
9494.000000;0.419517
9493.000000;0.419496
9492.000000;0.419430
9491.000000;0.419360
9490.000000;0.419245
9489.000000;0.418950
9488.000000;0.418440
9487.000000;0.417804
9486.000000;0.417084
9485.000000;0.416263
9484.000000;0.415458
9483.000000;0.414909
9482.000000;0.414706
9481.000000;0.414678
9480.000000;0.414603
9479.000000;0.414392
9478.000000;0.414054
9477.000000;0.413637
9476.000000;0.413252
9475.000000;0.412974
9474.000000;0.412685
9473.000000;0.412193
9472.000000;0.411542
9471.000000;0.411020
9470.000000;0.410794
9469.000000;0.410694
9468.000000;0.410457
9467.000000;0.410023
9466.000000;0.409525
9465.000000;0.409118
9464.000000;0.408882
9463.000000;0.408777
9462.000000;0.408622
9461.000000;0.408244
9460.000000;0.407690
9459.000000;0.407166
9458.000000;0.406765
9457.000000;0.406410
9456.000000;0.406074
9455.000000;0.405840
9454.000000;0.405704
9453.000000;0.405507
9452.000000;0.405143
9451.000000;0.404680
9450.000000;0.404213
9449.000000;0.403774
9448.000000;0.403422
9447.000000;0.403222
9446.000000;0.403055
9445.000000;0.402668
9444.000000;0.402022
9443.000000;0.401401
9442.000000;0.401039
9441.000000;0.400814
9440.000000;0.400466
9439.000000;0.399970
9438.000000;0.399534
9437.000000;0.399311
9436.000000;0.399253
9435.000000;0.399188
9434.000000;0.398937
9433.000000;0.398447
9432.000000;0.397888
9431.000000;0.397508
9430.000000;0.397357
9429.000000;0.397221
9428.000000;0.396912
9427.000000;0.396487
9426.000000;0.396113
9425.000000;0.395837
9424.000000;0.395584
9423.000000;0.395305
9422.000000;0.395022
9421.000000;0.394778
9420.000000;0.394601
9419.000000;0.394441
9418.000000;0.394155
9417.000000;0.393653
9416.000000;0.393045
9415.000000;0.392540
9414.000000;0.392185
9413.000000;0.391851
9412.000000;0.391481
9411.000000;0.391174
9410.000000;0.390970
9409.000000;0.390727
9408.000000;0.390301
9407.000000;0.389698
9406.000000;0.388991
9405.000000;0.388263
9404.000000;0.387660
9403.000000;0.387358
9402.000000;0.387353
9401.000000;0.387432
9400.000000;0.387426
9399.000000;0.387351
9398.000000;0.387233
9397.000000;0.386972
9396.000000;0.386482
9395.000000;0.385867
9394.000000;0.385305
9393.000000;0.384882
9392.000000;0.384588
9391.000000;0.384383
9390.000000;0.384168
9389.000000;0.383815
9388.000000;0.383303
9387.000000;0.382749
9386.000000;0.382233
9385.000000;0.381721
9384.000000;0.381220
9383.000000;0.380875
9382.000000;0.380788
9381.000000;0.380846
9380.000000;0.380817
9379.000000;0.380562
9378.000000;0.380117
9377.000000;0.379623
9376.000000;0.379248
9375.000000;0.379066
9374.000000;0.378988
9373.000000;0.378869
9372.000000;0.378699
9371.000000;0.378552
9370.000000;0.378381
9369.000000;0.378038
9368.000000;0.377534
9367.000000;0.377088
9366.000000;0.376839
9365.000000;0.376680
9364.000000;0.376458
9363.000000;0.376173
9362.000000;0.375884
9361.000000;0.375566
9360.000000;0.375179
9359.000000;0.374751
9358.000000;0.374296
9357.000000;0.373780
9356.000000;0.373239
9355.000000;0.372787
9354.000000;0.372441
9353.000000;0.372073
9352.000000;0.371647
9351.000000;0.371328
9350.000000;0.371247
9349.000000;0.371271
9348.000000;0.371171
9347.000000;0.370885
9346.000000;0.370507
9345.000000;0.370103
9344.000000;0.369677
9343.000000;0.369251
9342.000000;0.368850
9341.000000;0.368477
9340.000000;0.368165
9339.000000;0.367988
9338.000000;0.367948
9337.000000;0.367935
9336.000000;0.367877
9335.000000;0.367811
9334.000000;0.367743
9333.000000;0.367552
9332.000000;0.367145
9331.000000;0.366622
9330.000000;0.366168
9329.000000;0.365835
9328.000000;0.365522
9327.000000;0.365108
9326.000000;0.364551
9325.000000;0.363925
9324.000000;0.363386
9323.000000;0.363041
9322.000000;0.362804
9321.000000;0.362498
9320.000000;0.362108
9319.000000;0.361782
9318.000000;0.361579
9317.000000;0.361375
9316.000000;0.361095
9315.000000;0.360846
9314.000000;0.360708
9313.000000;0.360556
9312.000000;0.360234
9311.000000;0.359781
9310.000000;0.359336
9309.000000;0.358953
9308.000000;0.358625
9307.000000;0.358395
9306.000000;0.358282
9305.000000;0.358171
9304.000000;0.357938
9303.000000;0.357636
9302.000000;0.357401
9301.000000;0.357239
9300.000000;0.357020
9299.000000;0.356682
9298.000000;0.356302
9297.000000;0.355963
9296.000000;0.355659
9295.000000;0.355345
9294.000000;0.355008
9293.000000;0.354673
9292.000000;0.354373
9291.000000;0.354126
9290.000000;0.353935
9289.000000;0.353797
9288.000000;0.353696
9287.000000;0.353556
9286.000000;0.353258
9285.000000;0.352779
9284.000000;0.352267
9283.000000;0.351884
9282.000000;0.351606
9281.000000;0.351308
9280.000000;0.350989
9279.000000;0.350769
9278.000000;0.350667
9277.000000;0.350566
9276.000000;0.350403
9275.000000;0.350229
9274.000000;0.350028
9273.000000;0.349691
9272.000000;0.349227
9271.000000;0.348835
9270.000000;0.348647
9269.000000;0.348547
9268.000000;0.348344
9267.000000;0.347998
9266.000000;0.347580
9265.000000;0.347150
9264.000000;0.346775
9263.000000;0.346532
9262.000000;0.346386
9261.000000;0.346179
9260.000000;0.345850
9259.000000;0.345550
9258.000000;0.345427
9257.000000;0.345412
9256.000000;0.345329
9255.000000;0.345107
9254.000000;0.344758
9253.000000;0.344275
9252.000000;0.343701
9251.000000;0.343213
9250.000000;0.342972
9249.000000;0.342920
9248.000000;0.342855
9247.000000;0.342648
9246.000000;0.342312
9245.000000;0.341901
9244.000000;0.341467
9243.000000;0.341071
9242.000000;0.340745
9241.000000;0.340453
9240.000000;0.340165
9239.000000;0.339916
9238.000000;0.339734
9237.000000;0.339578
9236.000000;0.339405
9235.000000;0.339248
9234.000000;0.339152
9233.000000;0.339072
9232.000000;0.338932
9231.000000;0.338717
9230.000000;0.338459
9229.000000;0.338179
9228.000000;0.337883
9227.000000;0.337572
9226.000000;0.337212
9225.000000;0.336777
9224.000000;0.336344
9223.000000;0.336058
9222.000000;0.335938
9221.000000;0.335848
9220.000000;0.335695
9219.000000;0.335536
9218.000000;0.335415
9217.000000;0.335239
9216.000000;0.334944
9215.000000;0.334640
9214.000000;0.334448
9213.000000;0.334262
9212.000000;0.333870
9211.000000;0.333253
9210.000000;0.332644
9209.000000;0.332283
9208.000000;0.332217
9207.000000;0.332327
9206.000000;0.332435
9205.000000;0.332392
9204.000000;0.332174
9203.000000;0.331896
9202.000000;0.331690
9201.000000;0.331557
9200.000000;0.331389
9199.000000;0.331110
9198.000000;0.330733
9197.000000;0.330318
9196.000000;0.329920
9195.000000;0.329574
9194.000000;0.329275
9193.000000;0.328984
9192.000000;0.328684
9191.000000;0.328407
9190.000000;0.328188
9189.000000;0.328022
9188.000000;0.327885
9187.000000;0.327756
9186.000000;0.327603
9185.000000;0.327411
9184.000000;0.327226
9183.000000;0.327093
9182.000000;0.326932
9181.000000;0.326592
9180.000000;0.326062
9179.000000;0.325542
9178.000000;0.325212
9177.000000;0.325039
9176.000000;0.324896
9175.000000;0.324765
9174.000000;0.324719
9173.000000;0.324719
9172.000000;0.324593
9171.000000;0.324220
9170.000000;0.323684
9169.000000;0.323193
9168.000000;0.322887
9167.000000;0.322736
9166.000000;0.322604
9165.000000;0.322414
9164.000000;0.322202
9163.000000;0.322015
9162.000000;0.321811
9161.000000;0.321538
9160.000000;0.321258
9159.000000;0.321077
9158.000000;0.320968
9157.000000;0.320797
9156.000000;0.320543
9155.000000;0.320350
9154.000000;0.320307
9153.000000;0.320291
9152.000000;0.320123
9151.000000;0.319787
9150.000000;0.319401
9149.000000;0.319050
9148.000000;0.318722
9147.000000;0.318391
9146.000000;0.318059
9145.000000;0.317755
9144.000000;0.317533
9143.000000;0.317438
9142.000000;0.317426
9141.000000;0.317364
9140.000000;0.317149
9139.000000;0.316809
9138.000000;0.316452
9137.000000;0.316159
9136.000000;0.315933
9135.000000;0.315727
9134.000000;0.315503
9133.000000;0.315291
9132.000000;0.315188
9131.000000;0.315221
9130.000000;0.315254
9129.000000;0.315108
9128.000000;0.314779
9127.000000;0.314434
9126.000000;0.314179
9125.000000;0.313950
9124.000000;0.313663
9123.000000;0.313355
9122.000000;0.313103
9121.000000;0.312909
9120.000000;0.312723
9119.000000;0.312517
9118.000000;0.312280
9117.000000;0.311999
9116.000000;0.311708
9115.000000;0.311486
9114.000000;0.311362
9113.000000;0.311275
9112.000000;0.311159
9111.000000;0.310986
9110.000000;0.310728
9109.000000;0.310359
9108.000000;0.309954
9107.000000;0.309654
9106.000000;0.309490
9105.000000;0.309322
9104.000000;0.309052
9103.000000;0.308781
9102.000000;0.308683
9101.000000;0.308764
9100.000000;0.308858
9099.000000;0.308819
9098.000000;0.308638
9097.000000;0.308396
9096.000000;0.308170
9095.000000;0.307967
9094.000000;0.307722
9093.000000;0.307389
9092.000000;0.307049
9091.000000;0.306843
9090.000000;0.306791
9089.000000;0.306735
9088.000000;0.306539
9087.000000;0.306248
9086.000000;0.305992
9085.000000;0.305804
9084.000000;0.305630
9083.000000;0.305450
9082.000000;0.305290
9081.000000;0.305132
9080.000000;0.304923
9079.000000;0.304656
9078.000000;0.304383
9077.000000;0.304134
9076.000000;0.303875
9075.000000;0.303558
9074.000000;0.303184
9073.000000;0.302825
9072.000000;0.302587
9071.000000;0.302523
9070.000000;0.302557
9069.000000;0.302520
9068.000000;0.302328
9067.000000;0.302066
9066.000000;0.301885
9065.000000;0.301815
9064.000000;0.301752
9063.000000;0.301601
9062.000000;0.301382
9061.000000;0.301176
9060.000000;0.300996
9059.000000;0.300762
9058.000000;0.300415
9057.000000;0.300026
9056.000000;0.299739
9055.000000;0.299613
9054.000000;0.299582
9053.000000;0.299575
