Criado como novo conjunto de dados;"e2410_daniel_v2.spp","53284.8 Secs"
cm-1;Abs
10000.000000;1.065632
9999.000000;1.064306
9998.000000;1.063214
9997.000000;1.062497
9996.000000;1.062004
9995.000000;1.061354
9994.000000;1.060301
9993.000000;1.059011
9992.000000;1.057861
9991.000000;1.057091
9990.000000;1.056821
9989.000000;1.057171
9988.000000;1.058024
9987.000000;1.058829
9986.000000;1.059034
9985.000000;1.058644
9984.000000;1.058034
9983.000000;1.057276
9982.000000;1.056077
9981.000000;1.054382
9980.000000;1.052636
9979.000000;1.051362
9978.000000;1.050740
9977.000000;1.050657
9976.000000;1.050866
9975.000000;1.050975
9974.000000;1.050597
9973.000000;1.049703
9972.000000;1.048715
9971.000000;1.048138
9970.000000;1.048150
9969.000000;1.048547
9968.000000;1.048899
9967.000000;1.048760
9966.000000;1.047912
9965.000000;1.046525
9964.000000;1.045052
9963.000000;1.043918
9962.000000;1.043291
9961.000000;1.043025
9960.000000;1.042795
9959.000000;1.042401
9958.000000;1.041987
9957.000000;1.041840
9956.000000;1.041927
9955.000000;1.041800
9954.000000;1.041104
9953.000000;1.040013
9952.000000;1.038985
9951.000000;1.038226
9950.000000;1.037602
9949.000000;1.036982
9948.000000;1.036470
9947.000000;1.036299
9946.000000;1.036577
9945.000000;1.037110
9944.000000;1.037417
9943.000000;1.037058
9942.000000;1.036021
9941.000000;1.034722
9940.000000;1.033582
9939.000000;1.032756
9938.000000;1.032235
9937.000000;1.031973
9936.000000;1.031807
9935.000000;1.031526
9934.000000;1.031129
9933.000000;1.030836
9932.000000;1.030737
9931.000000;1.030630
9930.000000;1.030284
9929.000000;1.029665
9928.000000;1.028827
9927.000000;1.027834
9926.000000;1.026905
9925.000000;1.026337
9924.000000;1.026150
9923.000000;1.026037
9922.000000;1.025751
9921.000000;1.025275
9920.000000;1.024593
9919.000000;1.023668
9918.000000;1.022748
9917.000000;1.022269
9916.000000;1.022229
9915.000000;1.022063
9914.000000;1.021400
9913.000000;1.020564
9912.000000;1.020042
9911.000000;1.019833
9910.000000;1.019615
9909.000000;1.019226
9908.000000;1.018641
9907.000000;1.017781
9906.000000;1.016736
9905.000000;1.015882
9904.000000;1.015438
9903.000000;1.015138
9902.000000;1.014667
9901.000000;1.014153
9900.000000;1.013866
9899.000000;1.013737
9898.000000;1.013547
9897.000000;1.013315
9896.000000;1.013088
9895.000000;1.012606
9894.000000;1.011639
9893.000000;1.010506
9892.000000;1.009774
9891.000000;1.009522
9890.000000;1.009302
9889.000000;1.008765
9888.000000;1.008003
9887.000000;1.007281
9886.000000;1.006756
9885.000000;1.006406
9884.000000;1.006023
9883.000000;1.005355
9882.000000;1.004469
9881.000000;1.003796
9880.000000;1.003586
9879.000000;1.003547
9878.000000;1.003261
9877.000000;1.002746
9876.000000;1.002269
9875.000000;1.001810
9874.000000;1.001118
9873.000000;1.000161
9872.000000;0.999151
9871.000000;0.998240
9870.000000;0.997511
9869.000000;0.997168
9868.000000;0.997368
9867.000000;0.997899
9866.000000;0.998310
9865.000000;0.998330
9864.000000;0.997953
9863.000000;0.997254
9862.000000;0.996391
9861.000000;0.995663
9860.000000;0.995249
9859.000000;0.994938
9858.000000;0.994374
9857.000000;0.993549
9856.000000;0.992798
9855.000000;0.992352
9854.000000;0.992078
9853.000000;0.991603
9852.000000;0.990604
9851.000000;0.989140
9850.000000;0.987806
9849.000000;0.987327
9848.000000;0.987759
9847.000000;0.988296
9846.000000;0.988095
9845.000000;0.987147
9844.000000;0.986088
9843.000000;0.985382
9842.000000;0.985005
9841.000000;0.984739
9840.000000;0.984424
9839.000000;0.984028
9838.000000;0.983707
9837.000000;0.983715
9836.000000;0.984030
9835.000000;0.984217
9834.000000;0.983864
9833.000000;0.983013
9832.000000;0.981986
9831.000000;0.980992
9830.000000;0.980115
9829.000000;0.979469
9828.000000;0.979070
9827.000000;0.978741
9826.000000;0.978343
9825.000000;0.977951
9824.000000;0.977634
9823.000000;0.977288
9822.000000;0.976894
9821.000000;0.976610
9820.000000;0.976389
9819.000000;0.975848
9818.000000;0.974875
9817.000000;0.974007
9816.000000;0.973769
9815.000000;0.973883
9814.000000;0.973597
9813.000000;0.972658
9812.000000;0.971517
9811.000000;0.970681
9810.000000;0.970262
9809.000000;0.970088
9808.000000;0.969905
9807.000000;0.969511
9806.000000;0.968973
9805.000000;0.968607
9804.000000;0.968504
9803.000000;0.968249
9802.000000;0.967429
9801.000000;0.966233
9800.000000;0.965201
9799.000000;0.964540
9798.000000;0.964062
9797.000000;0.963661
9796.000000;0.963416
9795.000000;0.963283
9794.000000;0.963050
9793.000000;0.962600
9792.000000;0.961982
9791.000000;0.961254
9790.000000;0.960516
9789.000000;0.959965
9788.000000;0.959682
9787.000000;0.959464
9786.000000;0.959092
9785.000000;0.958607
9784.000000;0.958066
9783.000000;0.957292
9782.000000;0.956208
9781.000000;0.955199
9780.000000;0.954708
9779.000000;0.954626
9778.000000;0.954495
9777.000000;0.954173
9776.000000;0.953861
9775.000000;0.953562
9774.000000;0.953028
9773.000000;0.952278
9772.000000;0.951730
9771.000000;0.951683
9770.000000;0.951968
9769.000000;0.952173
9768.000000;0.952001
9767.000000;0.951404
9766.000000;0.950632
9765.000000;0.950116
9764.000000;0.950040
9763.000000;0.950046
9762.000000;0.949625
9761.000000;0.948756
9760.000000;0.947873
9759.000000;0.947229
9758.000000;0.946639
9757.000000;0.945863
9756.000000;0.944946
9755.000000;0.944097
9754.000000;0.943494
9753.000000;0.943256
9752.000000;0.943391
9751.000000;0.943682
9750.000000;0.943782
9749.000000;0.943483
9748.000000;0.942831
9747.000000;0.942005
9746.000000;0.941161
9745.000000;0.940360
9744.000000;0.939527
9743.000000;0.938589
9742.000000;0.937720
9741.000000;0.937276
9740.000000;0.937310
9739.000000;0.937364
9738.000000;0.936948
9737.000000;0.936091
9736.000000;0.935193
9735.000000;0.934472
9734.000000;0.933851
9733.000000;0.933279
9732.000000;0.932897
9731.000000;0.932871
9730.000000;0.933240
9729.000000;0.933857
9728.000000;0.934331
9727.000000;0.934190
9726.000000;0.933339
9725.000000;0.932250
9724.000000;0.931475
9723.000000;0.931079
9722.000000;0.930731
9721.000000;0.930198
9720.000000;0.929529
9719.000000;0.928862
9718.000000;0.928318
9717.000000;0.927981
9716.000000;0.927750
9715.000000;0.927303
9714.000000;0.926456
9713.000000;0.925469
9712.000000;0.924775
9711.000000;0.924502
9710.000000;0.924459
9709.000000;0.924452
9708.000000;0.924348
9707.000000;0.923970
9706.000000;0.923237
9705.000000;0.922353
9704.000000;0.921619
9703.000000;0.921099
9702.000000;0.920691
9701.000000;0.920414
9700.000000;0.920357
9699.000000;0.920417
9698.000000;0.920335
9697.000000;0.920009
9696.000000;0.919530
9695.000000;0.918966
9694.000000;0.918332
9693.000000;0.917746
9692.000000;0.917395
9691.000000;0.917315
9690.000000;0.917344
9689.000000;0.917243
9688.000000;0.916792
9687.000000;0.915879
9686.000000;0.914667
9685.000000;0.913567
9684.000000;0.912879
9683.000000;0.912517
9682.000000;0.912172
9681.000000;0.911644
9680.000000;0.910930
9679.000000;0.910174
9678.000000;0.909650
9677.000000;0.909586
9676.000000;0.909820
9675.000000;0.909828
9674.000000;0.909301
9673.000000;0.908515
9672.000000;0.907950
9671.000000;0.907756
9670.000000;0.907768
9669.000000;0.907774
9668.000000;0.907515
9667.000000;0.906684
9666.000000;0.905297
9665.000000;0.903902
9664.000000;0.903063
9663.000000;0.902748
9662.000000;0.902503
9661.000000;0.902113
9660.000000;0.901754
9659.000000;0.901581
9658.000000;0.901498
9657.000000;0.901342
9656.000000;0.901019
9655.000000;0.900491
9654.000000;0.899841
9653.000000;0.899298
9652.000000;0.899015
9651.000000;0.898893
9650.000000;0.898790
9649.000000;0.898728
9648.000000;0.898652
9647.000000;0.898198
9646.000000;0.897084
9645.000000;0.895635
9644.000000;0.894556
9643.000000;0.894175
9642.000000;0.894158
9641.000000;0.893981
9640.000000;0.893456
9639.000000;0.892802
9638.000000;0.892390
9637.000000;0.892419
9636.000000;0.892713
9635.000000;0.892868
9634.000000;0.892663
9633.000000;0.892226
9632.000000;0.891712
9631.000000;0.891073
9630.000000;0.890331
9629.000000;0.889782
9628.000000;0.889610
9627.000000;0.889521
9626.000000;0.889107
9625.000000;0.888426
9624.000000;0.887847
9623.000000;0.887441
9622.000000;0.886926
9621.000000;0.886172
9620.000000;0.885382
9619.000000;0.884744
9618.000000;0.884238
9617.000000;0.883824
9616.000000;0.883524
9615.000000;0.883257
9614.000000;0.882845
9613.000000;0.882266
9612.000000;0.881706
9611.000000;0.881297
9610.000000;0.880985
9609.000000;0.880676
9608.000000;0.880369
9607.000000;0.880094
9606.000000;0.879861
9605.000000;0.879659
9604.000000;0.879405
9603.000000;0.878932
9602.000000;0.878179
9601.000000;0.877350
9600.000000;0.876739
9599.000000;0.876416
9598.000000;0.876186
9597.000000;0.875833
9596.000000;0.875272
9595.000000;0.874564
9594.000000;0.873893
9593.000000;0.873473
9592.000000;0.873332
9591.000000;0.873238
9590.000000;0.872932
9589.000000;0.872392
9588.000000;0.871788
9587.000000;0.871269
9586.000000;0.870899
9585.000000;0.870658
9584.000000;0.870403
9583.000000;0.869971
9582.000000;0.869438
9581.000000;0.869121
9580.000000;0.869175
9579.000000;0.869347
9578.000000;0.869267
9577.000000;0.868839
9576.000000;0.868216
9575.000000;0.867561
9574.000000;0.867012
9573.000000;0.866697
9572.000000;0.866570
9571.000000;0.866382
9570.000000;0.866012
9569.000000;0.865636
9568.000000;0.865383
9567.000000;0.865048
9566.000000;0.864380
9565.000000;0.863499
9564.000000;0.862733
9563.000000;0.862167
9562.000000;0.861628
9561.000000;0.861006
9560.000000;0.860352
9559.000000;0.859735
9558.000000;0.859245
9557.000000;0.859020
9556.000000;0.859053
9555.000000;0.859056
9554.000000;0.858744
9553.000000;0.858170
9552.000000;0.857574
9551.000000;0.857010
9550.000000;0.856396
9549.000000;0.855796
9548.000000;0.855388
9547.000000;0.855170
9546.000000;0.854944
9545.000000;0.854590
9544.000000;0.854157
9543.000000;0.853718
9542.000000;0.853288
9541.000000;0.852850
9540.000000;0.852344
9539.000000;0.851709
9538.000000;0.851031
9537.000000;0.850520
9536.000000;0.850192
9535.000000;0.849770
9534.000000;0.849092
9533.000000;0.848447
9532.000000;0.848253
9531.000000;0.848529
9530.000000;0.848925
9529.000000;0.849143
9528.000000;0.849114
9527.000000;0.848892
9526.000000;0.848616
9525.000000;0.848484
9524.000000;0.848511
9523.000000;0.848387
9522.000000;0.847797
9521.000000;0.846798
9520.000000;0.845692
9519.000000;0.844700
9518.000000;0.843981
9517.000000;0.843755
9516.000000;0.844021
9515.000000;0.844288
9514.000000;0.843968
9513.000000;0.843052
9512.000000;0.842075
9511.000000;0.841441
9510.000000;0.841125
9509.000000;0.840987
9508.000000;0.840982
9507.000000;0.840957
9506.000000;0.840593
9505.000000;0.839770
9504.000000;0.838782
9503.000000;0.838055
9502.000000;0.837751
9501.000000;0.837726
9500.000000;0.837749
9499.000000;0.837660
9498.000000;0.837412
9497.000000;0.837029
9496.000000;0.836543
9495.000000;0.835978
9494.000000;0.835420
9493.000000;0.834973
9492.000000;0.834577
9491.000000;0.833997
9490.000000;0.833149
9489.000000;0.832350
9488.000000;0.832027
9487.000000;0.832229
9486.000000;0.832550
9485.000000;0.832535
9484.000000;0.832040
9483.000000;0.831249
9482.000000;0.830474
9481.000000;0.829912
9480.000000;0.829470
9479.000000;0.828867
9478.000000;0.827971
9477.000000;0.826999
9476.000000;0.826295
9475.000000;0.826022
9474.000000;0.826127
9473.000000;0.826435
9472.000000;0.826662
9471.000000;0.826513
9470.000000;0.825996
9469.000000;0.825544
9468.000000;0.825603
9467.000000;0.826124
9466.000000;0.826596
9465.000000;0.826565
9464.000000;0.825988
9463.000000;0.825146
9462.000000;0.824362
9461.000000;0.823794
9460.000000;0.823377
9459.000000;0.822949
9458.000000;0.822457
9457.000000;0.821940
9456.000000;0.821340
9455.000000;0.820506
9454.000000;0.819507
9453.000000;0.818735
9452.000000;0.818533
9451.000000;0.818811
9450.000000;0.819166
9449.000000;0.819230
9448.000000;0.818830
9447.000000;0.818012
9446.000000;0.817083
9445.000000;0.816467
9444.000000;0.816307
9443.000000;0.816328
9442.000000;0.816240
9441.000000;0.816066
9440.000000;0.815891
9439.000000;0.815513
9438.000000;0.814700
9437.000000;0.813652
9436.000000;0.812864
9435.000000;0.812551
9434.000000;0.812489
9433.000000;0.812414
9432.000000;0.812326
9431.000000;0.812341
9430.000000;0.812459
9429.000000;0.812566
9428.000000;0.812549
9427.000000;0.812357
9426.000000;0.812025
9425.000000;0.811620
9424.000000;0.811115
9423.000000;0.810388
9422.000000;0.809413
9421.000000;0.808392
9420.000000;0.807605
9419.000000;0.807199
9418.000000;0.807161
9417.000000;0.807372
9416.000000;0.807597
9415.000000;0.807593
9414.000000;0.807324
9413.000000;0.806964
9412.000000;0.806596
9411.000000;0.806066
9410.000000;0.805252
9409.000000;0.804287
9408.000000;0.803358
9407.000000;0.802493
9406.000000;0.801732
9405.000000;0.801309
9404.000000;0.801405
9403.000000;0.801819
9402.000000;0.802108
9401.000000;0.802000
9400.000000;0.801529
9399.000000;0.800879
9398.000000;0.800305
9397.000000;0.800070
9396.000000;0.800204
9395.000000;0.800369
9394.000000;0.800181
9393.000000;0.799640
9392.000000;0.799072
9391.000000;0.798729
9390.000000;0.798571
9389.000000;0.798388
9388.000000;0.797955
9387.000000;0.797186
9386.000000;0.796267
9385.000000;0.795573
9384.000000;0.795279
9383.000000;0.795170
9382.000000;0.795010
9381.000000;0.794926
9380.000000;0.795175
9379.000000;0.795616
9378.000000;0.795725
9377.000000;0.795162
9376.000000;0.794109
9375.000000;0.793015
9374.000000;0.792204
9373.000000;0.791755
9372.000000;0.791590
9371.000000;0.791558
9370.000000;0.791506
9369.000000;0.791317
9368.000000;0.790918
9367.000000;0.790330
9366.000000;0.789752
9365.000000;0.789445
9364.000000;0.789428
9363.000000;0.789398
9362.000000;0.789086
9361.000000;0.788566
9360.000000;0.788092
9359.000000;0.787761
9358.000000;0.787494
9357.000000;0.787238
9356.000000;0.786986
9355.000000;0.786680
9354.000000;0.786279
9353.000000;0.785891
9352.000000;0.785664
9351.000000;0.785563
9350.000000;0.785398
9349.000000;0.785059
9348.000000;0.784592
9347.000000;0.784098
9346.000000;0.783669
9345.000000;0.783417
9344.000000;0.783410
9343.000000;0.783572
9342.000000;0.783674
9341.000000;0.783451
9340.000000;0.782755
9339.000000;0.781714
9338.000000;0.780748
9337.000000;0.780257
9336.000000;0.780212
9335.000000;0.780182
9334.000000;0.779833
9333.000000;0.779267
9332.000000;0.778785
9331.000000;0.778498
9330.000000;0.778320
9329.000000;0.778170
9328.000000;0.777993
9327.000000;0.777711
9326.000000;0.777303
9325.000000;0.776909
9324.000000;0.776688
9323.000000;0.776648
9322.000000;0.776698
9321.000000;0.776781
9320.000000;0.776857
9319.000000;0.776829
9318.000000;0.776587
9317.000000;0.776107
9316.000000;0.775454
9315.000000;0.774773
9314.000000;0.774250
9313.000000;0.773936
9312.000000;0.773606
9311.000000;0.772994
9310.000000;0.772212
9309.000000;0.771695
9308.000000;0.771647
9307.000000;0.771783
9306.000000;0.771745
9305.000000;0.771487
9304.000000;0.771123
9303.000000;0.770647
9302.000000;0.770067
9301.000000;0.769592
9300.000000;0.769425
9299.000000;0.769472
9298.000000;0.769479
9297.000000;0.769323
9296.000000;0.768997
9295.000000;0.768475
9294.000000;0.767811
9293.000000;0.767251
9292.000000;0.767006
9291.000000;0.766986
9290.000000;0.766934
9289.000000;0.766736
9288.000000;0.766427
9287.000000;0.766013
9286.000000;0.765462
9285.000000;0.764825
9284.000000;0.764214
9283.000000;0.763760
9282.000000;0.763649
9281.000000;0.764010
9280.000000;0.764628
9279.000000;0.764988
9278.000000;0.764834
9277.000000;0.764475
9276.000000;0.764300
9275.000000;0.764193
9274.000000;0.763746
9273.000000;0.762904
9272.000000;0.762043
9271.000000;0.761454
9270.000000;0.761064
9269.000000;0.760681
9268.000000;0.760262
9267.000000;0.759871
9266.000000;0.759584
9265.000000;0.759474
9264.000000;0.759533
9263.000000;0.759588
9262.000000;0.759422
9261.000000;0.759002
9260.000000;0.758471
9259.000000;0.757937
9258.000000;0.757397
9257.000000;0.756870
9256.000000;0.756467
9255.000000;0.756321
9254.000000;0.756466
9253.000000;0.756772
9252.000000;0.756968
9251.000000;0.756827
9250.000000;0.756386
9249.000000;0.755901
9248.000000;0.755541
9247.000000;0.755242
9246.000000;0.754856
9245.000000;0.754309
9244.000000;0.753566
9243.000000;0.752661
9242.000000;0.751850
9241.000000;0.751498
9240.000000;0.751679
9239.000000;0.752050
9238.000000;0.752244
9237.000000;0.752207
9236.000000;0.752036
9235.000000;0.751730
9234.000000;0.751332
9233.000000;0.751045
9232.000000;0.750959
9231.000000;0.750831
9230.000000;0.750403
9229.000000;0.749802
9228.000000;0.749326
9227.000000;0.748991
9226.000000;0.748602
9225.000000;0.748184
9224.000000;0.748011
9223.000000;0.748198
9222.000000;0.748537
9221.000000;0.748744
9220.000000;0.748666
9219.000000;0.748262
9218.000000;0.747618
9217.000000;0.746982
9216.000000;0.746598
9215.000000;0.746434
9214.000000;0.746250
9213.000000;0.745914
9212.000000;0.745514
9211.000000;0.745158
9210.000000;0.744852
9209.000000;0.744588
9208.000000;0.744385
9207.000000;0.744213
9206.000000;0.743978
9205.000000;0.743636
9204.000000;0.743223
9203.000000;0.742788
9202.000000;0.742370
9201.000000;0.742010
9200.000000;0.741689
9199.000000;0.741328
9198.000000;0.740923
9197.000000;0.740632
9196.000000;0.740595
9195.000000;0.740712
9194.000000;0.740756
9193.000000;0.740663
9192.000000;0.740577
9191.000000;0.740606
9190.000000;0.740663
9189.000000;0.740570
9188.000000;0.740252
9187.000000;0.739823
9186.000000;0.739502
9185.000000;0.739430
9184.000000;0.739486
9183.000000;0.739357
9182.000000;0.738854
9181.000000;0.738159
9180.000000;0.737663
9179.000000;0.737587
9178.000000;0.737781
9177.000000;0.737892
9176.000000;0.737708
9175.000000;0.737351
9174.000000;0.737105
9173.000000;0.737060
9172.000000;0.736982
9171.000000;0.736598
9170.000000;0.735938
9169.000000;0.735251
9168.000000;0.734692
9167.000000;0.734255
9166.000000;0.733962
9165.000000;0.733841
9164.000000;0.733721
9163.000000;0.733321
9162.000000;0.732636
9161.000000;0.731990
9160.000000;0.731632
9159.000000;0.731513
9158.000000;0.731518
9157.000000;0.731657
9156.000000;0.731863
9155.000000;0.731865
9154.000000;0.731490
9153.000000;0.730913
9152.000000;0.730435
9151.000000;0.730166
9150.000000;0.730072
9149.000000;0.730128
9148.000000;0.730223
9147.000000;0.730092
9146.000000;0.729619
9145.000000;0.729074
9144.000000;0.728842
9143.000000;0.728964
9142.000000;0.729153
9141.000000;0.729188
9140.000000;0.729071
9139.000000;0.728861
9138.000000;0.728546
9137.000000;0.728122
9136.000000;0.727642
9135.000000;0.727162
9134.000000;0.726699
9133.000000;0.726278
9132.000000;0.725955
9131.000000;0.725801
9130.000000;0.725862
9129.000000;0.726055
9128.000000;0.726149
9127.000000;0.725949
9126.000000;0.725528
9125.000000;0.725157
9124.000000;0.725011
9123.000000;0.725047
9122.000000;0.725159
9121.000000;0.725245
9120.000000;0.725113
9119.000000;0.724578
9118.000000;0.723729
9117.000000;0.722905
9116.000000;0.722310
9115.000000;0.721844
9114.000000;0.721387
9113.000000;0.721008
9112.000000;0.720801
9111.000000;0.720736
9110.000000;0.720784
9109.000000;0.720967
9108.000000;0.721150
9107.000000;0.721028
9106.000000;0.720499
9105.000000;0.719853
9104.000000;0.719420
9103.000000;0.719214
9102.000000;0.719093
9101.000000;0.719058
9100.000000;0.719154
9099.000000;0.719257
9098.000000;0.719182
9097.000000;0.718922
9096.000000;0.718595
9095.000000;0.718248
9094.000000;0.717883
9093.000000;0.717566
9092.000000;0.717363
9091.000000;0.717242
9090.000000;0.717132
9089.000000;0.716977
9088.000000;0.716679
9087.000000;0.716165
9086.000000;0.715616
9085.000000;0.715395
9084.000000;0.715608
9083.000000;0.715925
9082.000000;0.715995
9081.000000;0.715835
9080.000000;0.715647
9079.000000;0.715445
9078.000000;0.715097
9077.000000;0.714586
9076.000000;0.714012
9075.000000;0.713466
9074.000000;0.713064
9073.000000;0.712958
9072.000000;0.713143
9071.000000;0.713367
9070.000000;0.713407
9069.000000;0.713311
9068.000000;0.713219
9067.000000;0.713123
9066.000000;0.712961
9065.000000;0.712785
9064.000000;0.712624
9063.000000;0.712347
9062.000000;0.711870
9061.000000;0.711352
9060.000000;0.711023
9059.000000;0.710919
9058.000000;0.710956
9057.000000;0.711092
9056.000000;0.711234
9055.000000;0.711149
9054.000000;0.710709
9053.000000;0.710099
