Criado como novo conjunto de dados;"e2410_daniel_v2.spp","51124.4 Secs"
cm-1;Abs
10000.000000;1.040439
9999.000000;1.039107
9998.000000;1.037779
9997.000000;1.036456
9996.000000;1.035135
9995.000000;1.033821
9994.000000;1.032505
9993.000000;1.031205
9992.000000;1.029888
9991.000000;1.028612
9990.000000;1.027261
9989.000000;1.026298
9988.000000;1.025984
9987.000000;1.025568
9986.000000;1.024675
9985.000000;1.023861
9984.000000;1.023740
9983.000000;1.024028
9982.000000;1.024046
9981.000000;1.023584
9980.000000;1.022833
9979.000000;1.021973
9978.000000;1.021230
9977.000000;1.020877
9976.000000;1.020788
9975.000000;1.020438
9974.000000;1.019655
9973.000000;1.018939
9972.000000;1.018753
9971.000000;1.018923
9970.000000;1.018980
9969.000000;1.018677
9968.000000;1.017980
9967.000000;1.017003
9966.000000;1.016116
9965.000000;1.015674
9964.000000;1.015486
9963.000000;1.015033
9962.000000;1.014265
9961.000000;1.013635
9960.000000;1.013282
9959.000000;1.012831
9958.000000;1.012118
9957.000000;1.011447
9956.000000;1.010952
9955.000000;1.010367
9954.000000;1.009600
9953.000000;1.008921
9952.000000;1.008416
9951.000000;1.007843
9950.000000;1.007192
9949.000000;1.006752
9948.000000;1.006490
9947.000000;1.006000
9946.000000;1.005248
9945.000000;1.004703
9944.000000;1.004544
9943.000000;1.004389
9942.000000;1.003979
9941.000000;1.003497
9940.000000;1.003024
9939.000000;1.002375
9938.000000;1.001634
9937.000000;1.001158
9936.000000;1.000836
9935.000000;1.000069
9934.000000;0.998764
9933.000000;0.997671
9932.000000;0.997375
9931.000000;0.997580
9930.000000;0.997665
9929.000000;0.997412
9928.000000;0.996861
9927.000000;0.996001
9926.000000;0.994938
9925.000000;0.993925
9924.000000;0.993056
9923.000000;0.992296
9922.000000;0.991849
9921.000000;0.991930
9920.000000;0.992154
9919.000000;0.991822
9918.000000;0.990902
9917.000000;0.990068
9916.000000;0.989647
9915.000000;0.989263
9914.000000;0.988669
9913.000000;0.988157
9912.000000;0.987888
9911.000000;0.987534
9910.000000;0.986910
9909.000000;0.986343
9908.000000;0.986037
9907.000000;0.985663
9906.000000;0.984921
9905.000000;0.984047
9904.000000;0.983485
9903.000000;0.983403
9902.000000;0.983672
9901.000000;0.983925
9900.000000;0.983615
9899.000000;0.982527
9898.000000;0.981255
9897.000000;0.980606
9896.000000;0.980546
9895.000000;0.980300
9894.000000;0.979479
9893.000000;0.978452
9892.000000;0.977628
9891.000000;0.977100
9890.000000;0.976992
9889.000000;0.977405
9888.000000;0.977891
9887.000000;0.977716
9886.000000;0.976791
9885.000000;0.975743
9884.000000;0.975035
9883.000000;0.974675
9882.000000;0.974705
9881.000000;0.975087
9880.000000;0.975129
9879.000000;0.973980
9878.000000;0.971909
9877.000000;0.970206
9876.000000;0.969601
9875.000000;0.969632
9874.000000;0.969684
9873.000000;0.969739
9872.000000;0.969816
9871.000000;0.969557
9870.000000;0.968821
9869.000000;0.967967
9868.000000;0.967193
9867.000000;0.966291
9866.000000;0.965330
9865.000000;0.964810
9864.000000;0.964803
9863.000000;0.964663
9862.000000;0.963972
9861.000000;0.963142
9860.000000;0.962711
9859.000000;0.962636
9858.000000;0.962599
9857.000000;0.962447
9856.000000;0.962080
9855.000000;0.961426
9854.000000;0.960725
9853.000000;0.960300
9852.000000;0.959918
9851.000000;0.959022
9850.000000;0.957678
9849.000000;0.956588
9848.000000;0.956024
9847.000000;0.955507
9846.000000;0.954729
9845.000000;0.954034
9844.000000;0.953737
9843.000000;0.953701
9842.000000;0.953796
9841.000000;0.954069
9840.000000;0.954206
9839.000000;0.953589
9838.000000;0.952202
9837.000000;0.950818
9836.000000;0.950016
9835.000000;0.949680
9834.000000;0.949627
9833.000000;0.949931
9832.000000;0.950373
9831.000000;0.950342
9830.000000;0.949647
9829.000000;0.948774
9828.000000;0.948055
9827.000000;0.947301
9826.000000;0.946506
9825.000000;0.946088
9824.000000;0.946080
9823.000000;0.945817
9822.000000;0.944869
9821.000000;0.943626
9820.000000;0.942601
9819.000000;0.941814
9818.000000;0.941248
9817.000000;0.941185
9816.000000;0.941607
9815.000000;0.941860
9814.000000;0.941421
9813.000000;0.940530
9812.000000;0.939687
9811.000000;0.938989
9810.000000;0.938332
9809.000000;0.937790
9808.000000;0.937460
9807.000000;0.937292
9806.000000;0.937287
9805.000000;0.937450
9804.000000;0.937466
9803.000000;0.936937
9802.000000;0.936061
9801.000000;0.935490
9800.000000;0.935377
9799.000000;0.935183
9798.000000;0.934546
9797.000000;0.933730
9796.000000;0.933026
9795.000000;0.932405
9794.000000;0.931901
9793.000000;0.931682
9792.000000;0.931513
9791.000000;0.930846
9790.000000;0.929679
9789.000000;0.928660
9788.000000;0.928165
9787.000000;0.927925
9786.000000;0.927729
9785.000000;0.927738
9784.000000;0.927877
9783.000000;0.927645
9782.000000;0.926828
9781.000000;0.925767
9780.000000;0.924710
9779.000000;0.923619
9778.000000;0.922781
9777.000000;0.922781
9776.000000;0.923541
9775.000000;0.924140
9774.000000;0.923935
9773.000000;0.923184
9772.000000;0.922299
9771.000000;0.921282
9770.000000;0.920239
9769.000000;0.919612
9768.000000;0.919455
9767.000000;0.919192
9766.000000;0.918533
9765.000000;0.917939
9764.000000;0.917779
9763.000000;0.917693
9762.000000;0.917258
9761.000000;0.916639
9760.000000;0.916111
9759.000000;0.915590
9758.000000;0.915061
9757.000000;0.914825
9756.000000;0.914857
9755.000000;0.914548
9754.000000;0.913568
9753.000000;0.912432
9752.000000;0.911724
9751.000000;0.911338
9750.000000;0.910929
9749.000000;0.910577
9748.000000;0.910491
9747.000000;0.910513
9746.000000;0.910372
9745.000000;0.910043
9744.000000;0.909529
9743.000000;0.908730
9742.000000;0.907834
9741.000000;0.907323
9740.000000;0.907252
9739.000000;0.907038
9738.000000;0.906300
9737.000000;0.905385
9736.000000;0.904725
9735.000000;0.904229
9734.000000;0.903718
9733.000000;0.903368
9732.000000;0.903276
9731.000000;0.903051
9730.000000;0.902327
9729.000000;0.901313
9728.000000;0.900434
9727.000000;0.899797
9726.000000;0.899310
9725.000000;0.898907
9724.000000;0.898417
9723.000000;0.897667
9722.000000;0.896959
9721.000000;0.896908
9720.000000;0.897499
9719.000000;0.897861
9718.000000;0.897346
9717.000000;0.896323
9716.000000;0.895501
9715.000000;0.894983
9714.000000;0.894443
9713.000000;0.893785
9712.000000;0.893131
9711.000000;0.892520
9710.000000;0.892019
9709.000000;0.891832
9708.000000;0.891961
9707.000000;0.892050
9706.000000;0.891840
9705.000000;0.891465
9704.000000;0.891079
9703.000000;0.890586
9702.000000;0.889976
9701.000000;0.889485
9700.000000;0.889155
9699.000000;0.888661
9698.000000;0.887856
9697.000000;0.887087
9696.000000;0.886676
9695.000000;0.886463
9694.000000;0.886164
9693.000000;0.885807
9692.000000;0.885500
9691.000000;0.885131
9690.000000;0.884561
9689.000000;0.883878
9688.000000;0.883235
9687.000000;0.882692
9686.000000;0.882320
9685.000000;0.882161
9684.000000;0.881987
9683.000000;0.881460
9682.000000;0.880597
9681.000000;0.879725
9680.000000;0.878971
9679.000000;0.878257
9678.000000;0.877754
9677.000000;0.877763
9676.000000;0.878093
9675.000000;0.878154
9674.000000;0.877811
9673.000000;0.877521
9672.000000;0.877499
9671.000000;0.877374
9670.000000;0.876893
9669.000000;0.876298
9668.000000;0.875723
9667.000000;0.874853
9666.000000;0.873550
9665.000000;0.872270
9664.000000;0.871512
9663.000000;0.871245
9662.000000;0.871165
9661.000000;0.871077
9660.000000;0.870810
9659.000000;0.870201
9658.000000;0.869410
9657.000000;0.868839
9656.000000;0.868574
9655.000000;0.868321
9654.000000;0.867987
9653.000000;0.867807
9652.000000;0.867747
9651.000000;0.867410
9650.000000;0.866754
9649.000000;0.866300
9648.000000;0.866342
9647.000000;0.866479
9646.000000;0.866237
9645.000000;0.865634
9644.000000;0.864856
9643.000000;0.863900
9642.000000;0.862848
9641.000000;0.862010
9640.000000;0.861465
9639.000000;0.860919
9638.000000;0.860256
9637.000000;0.859768
9636.000000;0.859619
9635.000000;0.859558
9634.000000;0.859399
9633.000000;0.859257
9632.000000;0.859089
9631.000000;0.858580
9630.000000;0.857799
9629.000000;0.857373
9628.000000;0.857618
9627.000000;0.857986
9626.000000;0.857764
9625.000000;0.856887
9624.000000;0.855723
9623.000000;0.854534
9622.000000;0.853535
9621.000000;0.853040
9620.000000;0.853082
9619.000000;0.853190
9618.000000;0.852926
9617.000000;0.852384
9616.000000;0.851900
9615.000000;0.851542
9614.000000;0.851145
9613.000000;0.850590
9612.000000;0.849834
9611.000000;0.848966
9610.000000;0.848361
9609.000000;0.848412
9608.000000;0.848948
9607.000000;0.849301
9606.000000;0.849092
9605.000000;0.848557
9604.000000;0.847974
9603.000000;0.847282
9602.000000;0.846473
9601.000000;0.845844
9600.000000;0.845529
9599.000000;0.845206
9598.000000;0.844570
9597.000000;0.843751
9596.000000;0.843013
9595.000000;0.842413
9594.000000;0.841976
9593.000000;0.841830
9592.000000;0.841921
9591.000000;0.841942
9590.000000;0.841722
9589.000000;0.841387
9588.000000;0.840999
9587.000000;0.840437
9586.000000;0.839785
9585.000000;0.839382
9584.000000;0.839292
9583.000000;0.839163
9582.000000;0.838807
9581.000000;0.838467
9580.000000;0.838264
9579.000000;0.837828
9578.000000;0.836822
9577.000000;0.835497
9576.000000;0.834420
9575.000000;0.833921
9574.000000;0.833972
9573.000000;0.834326
9572.000000;0.834590
9571.000000;0.834435
9570.000000;0.833905
9569.000000;0.833285
9568.000000;0.832666
9567.000000;0.831962
9566.000000;0.831319
9565.000000;0.831026
9564.000000;0.830990
9563.000000;0.830778
9562.000000;0.830249
9561.000000;0.829688
9560.000000;0.829211
9559.000000;0.828600
9558.000000;0.827840
9557.000000;0.827271
9556.000000;0.827008
9555.000000;0.826732
9554.000000;0.826268
9553.000000;0.825878
9552.000000;0.825744
9551.000000;0.825643
9550.000000;0.825369
9549.000000;0.825012
9548.000000;0.824618
9547.000000;0.824035
9546.000000;0.823332
9545.000000;0.822915
9544.000000;0.822959
9543.000000;0.823109
9542.000000;0.822976
9541.000000;0.822546
9540.000000;0.821926
9539.000000;0.821106
9538.000000;0.820217
9537.000000;0.819572
9536.000000;0.819217
9535.000000;0.818821
9534.000000;0.818218
9533.000000;0.817658
9532.000000;0.817324
9531.000000;0.817011
9530.000000;0.816535
9529.000000;0.816058
9528.000000;0.815761
9527.000000;0.815546
9526.000000;0.815279
9525.000000;0.815001
9524.000000;0.814732
9523.000000;0.814397
9522.000000;0.814090
9521.000000;0.814055
9520.000000;0.814210
9519.000000;0.814081
9518.000000;0.813404
9517.000000;0.812438
9516.000000;0.811545
9515.000000;0.810829
9514.000000;0.810322
9513.000000;0.810102
9512.000000;0.810028
9511.000000;0.809741
9510.000000;0.809155
9509.000000;0.808603
9508.000000;0.808327
9507.000000;0.808166
9506.000000;0.807890
9505.000000;0.807514
9504.000000;0.807109
9503.000000;0.806680
9502.000000;0.806362
9501.000000;0.806365
9500.000000;0.806567
9499.000000;0.806492
9498.000000;0.805894
9497.000000;0.805058
9496.000000;0.804388
9495.000000;0.804014
9494.000000;0.803865
9493.000000;0.803762
9492.000000;0.803393
9491.000000;0.802575
9490.000000;0.801632
9489.000000;0.801117
9488.000000;0.801078
9487.000000;0.801020
9486.000000;0.800664
9485.000000;0.800269
9484.000000;0.800090
9483.000000;0.800003
9482.000000;0.799837
9481.000000;0.799617
9480.000000;0.799288
9479.000000;0.798617
9478.000000;0.797601
9477.000000;0.796603
9476.000000;0.795895
9475.000000;0.795421
9474.000000;0.795121
9473.000000;0.795079
9472.000000;0.795202
9471.000000;0.795147
9470.000000;0.794784
9469.000000;0.794351
9468.000000;0.794017
9467.000000;0.793651
9466.000000;0.793184
9465.000000;0.792809
9464.000000;0.792630
9463.000000;0.792439
9462.000000;0.792027
9461.000000;0.791439
9460.000000;0.790802
9459.000000;0.790200
9458.000000;0.789778
9457.000000;0.789626
9456.000000;0.789526
9455.000000;0.789148
9454.000000;0.788568
9453.000000;0.788184
9452.000000;0.788068
9451.000000;0.787849
9450.000000;0.787324
9449.000000;0.786745
9448.000000;0.786348
9447.000000;0.786026
9446.000000;0.785602
9445.000000;0.785078
9444.000000;0.784482
9443.000000;0.783823
9442.000000;0.783286
9441.000000;0.783086
9440.000000;0.783074
9439.000000;0.782858
9438.000000;0.782407
9437.000000;0.782118
9436.000000;0.782197
9435.000000;0.782396
9434.000000;0.782420
9433.000000;0.782195
9432.000000;0.781673
9431.000000;0.780830
9430.000000;0.779928
9429.000000;0.779329
9428.000000;0.778957
9427.000000;0.778400
9426.000000;0.777610
9425.000000;0.777007
9424.000000;0.776782
9423.000000;0.776632
9422.000000;0.776368
9421.000000;0.776234
9420.000000;0.776399
9419.000000;0.776588
9418.000000;0.776495
9417.000000;0.776162
9416.000000;0.775714
9415.000000;0.775097
9414.000000;0.774354
9413.000000;0.773788
9412.000000;0.773610
9411.000000;0.773676
9410.000000;0.773728
9409.000000;0.773628
9408.000000;0.773259
9407.000000;0.772541
9406.000000;0.771667
9405.000000;0.771008
9404.000000;0.770659
9403.000000;0.770373
9402.000000;0.769988
9401.000000;0.769593
9400.000000;0.769245
9399.000000;0.768877
9398.000000;0.768525
9397.000000;0.768259
9396.000000;0.767908
9395.000000;0.767272
9394.000000;0.766615
9393.000000;0.766438
9392.000000;0.766721
9391.000000;0.766891
9390.000000;0.766635
9389.000000;0.766232
9388.000000;0.765940
9387.000000;0.765598
9386.000000;0.765043
9385.000000;0.764420
9384.000000;0.763870
9383.000000;0.763330
9382.000000;0.762841
9381.000000;0.762633
9380.000000;0.762697
9379.000000;0.762662
9378.000000;0.762311
9377.000000;0.761828
9376.000000;0.761404
9375.000000;0.760996
9374.000000;0.760615
9373.000000;0.760438
9372.000000;0.760445
9371.000000;0.760346
9370.000000;0.760037
9369.000000;0.759747
9368.000000;0.759575
9367.000000;0.759292
9366.000000;0.758807
9365.000000;0.758421
9364.000000;0.758388
9363.000000;0.758548
9362.000000;0.758591
9361.000000;0.758366
9360.000000;0.757792
9359.000000;0.756846
9358.000000;0.755810
9357.000000;0.755148
9356.000000;0.754960
9355.000000;0.754864
9354.000000;0.754571
9353.000000;0.754227
9352.000000;0.754040
9351.000000;0.753913
9350.000000;0.753643
9349.000000;0.753204
9348.000000;0.752672
9347.000000;0.752148
9346.000000;0.751827
9345.000000;0.751847
9344.000000;0.751987
9343.000000;0.751847
9342.000000;0.751384
9341.000000;0.750917
9340.000000;0.750577
9339.000000;0.750150
9338.000000;0.749537
9337.000000;0.748916
9336.000000;0.748355
9335.000000;0.747704
9334.000000;0.747011
9333.000000;0.746614
9332.000000;0.746638
9331.000000;0.746774
9330.000000;0.746741
9329.000000;0.746575
9328.000000;0.746318
9327.000000;0.745831
9326.000000;0.745136
9325.000000;0.744591
9324.000000;0.744458
9323.000000;0.744568
9322.000000;0.744571
9321.000000;0.744299
9320.000000;0.743788
9319.000000;0.743234
9318.000000;0.742996
9317.000000;0.743288
9316.000000;0.743774
9315.000000;0.743802
9314.000000;0.743162
9313.000000;0.742250
9312.000000;0.741441
9311.000000;0.740708
9310.000000;0.740000
9309.000000;0.739543
9308.000000;0.739504
9307.000000;0.739677
9306.000000;0.739730
9305.000000;0.739555
9304.000000;0.739235
9303.000000;0.738909
9302.000000;0.738749
9301.000000;0.738801
9300.000000;0.738793
9299.000000;0.738392
9298.000000;0.737710
9297.000000;0.737218
9296.000000;0.737107
9295.000000;0.737095
9294.000000;0.736918
9293.000000;0.736612
9292.000000;0.736231
9291.000000;0.735696
9290.000000;0.735073
9289.000000;0.734633
9288.000000;0.734462
9287.000000;0.734321
9286.000000;0.734039
9285.000000;0.733736
9284.000000;0.733520
9283.000000;0.733266
9282.000000;0.732847
9281.000000;0.732334
9280.000000;0.731856
9279.000000;0.731494
9278.000000;0.731348
9277.000000;0.731429
9276.000000;0.731449
9275.000000;0.731033
9274.000000;0.730199
9273.000000;0.729353
9272.000000;0.728794
9271.000000;0.728505
9270.000000;0.728418
9269.000000;0.728523
9268.000000;0.728688
9267.000000;0.728713
9266.000000;0.728608
9265.000000;0.728492
9264.000000;0.728236
9263.000000;0.727606
9262.000000;0.726754
9261.000000;0.726153
9260.000000;0.725971
9259.000000;0.725927
9258.000000;0.725788
9257.000000;0.725610
9256.000000;0.725408
9255.000000;0.725046
9254.000000;0.724570
9253.000000;0.724243
9252.000000;0.724104
9251.000000;0.723860
9250.000000;0.723353
9249.000000;0.722772
9248.000000;0.722292
9247.000000;0.721853
9246.000000;0.721443
9245.000000;0.721236
9244.000000;0.721285
9243.000000;0.721364
9242.000000;0.721271
9241.000000;0.721038
9240.000000;0.720749
9239.000000;0.720406
9238.000000;0.720039
9237.000000;0.719712
9236.000000;0.719390
9235.000000;0.719023
9234.000000;0.718738
9233.000000;0.718658
9232.000000;0.718598
9231.000000;0.718285
9230.000000;0.717818
9229.000000;0.717518
9228.000000;0.717383
9227.000000;0.717103
9226.000000;0.716600
9225.000000;0.716109
9224.000000;0.715719
9223.000000;0.715278
9222.000000;0.714804
9221.000000;0.714545
9220.000000;0.714536
9219.000000;0.714495
9218.000000;0.714253
9217.000000;0.713938
9216.000000;0.713695
9215.000000;0.713557
9214.000000;0.713624
9213.000000;0.713945
9212.000000;0.714229
9211.000000;0.714060
9210.000000;0.713460
9209.000000;0.712840
9208.000000;0.712401
9207.000000;0.712000
9206.000000;0.711599
9205.000000;0.711376
9204.000000;0.711345
9203.000000;0.711289
9202.000000;0.711140
9201.000000;0.710995
9200.000000;0.710756
9199.000000;0.710221
9198.000000;0.709575
9197.000000;0.709282
9196.000000;0.709426
9195.000000;0.709619
9194.000000;0.709615
9193.000000;0.709532
9192.000000;0.709375
9191.000000;0.708914
9190.000000;0.708197
9189.000000;0.707664
9188.000000;0.707547
9187.000000;0.707574
9186.000000;0.707453
9185.000000;0.707220
9184.000000;0.706945
9183.000000;0.706526
9182.000000;0.705956
9181.000000;0.705421
9180.000000;0.704979
9179.000000;0.704533
9178.000000;0.704199
9177.000000;0.704255
9176.000000;0.704590
9175.000000;0.704675
9174.000000;0.704257
9173.000000;0.703671
9172.000000;0.703289
9171.000000;0.703089
9170.000000;0.702941
9169.000000;0.702869
9168.000000;0.702816
9167.000000;0.702557
9166.000000;0.702061
9165.000000;0.701597
9164.000000;0.701305
9163.000000;0.701035
9162.000000;0.700752
9161.000000;0.700676
9160.000000;0.700830
9159.000000;0.700848
9158.000000;0.700497
9157.000000;0.700011
9156.000000;0.699704
9155.000000;0.699576
9154.000000;0.699511
9153.000000;0.699499
9152.000000;0.699463
9151.000000;0.699198
9150.000000;0.698714
9149.000000;0.698317
9148.000000;0.698160
9147.000000;0.698044
9146.000000;0.697825
9145.000000;0.697691
9144.000000;0.697780
9143.000000;0.697860
9142.000000;0.697632
9141.000000;0.697122
9140.000000;0.696559
9139.000000;0.696075
9138.000000;0.695714
9137.000000;0.695518
9136.000000;0.695441
9135.000000;0.695354
9134.000000;0.695234
9133.000000;0.695169
9132.000000;0.695123
9131.000000;0.694944
9130.000000;0.694630
9129.000000;0.694337
9128.000000;0.694098
9127.000000;0.693830
9126.000000;0.693623
9125.000000;0.693661
9124.000000;0.693840
9123.000000;0.693825
9122.000000;0.693541
9121.000000;0.693233
9120.000000;0.692977
9119.000000;0.692546
9118.000000;0.691875
9117.000000;0.691246
9116.000000;0.690846
9115.000000;0.690524
9114.000000;0.690133
9113.000000;0.689778
9112.000000;0.689554
9111.000000;0.689362
9110.000000;0.689132
9109.000000;0.688936
9108.000000;0.688756
9107.000000;0.688446
9106.000000;0.688040
9105.000000;0.687772
9104.000000;0.687680
9103.000000;0.687517
9102.000000;0.687186
9101.000000;0.686912
9100.000000;0.686840
9099.000000;0.686799
9098.000000;0.686638
9097.000000;0.686493
9096.000000;0.686525
9095.000000;0.686658
9094.000000;0.686751
9093.000000;0.686766
9092.000000;0.686662
9091.000000;0.686368
9090.000000;0.685969
9089.000000;0.685659
9088.000000;0.685422
9087.000000;0.685043
9086.000000;0.684531
9085.000000;0.684219
9084.000000;0.684312
9083.000000;0.684613
9082.000000;0.684800
9081.000000;0.684724
9080.000000;0.684353
9079.000000;0.683725
9078.000000;0.683067
9077.000000;0.682683
9076.000000;0.682573
9075.000000;0.682403
9074.000000;0.681955
9073.000000;0.681367
9072.000000;0.680874
9071.000000;0.680561
9070.000000;0.680422
9069.000000;0.680407
9068.000000;0.680312
9067.000000;0.679915
9066.000000;0.679320
9065.000000;0.678937
9064.000000;0.679020
9063.000000;0.679433
9062.000000;0.679870
9061.000000;0.680085
9060.000000;0.679916
9059.000000;0.679388
9058.000000;0.678803
9057.000000;0.678478
9056.000000;0.678363
9055.000000;0.678175
9054.000000;0.677854
9053.000000;0.677586
