Criado como novo conjunto de dados;"e2410_daniel_v2.spp","68405.6 Secs"
cm-1;Abs
10000.000000;1.267478
9999.000000;1.266311
9998.000000;1.265100
9997.000000;1.264037
9996.000000;1.263362
9995.000000;1.262981
9994.000000;1.262552
9993.000000;1.262026
9992.000000;1.261757
9991.000000;1.261837
9990.000000;1.261758
9989.000000;1.261150
9988.000000;1.260433
9987.000000;1.260182
9986.000000;1.260188
9985.000000;1.259798
9984.000000;1.258954
9983.000000;1.258168
9982.000000;1.257570
9981.000000;1.256713
9980.000000;1.255410
9979.000000;1.254100
9978.000000;1.253293
9977.000000;1.253101
9976.000000;1.253372
9975.000000;1.253795
9974.000000;1.253879
9973.000000;1.253354
9972.000000;1.252675
9971.000000;1.252626
9970.000000;1.253303
9969.000000;1.253921
9968.000000;1.253693
9967.000000;1.252549
9966.000000;1.250951
9965.000000;1.249445
9964.000000;1.248408
9963.000000;1.247855
9962.000000;1.247478
9961.000000;1.247141
9960.000000;1.247127
9959.000000;1.247500
9958.000000;1.247574
9957.000000;1.246653
9956.000000;1.245108
9955.000000;1.243944
9954.000000;1.243427
9953.000000;1.242928
9952.000000;1.242069
9951.000000;1.241215
9950.000000;1.240712
9949.000000;1.240465
9948.000000;1.240482
9947.000000;1.240979
9946.000000;1.241574
9945.000000;1.241161
9944.000000;1.239141
9943.000000;1.236295
9942.000000;1.234021
9941.000000;1.233120
9940.000000;1.233582
9939.000000;1.234929
9938.000000;1.236319
9937.000000;1.236797
9936.000000;1.236021
9935.000000;1.234581
9934.000000;1.233332
9933.000000;1.232608
9932.000000;1.232269
9931.000000;1.232104
9930.000000;1.231908
9929.000000;1.231454
9928.000000;1.230745
9927.000000;1.230105
9926.000000;1.229758
9925.000000;1.229478
9924.000000;1.228851
9923.000000;1.227808
9922.000000;1.226744
9921.000000;1.226162
9920.000000;1.226246
9919.000000;1.226651
9918.000000;1.226698
9917.000000;1.225904
9916.000000;1.224343
9915.000000;1.222445
9914.000000;1.220607
9913.000000;1.219174
9912.000000;1.218532
9911.000000;1.218853
9910.000000;1.219779
9909.000000;1.220639
9908.000000;1.220983
9907.000000;1.220782
9906.000000;1.220279
9905.000000;1.219865
9904.000000;1.219853
9903.000000;1.220053
9902.000000;1.219778
9901.000000;1.218660
9900.000000;1.217187
9899.000000;1.216047
9898.000000;1.215209
9897.000000;1.214172
9896.000000;1.212899
9895.000000;1.211909
9894.000000;1.211520
9893.000000;1.211521
9892.000000;1.211521
9891.000000;1.211220
9890.000000;1.210448
9889.000000;1.209380
9888.000000;1.208577
9887.000000;1.208370
9886.000000;1.208385
9885.000000;1.208086
9884.000000;1.207525
9883.000000;1.206993
9882.000000;1.206309
9881.000000;1.205219
9880.000000;1.204232
9879.000000;1.204148
9878.000000;1.204815
9877.000000;1.205206
9876.000000;1.204801
9875.000000;1.204090
9874.000000;1.203564
9873.000000;1.203064
9872.000000;1.202370
9871.000000;1.201698
9870.000000;1.201271
9869.000000;1.201005
9868.000000;1.200883
9867.000000;1.201069
9866.000000;1.201413
9865.000000;1.201391
9864.000000;1.200809
9863.000000;1.200033
9862.000000;1.199273
9861.000000;1.198210
9860.000000;1.196609
9859.000000;1.194809
9858.000000;1.193330
9857.000000;1.192377
9856.000000;1.191935
9855.000000;1.191912
9854.000000;1.192014
9853.000000;1.191925
9852.000000;1.191755
9851.000000;1.191871
9850.000000;1.192154
9849.000000;1.191971
9848.000000;1.191093
9847.000000;1.190137
9846.000000;1.189798
9845.000000;1.190082
9844.000000;1.190524
9843.000000;1.190730
9842.000000;1.190456
9841.000000;1.189573
9840.000000;1.188309
9839.000000;1.187220
9838.000000;1.186675
9837.000000;1.186576
9836.000000;1.186681
9835.000000;1.186822
9834.000000;1.186733
9833.000000;1.186053
9832.000000;1.184745
9831.000000;1.183184
9830.000000;1.181740
9829.000000;1.180599
9828.000000;1.180029
9827.000000;1.180247
9826.000000;1.180861
9825.000000;1.180991
9824.000000;1.180232
9823.000000;1.179065
9822.000000;1.178054
9821.000000;1.177136
9820.000000;1.176083
9819.000000;1.175199
9818.000000;1.175035
9817.000000;1.175617
9816.000000;1.176353
9815.000000;1.176651
9814.000000;1.176345
9813.000000;1.175640
9812.000000;1.174889
9811.000000;1.174389
9810.000000;1.174183
9809.000000;1.174046
9808.000000;1.173736
9807.000000;1.173192
9806.000000;1.172517
9805.000000;1.171861
9804.000000;1.171258
9803.000000;1.170504
9802.000000;1.169342
9801.000000;1.167959
9800.000000;1.167033
9799.000000;1.166971
9798.000000;1.167294
9797.000000;1.167153
9796.000000;1.166351
9795.000000;1.165401
9794.000000;1.164701
9793.000000;1.164194
9792.000000;1.163780
9791.000000;1.163518
9790.000000;1.163309
9789.000000;1.162874
9788.000000;1.162162
9787.000000;1.161380
9786.000000;1.160538
9785.000000;1.159422
9784.000000;1.158118
9783.000000;1.157098
9782.000000;1.156632
9781.000000;1.156515
9780.000000;1.156515
9779.000000;1.156664
9778.000000;1.156923
9777.000000;1.156955
9776.000000;1.156460
9775.000000;1.155477
9774.000000;1.154212
9773.000000;1.152899
9772.000000;1.151932
9771.000000;1.151732
9770.000000;1.152208
9769.000000;1.152649
9768.000000;1.152428
9767.000000;1.151680
9766.000000;1.151030
9765.000000;1.150820
9764.000000;1.150800
9763.000000;1.150492
9762.000000;1.149744
9761.000000;1.148890
9760.000000;1.148334
9759.000000;1.147977
9758.000000;1.147263
9757.000000;1.145933
9756.000000;1.144497
9755.000000;1.143691
9754.000000;1.143693
9753.000000;1.144163
9752.000000;1.144794
9751.000000;1.145398
9750.000000;1.145634
9749.000000;1.145222
9748.000000;1.144349
9747.000000;1.143395
9746.000000;1.142360
9745.000000;1.141084
9744.000000;1.139909
9743.000000;1.139474
9742.000000;1.139787
9741.000000;1.140104
9740.000000;1.139847
9739.000000;1.139125
9738.000000;1.138194
9737.000000;1.137040
9736.000000;1.135747
9735.000000;1.134779
9734.000000;1.134489
9733.000000;1.134655
9732.000000;1.134781
9731.000000;1.134628
9730.000000;1.134286
9729.000000;1.133949
9728.000000;1.133756
9727.000000;1.133593
9726.000000;1.133014
9725.000000;1.131703
9724.000000;1.130111
9723.000000;1.129245
9722.000000;1.129634
9721.000000;1.130748
9720.000000;1.131590
9719.000000;1.131596
9718.000000;1.130877
9717.000000;1.129881
9716.000000;1.129022
9715.000000;1.128413
9714.000000;1.127809
9713.000000;1.126930
9712.000000;1.125892
9711.000000;1.125095
9710.000000;1.124694
9709.000000;1.124460
9708.000000;1.124194
9707.000000;1.123954
9706.000000;1.123764
9705.000000;1.123398
9704.000000;1.122624
9703.000000;1.121474
9702.000000;1.120220
9701.000000;1.119261
9700.000000;1.119004
9699.000000;1.119590
9698.000000;1.120632
9697.000000;1.121434
9696.000000;1.121505
9695.000000;1.120782
9694.000000;1.119481
9693.000000;1.117974
9692.000000;1.116677
9691.000000;1.115766
9690.000000;1.115024
9689.000000;1.114260
9688.000000;1.113744
9687.000000;1.113828
9686.000000;1.114271
9685.000000;1.114401
9684.000000;1.113970
9683.000000;1.113412
9682.000000;1.113219
9681.000000;1.113448
9680.000000;1.113871
9679.000000;1.114176
9678.000000;1.113931
9677.000000;1.112798
9676.000000;1.110961
9675.000000;1.109091
9674.000000;1.107759
9673.000000;1.107118
9672.000000;1.107086
9671.000000;1.107468
9670.000000;1.107843
9669.000000;1.107711
9668.000000;1.106941
9667.000000;1.105870
9666.000000;1.104916
9665.000000;1.104276
9664.000000;1.103955
9663.000000;1.103786
9662.000000;1.103417
9661.000000;1.102606
9660.000000;1.101570
9659.000000;1.100752
9658.000000;1.100301
9657.000000;1.100050
9656.000000;1.099924
9655.000000;1.099957
9654.000000;1.099933
9653.000000;1.099463
9652.000000;1.098554
9651.000000;1.097718
9650.000000;1.097378
9649.000000;1.097438
9648.000000;1.097520
9647.000000;1.097373
9646.000000;1.096966
9645.000000;1.096418
9644.000000;1.095899
9643.000000;1.095431
9642.000000;1.094845
9641.000000;1.094088
9640.000000;1.093448
9639.000000;1.093165
9638.000000;1.092912
9637.000000;1.092064
9636.000000;1.090512
9635.000000;1.088890
9634.000000;1.087923
9633.000000;1.087802
9632.000000;1.088160
9631.000000;1.088403
9630.000000;1.088104
9629.000000;1.087333
9628.000000;1.086557
9627.000000;1.086066
9626.000000;1.085690
9625.000000;1.085286
9624.000000;1.085149
9623.000000;1.085514
9622.000000;1.085949
9621.000000;1.085821
9620.000000;1.085204
9619.000000;1.084734
9618.000000;1.084658
9617.000000;1.084672
9616.000000;1.084619
9615.000000;1.084664
9614.000000;1.084734
9613.000000;1.084445
9612.000000;1.083746
9611.000000;1.083015
9610.000000;1.082355
9609.000000;1.081405
9608.000000;1.080100
9607.000000;1.079010
9606.000000;1.078586
9605.000000;1.078547
9604.000000;1.078331
9603.000000;1.077790
9602.000000;1.077090
9601.000000;1.076288
9600.000000;1.075408
9599.000000;1.074697
9598.000000;1.074432
9597.000000;1.074562
9596.000000;1.074756
9595.000000;1.074726
9594.000000;1.074394
9593.000000;1.073876
9592.000000;1.073414
9591.000000;1.073199
9590.000000;1.073207
9589.000000;1.073293
9588.000000;1.073419
9587.000000;1.073559
9586.000000;1.073476
9585.000000;1.072863
9584.000000;1.071760
9583.000000;1.070578
9582.000000;1.069663
9581.000000;1.069053
9580.000000;1.068634
9579.000000;1.068294
9578.000000;1.067891
9577.000000;1.067330
9576.000000;1.066675
9575.000000;1.066030
9574.000000;1.065375
9573.000000;1.064749
9572.000000;1.064453
9571.000000;1.064680
9570.000000;1.065035
9569.000000;1.064841
9568.000000;1.063973
9567.000000;1.063011
9566.000000;1.062466
9565.000000;1.062214
9564.000000;1.061790
9563.000000;1.060950
9562.000000;1.059845
9561.000000;1.058876
9560.000000;1.058410
9559.000000;1.058453
9558.000000;1.058589
9557.000000;1.058466
9556.000000;1.058248
9555.000000;1.058313
9554.000000;1.058602
9553.000000;1.058643
9552.000000;1.058173
9551.000000;1.057337
9550.000000;1.056293
9549.000000;1.055079
9548.000000;1.053925
9547.000000;1.053241
9546.000000;1.053130
9545.000000;1.053211
9544.000000;1.053121
9543.000000;1.052944
9542.000000;1.053003
9541.000000;1.053405
9540.000000;1.053894
9539.000000;1.054061
9538.000000;1.053679
9537.000000;1.052944
9536.000000;1.052327
9535.000000;1.052025
9534.000000;1.051691
9533.000000;1.050921
9532.000000;1.049807
9531.000000;1.048725
9530.000000;1.047784
9529.000000;1.046871
9528.000000;1.046064
9527.000000;1.045565
9526.000000;1.045269
9525.000000;1.044862
9524.000000;1.044342
9523.000000;1.044035
9522.000000;1.044067
9521.000000;1.044207
9520.000000;1.044245
9519.000000;1.044172
9518.000000;1.043981
9517.000000;1.043668
9516.000000;1.043397
9515.000000;1.043290
9514.000000;1.043048
9513.000000;1.042245
9512.000000;1.041028
9511.000000;1.040076
9510.000000;1.039768
9509.000000;1.039779
9508.000000;1.039592
9507.000000;1.039069
9506.000000;1.038409
9505.000000;1.037857
9504.000000;1.037535
9503.000000;1.037325
9502.000000;1.036866
9501.000000;1.035972
9500.000000;1.035000
9499.000000;1.034492
9498.000000;1.034487
9497.000000;1.034567
9496.000000;1.034514
9495.000000;1.034493
9494.000000;1.034549
9493.000000;1.034441
9492.000000;1.034122
9491.000000;1.033913
9490.000000;1.033974
9489.000000;1.033962
9488.000000;1.033452
9487.000000;1.032449
9486.000000;1.031296
9485.000000;1.030311
9484.000000;1.029675
9483.000000;1.029416
9482.000000;1.029325
9481.000000;1.029065
9480.000000;1.028517
9479.000000;1.027908
9478.000000;1.027501
9477.000000;1.027299
9476.000000;1.027090
9475.000000;1.026654
9474.000000;1.025936
9473.000000;1.025168
9472.000000;1.024754
9471.000000;1.024862
9470.000000;1.025179
9469.000000;1.025273
9468.000000;1.025087
9467.000000;1.024823
9466.000000;1.024476
9465.000000;1.023827
9464.000000;1.022836
9463.000000;1.021727
9462.000000;1.020687
9461.000000;1.019789
9460.000000;1.019165
9459.000000;1.018941
9458.000000;1.019013
9457.000000;1.019161
9456.000000;1.019333
9455.000000;1.019533
9454.000000;1.019523
9453.000000;1.019017
9452.000000;1.018148
9451.000000;1.017397
9450.000000;1.017039
9449.000000;1.016968
9448.000000;1.016998
9447.000000;1.017014
9446.000000;1.016888
9445.000000;1.016599
9444.000000;1.016404
9443.000000;1.016547
9442.000000;1.016822
9441.000000;1.016776
9440.000000;1.016290
9439.000000;1.015594
9438.000000;1.014801
9437.000000;1.013871
9436.000000;1.012991
9435.000000;1.012494
9434.000000;1.012331
9433.000000;1.012073
9432.000000;1.011529
9431.000000;1.010976
9430.000000;1.010649
9429.000000;1.010403
9428.000000;1.010019
9427.000000;1.009512
9426.000000;1.008981
9425.000000;1.008402
9424.000000;1.007724
9423.000000;1.007001
9422.000000;1.006377
9421.000000;1.006036
9420.000000;1.006111
9419.000000;1.006415
9418.000000;1.006440
9417.000000;1.005917
9416.000000;1.005227
9415.000000;1.004897
9414.000000;1.004856
9413.000000;1.004618
9412.000000;1.004064
9411.000000;1.003504
9410.000000;1.003060
9409.000000;1.002556
9408.000000;1.002070
9407.000000;1.001985
9406.000000;1.002326
9405.000000;1.002572
9404.000000;1.002345
9403.000000;1.001863
9402.000000;1.001479
9401.000000;1.001150
9400.000000;1.000624
9399.000000;0.999842
9398.000000;0.998970
9397.000000;0.998233
9396.000000;0.997838
9395.000000;0.997786
9394.000000;0.997719
9393.000000;0.997251
9392.000000;0.996532
9391.000000;0.996122
9390.000000;0.996250
9389.000000;0.996525
9388.000000;0.996486
9387.000000;0.996081
9386.000000;0.995496
9385.000000;0.994872
9384.000000;0.994360
9383.000000;0.994135
9382.000000;0.994179
9381.000000;0.994298
9380.000000;0.994427
9379.000000;0.994634
9378.000000;0.994731
9377.000000;0.994264
9376.000000;0.993072
9375.000000;0.991594
9374.000000;0.990427
9373.000000;0.989804
9372.000000;0.989599
9371.000000;0.989571
9370.000000;0.989458
9369.000000;0.989096
9368.000000;0.988611
9367.000000;0.988321
9366.000000;0.988348
9365.000000;0.988513
9364.000000;0.988647
9363.000000;0.988745
9362.000000;0.988755
9361.000000;0.988491
9360.000000;0.987880
9359.000000;0.987053
9358.000000;0.986127
9357.000000;0.985140
9356.000000;0.984272
9355.000000;0.983855
9354.000000;0.984000
9353.000000;0.984401
9352.000000;0.984640
9351.000000;0.984535
9350.000000;0.984131
9349.000000;0.983555
9348.000000;0.982966
9347.000000;0.982494
9346.000000;0.982143
9345.000000;0.981846
9344.000000;0.981604
9343.000000;0.981447
9342.000000;0.981299
9341.000000;0.981091
9340.000000;0.980922
9339.000000;0.980879
9338.000000;0.980760
9337.000000;0.980261
9336.000000;0.979429
9335.000000;0.978670
9334.000000;0.978299
9333.000000;0.978319
9332.000000;0.978580
9331.000000;0.978858
9330.000000;0.978826
9329.000000;0.978266
9328.000000;0.977354
9327.000000;0.976515
9326.000000;0.975987
9325.000000;0.975753
9324.000000;0.975790
9323.000000;0.976048
9322.000000;0.976199
9321.000000;0.975804
9320.000000;0.974802
9319.000000;0.973575
9318.000000;0.972510
9317.000000;0.971765
9316.000000;0.971426
9315.000000;0.971489
9314.000000;0.971664
9313.000000;0.971511
9312.000000;0.970887
9311.000000;0.970029
9310.000000;0.969201
9309.000000;0.968528
9308.000000;0.968123
9307.000000;0.968035
9306.000000;0.968029
9305.000000;0.967783
9304.000000;0.967372
9303.000000;0.967256
9302.000000;0.967668
9301.000000;0.968265
9300.000000;0.968487
9299.000000;0.968051
9298.000000;0.967097
9297.000000;0.966057
9296.000000;0.965393
9295.000000;0.965228
9294.000000;0.965277
9293.000000;0.965282
9292.000000;0.965375
9291.000000;0.965697
9290.000000;0.965861
9289.000000;0.965292
9288.000000;0.964054
9287.000000;0.962866
9286.000000;0.962236
9285.000000;0.962049
9284.000000;0.962012
9283.000000;0.962025
9282.000000;0.961956
9281.000000;0.961540
9280.000000;0.960760
9279.000000;0.959965
9278.000000;0.959419
9277.000000;0.959035
9276.000000;0.958714
9275.000000;0.958568
9274.000000;0.958608
9273.000000;0.958565
9272.000000;0.958286
9271.000000;0.958026
9270.000000;0.958063
9269.000000;0.958238
9268.000000;0.958159
9267.000000;0.957709
9266.000000;0.957123
9265.000000;0.956652
9264.000000;0.956347
9263.000000;0.956126
9262.000000;0.955898
9261.000000;0.955626
9260.000000;0.955326
9259.000000;0.954981
9258.000000;0.954527
9257.000000;0.954026
9256.000000;0.953737
9255.000000;0.953823
9254.000000;0.954067
9253.000000;0.954121
9252.000000;0.953957
9251.000000;0.953796
9250.000000;0.953651
9249.000000;0.953323
9248.000000;0.952841
9247.000000;0.952492
9246.000000;0.952322
9245.000000;0.951971
9244.000000;0.951201
9243.000000;0.950273
9242.000000;0.949575
9241.000000;0.949113
9240.000000;0.948613
9239.000000;0.947957
9238.000000;0.947348
9237.000000;0.947072
9236.000000;0.947231
9235.000000;0.947640
9234.000000;0.947957
9233.000000;0.947972
9232.000000;0.947764
9231.000000;0.947502
9230.000000;0.947180
9229.000000;0.946707
9228.000000;0.946164
9227.000000;0.945758
9226.000000;0.945565
9225.000000;0.945518
9224.000000;0.945573
9223.000000;0.945676
9222.000000;0.945642
9221.000000;0.945326
9220.000000;0.944864
9219.000000;0.944481
9218.000000;0.944128
9217.000000;0.943579
9216.000000;0.942855
9215.000000;0.942228
9214.000000;0.941811
9213.000000;0.941456
9212.000000;0.941098
9211.000000;0.940885
9210.000000;0.940895
9209.000000;0.940997
9208.000000;0.941056
9207.000000;0.941047
9206.000000;0.940934
9205.000000;0.940655
9204.000000;0.940296
9203.000000;0.940053
9202.000000;0.939968
9201.000000;0.939903
9200.000000;0.939789
9199.000000;0.939684
9198.000000;0.939577
9197.000000;0.939332
9196.000000;0.938871
9195.000000;0.938212
9194.000000;0.937401
9193.000000;0.936582
9192.000000;0.936098
9191.000000;0.936235
9190.000000;0.936864
9189.000000;0.937532
9188.000000;0.937882
9187.000000;0.937791
9186.000000;0.937250
9185.000000;0.936382
9184.000000;0.935537
9183.000000;0.935004
9182.000000;0.934680
9181.000000;0.934292
9180.000000;0.933876
9179.000000;0.933705
9178.000000;0.933789
9177.000000;0.933868
9176.000000;0.933867
9175.000000;0.933955
9174.000000;0.934087
9173.000000;0.933896
9172.000000;0.933172
9171.000000;0.932139
9170.000000;0.931167
9169.000000;0.930489
9168.000000;0.930230
9167.000000;0.930350
9166.000000;0.930454
9165.000000;0.930063
9164.000000;0.929238
9163.000000;0.928632
9162.000000;0.928711
9161.000000;0.929200
9160.000000;0.929440
9159.000000;0.929067
9158.000000;0.928204
9157.000000;0.927208
9156.000000;0.926452
9155.000000;0.926204
9154.000000;0.926491
9153.000000;0.927080
9152.000000;0.927649
9151.000000;0.927973
9150.000000;0.928008
9149.000000;0.927897
9148.000000;0.927801
9147.000000;0.927641
9146.000000;0.927140
9145.000000;0.926270
9144.000000;0.925468
9143.000000;0.925142
9142.000000;0.925155
9141.000000;0.925095
9140.000000;0.924865
9139.000000;0.924618
9138.000000;0.924276
9137.000000;0.923628
9136.000000;0.922840
9135.000000;0.922368
9134.000000;0.922293
9133.000000;0.922230
9132.000000;0.921953
9131.000000;0.921658
9130.000000;0.921520
9129.000000;0.921450
9128.000000;0.921434
9127.000000;0.921661
9126.000000;0.922101
9125.000000;0.922376
9124.000000;0.922279
9123.000000;0.922055
9122.000000;0.921940
9121.000000;0.921767
9120.000000;0.921307
9119.000000;0.920683
9118.000000;0.920152
9117.000000;0.919729
9116.000000;0.919318
9115.000000;0.918991
9114.000000;0.918836
9113.000000;0.918681
9112.000000;0.918283
9111.000000;0.917714
9110.000000;0.917310
9109.000000;0.917252
9108.000000;0.917362
9107.000000;0.917292
9106.000000;0.916852
9105.000000;0.916172
9104.000000;0.915572
9103.000000;0.915240
9102.000000;0.915064
9101.000000;0.914883
9100.000000;0.914792
9099.000000;0.914995
9098.000000;0.915407
9097.000000;0.915686
9096.000000;0.915660
9095.000000;0.915469
9094.000000;0.915249
9093.000000;0.914974
9092.000000;0.914655
9091.000000;0.914393
9090.000000;0.914132
9089.000000;0.913630
9088.000000;0.912823
9087.000000;0.911961
9086.000000;0.911279
9085.000000;0.910760
9084.000000;0.910350
9083.000000;0.910166
9082.000000;0.910292
9081.000000;0.910552
9080.000000;0.910660
9079.000000;0.910512
9078.000000;0.910220
9077.000000;0.909963
9076.000000;0.909882
9075.000000;0.909969
9074.000000;0.910032
9073.000000;0.909875
9072.000000;0.909560
9071.000000;0.909308
9070.000000;0.909159
9069.000000;0.908928
9068.000000;0.908549
9067.000000;0.908201
9066.000000;0.908026
9065.000000;0.907946
9064.000000;0.907836
9063.000000;0.907692
9062.000000;0.907512
9061.000000;0.907210
9060.000000;0.906789
9059.000000;0.906421
9058.000000;0.906261
9057.000000;0.906310
9056.000000;0.906508
9055.000000;0.906796
9054.000000;0.906994
9053.000000;0.906829
