Criado como novo conjunto de dados;"e2410_daniel_v2.spp","10622.2 Secs"
cm-1;Abs
10000.000000;0.272899
9999.000000;0.272381
9998.000000;0.271864
9997.000000;0.271348
9996.000000;0.270832
9995.000000;0.270317
9994.000000;0.269802
9993.000000;0.269289
9992.000000;0.268774
9991.000000;0.268263
9990.000000;0.267747
9989.000000;0.267249
9988.000000;0.266729
9987.000000;0.266149
9986.000000;0.265575
9985.000000;0.265060
9984.000000;0.264610
9983.000000;0.264196
9982.000000;0.263765
9981.000000;0.263275
9980.000000;0.262767
9979.000000;0.262350
9978.000000;0.262061
9977.000000;0.261782
9976.000000;0.261363
9975.000000;0.260788
9974.000000;0.260176
9973.000000;0.259631
9972.000000;0.259162
9971.000000;0.258728
9970.000000;0.258290
9969.000000;0.257840
9968.000000;0.257382
9967.000000;0.256900
9966.000000;0.256350
9965.000000;0.255720
9964.000000;0.255101
9963.000000;0.254616
9962.000000;0.254269
9961.000000;0.253918
9960.000000;0.253438
9959.000000;0.252844
9958.000000;0.252234
9957.000000;0.251675
9956.000000;0.251186
9955.000000;0.250761
9954.000000;0.250344
9953.000000;0.249854
9952.000000;0.249276
9951.000000;0.248694
9950.000000;0.248177
9949.000000;0.247698
9948.000000;0.247208
9947.000000;0.246731
9946.000000;0.246325
9945.000000;0.245968
9944.000000;0.245579
9943.000000;0.245114
9942.000000;0.244607
9941.000000;0.244120
9940.000000;0.243696
9939.000000;0.243325
9938.000000;0.242927
9937.000000;0.242417
9936.000000;0.241808
9935.000000;0.241208
9934.000000;0.240695
9933.000000;0.240237
9932.000000;0.239772
9931.000000;0.239319
9930.000000;0.238937
9929.000000;0.238638
9928.000000;0.238376
9927.000000;0.238087
9926.000000;0.237700
9925.000000;0.237157
9924.000000;0.236500
9923.000000;0.235867
9922.000000;0.235361
9921.000000;0.234941
9920.000000;0.234508
9919.000000;0.234042
9918.000000;0.233579
9917.000000;0.233097
9916.000000;0.232533
9915.000000;0.231911
9914.000000;0.231347
9913.000000;0.230885
9912.000000;0.230411
9911.000000;0.229786
9910.000000;0.229043
9909.000000;0.228385
9908.000000;0.227989
9907.000000;0.227839
9906.000000;0.227763
9905.000000;0.227591
9904.000000;0.227248
9903.000000;0.226718
9902.000000;0.226026
9901.000000;0.225272
9900.000000;0.224601
9899.000000;0.224080
9898.000000;0.223632
9897.000000;0.223160
9896.000000;0.222684
9895.000000;0.222293
9894.000000;0.221987
9893.000000;0.221670
9892.000000;0.221266
9891.000000;0.220757
9890.000000;0.220112
9889.000000;0.219311
9888.000000;0.218458
9887.000000;0.217764
9886.000000;0.217355
9885.000000;0.217173
9884.000000;0.217064
9883.000000;0.216898
9882.000000;0.216579
9881.000000;0.216057
9880.000000;0.215390
9879.000000;0.214712
9878.000000;0.214094
9877.000000;0.213503
9876.000000;0.212928
9875.000000;0.212456
9874.000000;0.212166
9873.000000;0.211992
9872.000000;0.211760
9871.000000;0.211327
9870.000000;0.210668
9869.000000;0.209905
9868.000000;0.209269
9867.000000;0.208926
9866.000000;0.208780
9865.000000;0.208544
9864.000000;0.208042
9863.000000;0.207391
9862.000000;0.206828
9861.000000;0.206449
9860.000000;0.206187
9859.000000;0.205938
9858.000000;0.205630
9857.000000;0.205224
9856.000000;0.204761
9855.000000;0.204359
9854.000000;0.204063
9853.000000;0.203740
9852.000000;0.203214
9851.000000;0.202480
9850.000000;0.201708
9849.000000;0.201063
9848.000000;0.200582
9847.000000;0.200195
9846.000000;0.199796
9845.000000;0.199302
9844.000000;0.198715
9843.000000;0.198124
9842.000000;0.197600
9841.000000;0.197126
9840.000000;0.196658
9839.000000;0.196218
9838.000000;0.195837
9837.000000;0.195457
9836.000000;0.194973
9835.000000;0.194369
9834.000000;0.193743
9833.000000;0.193192
9832.000000;0.192722
9831.000000;0.192302
9830.000000;0.191924
9829.000000;0.191606
9828.000000;0.191331
9827.000000;0.191018
9826.000000;0.190557
9825.000000;0.189900
9824.000000;0.189133
9823.000000;0.188425
9822.000000;0.187894
9821.000000;0.187536
9820.000000;0.187260
9819.000000;0.186966
9818.000000;0.186565
9817.000000;0.186020
9816.000000;0.185399
9815.000000;0.184816
9814.000000;0.184304
9813.000000;0.183790
9812.000000;0.183238
9811.000000;0.182725
9810.000000;0.182333
9809.000000;0.182018
9808.000000;0.181691
9807.000000;0.181345
9806.000000;0.181022
9805.000000;0.180683
9804.000000;0.180241
9803.000000;0.179692
9802.000000;0.179152
9801.000000;0.178732
9800.000000;0.178447
9799.000000;0.178230
9798.000000;0.177968
9797.000000;0.177544
9796.000000;0.176937
9795.000000;0.176286
9794.000000;0.175769
9793.000000;0.175403
9792.000000;0.175029
9791.000000;0.174523
9790.000000;0.173953
9789.000000;0.173475
9788.000000;0.173143
9787.000000;0.172859
9786.000000;0.172503
9785.000000;0.172046
9784.000000;0.171552
9783.000000;0.171093
9782.000000;0.170669
9781.000000;0.170204
9780.000000;0.169623
9779.000000;0.168953
9778.000000;0.168341
9777.000000;0.167941
9776.000000;0.167769
9775.000000;0.167662
9774.000000;0.167398
9773.000000;0.166874
9772.000000;0.166160
9771.000000;0.165402
9770.000000;0.164704
9769.000000;0.164135
9768.000000;0.163772
9767.000000;0.163648
9766.000000;0.163642
9765.000000;0.163518
9764.000000;0.163117
9763.000000;0.162492
9762.000000;0.161825
9761.000000;0.161242
9760.000000;0.160765
9759.000000;0.160378
9758.000000;0.160066
9757.000000;0.159784
9756.000000;0.159441
9755.000000;0.158960
9754.000000;0.158343
9753.000000;0.157680
9752.000000;0.157072
9751.000000;0.156547
9750.000000;0.156047
9749.000000;0.155505
9748.000000;0.154935
9747.000000;0.154421
9746.000000;0.154016
9745.000000;0.153688
9744.000000;0.153380
9743.000000;0.153078
9742.000000;0.152795
9741.000000;0.152513
9740.000000;0.152166
9739.000000;0.151704
9738.000000;0.151153
9737.000000;0.150612
9736.000000;0.150168
9735.000000;0.149814
9734.000000;0.149452
9733.000000;0.149007
9732.000000;0.148510
9731.000000;0.148040
9730.000000;0.147598
9729.000000;0.147118
9728.000000;0.146577
9727.000000;0.146033
9726.000000;0.145547
9725.000000;0.145113
9724.000000;0.144696
9723.000000;0.144289
9722.000000;0.143904
9721.000000;0.143528
9720.000000;0.143143
9719.000000;0.142743
9718.000000;0.142332
9717.000000;0.141911
9716.000000;0.141492
9715.000000;0.141089
9714.000000;0.140699
9713.000000;0.140304
9712.000000;0.139903
9711.000000;0.139495
9710.000000;0.139042
9709.000000;0.138495
9708.000000;0.137878
9707.000000;0.137285
9706.000000;0.136785
9705.000000;0.136361
9704.000000;0.135976
9703.000000;0.135645
9702.000000;0.135397
9701.000000;0.135197
9700.000000;0.134947
9699.000000;0.134551
9698.000000;0.133982
9697.000000;0.133294
9696.000000;0.132622
9695.000000;0.132104
9694.000000;0.131793
9693.000000;0.131621
9692.000000;0.131455
9691.000000;0.131168
9690.000000;0.130709
9689.000000;0.130136
9688.000000;0.129591
9687.000000;0.129183
9686.000000;0.128871
9685.000000;0.128523
9684.000000;0.128078
9683.000000;0.127586
9682.000000;0.127104
9681.000000;0.126620
9680.000000;0.126118
9679.000000;0.125629
9678.000000;0.125171
9677.000000;0.124709
9676.000000;0.124224
9675.000000;0.123752
9674.000000;0.123327
9673.000000;0.122926
9672.000000;0.122540
9671.000000;0.122220
9670.000000;0.121991
9669.000000;0.121777
9668.000000;0.121470
9667.000000;0.121047
9666.000000;0.120546
9665.000000;0.120000
9664.000000;0.119441
9663.000000;0.118950
9662.000000;0.118575
9661.000000;0.118244
9660.000000;0.117835
9659.000000;0.117333
9658.000000;0.116830
9657.000000;0.116369
9656.000000;0.115889
9655.000000;0.115367
9654.000000;0.114920
9653.000000;0.114678
9652.000000;0.114593
9651.000000;0.114440
9650.000000;0.114033
9649.000000;0.113405
9648.000000;0.112778
9647.000000;0.112351
9646.000000;0.112129
9645.000000;0.111943
9644.000000;0.111625
9643.000000;0.111151
9642.000000;0.110621
9641.000000;0.110130
9640.000000;0.109678
9639.000000;0.109199
9638.000000;0.108654
9637.000000;0.108090
9636.000000;0.107617
9635.000000;0.107324
9634.000000;0.107185
9633.000000;0.107064
9632.000000;0.106797
9631.000000;0.106305
9630.000000;0.105649
9629.000000;0.104988
9628.000000;0.104477
9627.000000;0.104158
9626.000000;0.103938
9625.000000;0.103695
9624.000000;0.103402
9623.000000;0.103100
9622.000000;0.102779
9621.000000;0.102345
9620.000000;0.101752
9619.000000;0.101108
9618.000000;0.100571
9617.000000;0.100168
9616.000000;0.099784
9615.000000;0.099325
9614.000000;0.098850
9613.000000;0.098474
9612.000000;0.098216
9611.000000;0.097975
9610.000000;0.097661
9609.000000;0.097278
9608.000000;0.096875
9607.000000;0.096454
9606.000000;0.095991
9605.000000;0.095519
9604.000000;0.095126
9603.000000;0.094846
9602.000000;0.094609
9601.000000;0.094313
9600.000000;0.093928
9599.000000;0.093480
9598.000000;0.092992
9597.000000;0.092486
9596.000000;0.092014
9595.000000;0.091632
9594.000000;0.091332
9593.000000;0.091041
9592.000000;0.090679
9591.000000;0.090189
9590.000000;0.089563
9589.000000;0.088888
9588.000000;0.088335
9587.000000;0.088020
9586.000000;0.087880
9585.000000;0.087739
9584.000000;0.087497
9583.000000;0.087177
9582.000000;0.086827
9581.000000;0.086443
9580.000000;0.086041
9579.000000;0.085680
9578.000000;0.085378
9577.000000;0.085063
9576.000000;0.084670
9575.000000;0.084233
9574.000000;0.083814
9573.000000;0.083405
9572.000000;0.082963
9571.000000;0.082511
9570.000000;0.082122
9569.000000;0.081809
9568.000000;0.081494
9567.000000;0.081092
9566.000000;0.080598
9565.000000;0.080075
9564.000000;0.079585
9563.000000;0.079144
9562.000000;0.078729
9561.000000;0.078326
9560.000000;0.077965
9559.000000;0.077676
9558.000000;0.077438
9557.000000;0.077187
9556.000000;0.076887
9555.000000;0.076555
9554.000000;0.076202
9553.000000;0.075792
9552.000000;0.075307
9551.000000;0.074796
9550.000000;0.074340
9549.000000;0.073963
9548.000000;0.073616
9547.000000;0.073237
9546.000000;0.072814
9545.000000;0.072376
9544.000000;0.071958
9543.000000;0.071580
9542.000000;0.071249
9541.000000;0.070963
9540.000000;0.070695
9539.000000;0.070385
9538.000000;0.069967
9537.000000;0.069443
9536.000000;0.068903
9535.000000;0.068443
9534.000000;0.068066
9533.000000;0.067692
9532.000000;0.067264
9531.000000;0.066811
9530.000000;0.066407
9529.000000;0.066097
9528.000000;0.065878
9527.000000;0.065690
9526.000000;0.065446
9525.000000;0.065099
9524.000000;0.064707
9523.000000;0.064372
9522.000000;0.064113
9521.000000;0.063832
9520.000000;0.063442
9519.000000;0.062974
9518.000000;0.062540
9517.000000;0.062206
9516.000000;0.061949
9515.000000;0.061696
9514.000000;0.061380
9513.000000;0.060990
9512.000000;0.060570
9511.000000;0.060180
9510.000000;0.059819
9509.000000;0.059422
9508.000000;0.058935
9507.000000;0.058382
9506.000000;0.057842
9505.000000;0.057402
9504.000000;0.057118
9503.000000;0.056986
9502.000000;0.056922
9501.000000;0.056791
9500.000000;0.056500
9499.000000;0.056054
9498.000000;0.055539
9497.000000;0.055053
9496.000000;0.054654
9495.000000;0.054331
9494.000000;0.054018
9493.000000;0.053656
9492.000000;0.053241
9491.000000;0.052803
9490.000000;0.052358
9489.000000;0.051913
9488.000000;0.051504
9487.000000;0.051152
9486.000000;0.050806
9485.000000;0.050413
9484.000000;0.050039
9483.000000;0.049820
9482.000000;0.049757
9481.000000;0.049653
9480.000000;0.049319
9479.000000;0.048775
9478.000000;0.048190
9477.000000;0.047694
9476.000000;0.047336
9475.000000;0.047128
9474.000000;0.047040
9473.000000;0.046954
9472.000000;0.046743
9471.000000;0.046396
9470.000000;0.045995
9469.000000;0.045580
9468.000000;0.045128
9467.000000;0.044643
9466.000000;0.044189
9465.000000;0.043791
9464.000000;0.043403
9463.000000;0.043003
9462.000000;0.042650
9461.000000;0.042377
9460.000000;0.042115
9459.000000;0.041770
9458.000000;0.041359
9457.000000;0.040996
9456.000000;0.040732
9455.000000;0.040497
9454.000000;0.040194
9453.000000;0.039819
9452.000000;0.039456
9451.000000;0.039178
9450.000000;0.038977
9449.000000;0.038782
9448.000000;0.038524
9447.000000;0.038194
9446.000000;0.037825
9445.000000;0.037440
9444.000000;0.037012
9443.000000;0.036515
9442.000000;0.035989
9441.000000;0.035541
9440.000000;0.035237
9439.000000;0.035037
9438.000000;0.034825
9437.000000;0.034524
9436.000000;0.034134
9435.000000;0.033704
9434.000000;0.033285
9433.000000;0.032928
9432.000000;0.032661
9431.000000;0.032459
9430.000000;0.032245
9429.000000;0.031961
9428.000000;0.031616
9427.000000;0.031239
9426.000000;0.030835
9425.000000;0.030390
9424.000000;0.029927
9423.000000;0.029502
9422.000000;0.029148
9421.000000;0.028864
9420.000000;0.028643
9419.000000;0.028473
9418.000000;0.028305
9417.000000;0.028054
9416.000000;0.027676
9415.000000;0.027216
9414.000000;0.026768
9413.000000;0.026390
9412.000000;0.026066
9411.000000;0.025746
9410.000000;0.025397
9409.000000;0.025025
9408.000000;0.024665
9407.000000;0.024349
9406.000000;0.024096
9405.000000;0.023920
9404.000000;0.023817
9403.000000;0.023739
9402.000000;0.023595
9401.000000;0.023316
9400.000000;0.022913
9399.000000;0.022457
9398.000000;0.022014
9397.000000;0.021597
9396.000000;0.021202
9395.000000;0.020829
9394.000000;0.020469
9393.000000;0.020099
9392.000000;0.019694
9391.000000;0.019261
9390.000000;0.018847
9389.000000;0.018511
9388.000000;0.018278
9387.000000;0.018111
9386.000000;0.017926
9385.000000;0.017658
9384.000000;0.017311
9383.000000;0.016955
9382.000000;0.016657
9381.000000;0.016429
9380.000000;0.016215
9379.000000;0.015935
9378.000000;0.015558
9377.000000;0.015137
9376.000000;0.014764
9375.000000;0.014482
9374.000000;0.014255
9373.000000;0.014021
9372.000000;0.013744
9371.000000;0.013426
9370.000000;0.013095
9369.000000;0.012805
9368.000000;0.012588
9367.000000;0.012398
9366.000000;0.012125
9365.000000;0.011716
9364.000000;0.011252
9363.000000;0.010870
9362.000000;0.010610
9361.000000;0.010390
9360.000000;0.010101
9359.000000;0.009696
9358.000000;0.009206
9357.000000;0.008731
9356.000000;0.008386
9355.000000;0.008220
9354.000000;0.008160
9353.000000;0.008070
9352.000000;0.007890
9351.000000;0.007665
9350.000000;0.007453
9349.000000;0.007231
9348.000000;0.006919
9347.000000;0.006484
9346.000000;0.005979
9345.000000;0.005513
9344.000000;0.005163
9343.000000;0.004927
9342.000000;0.004744
9341.000000;0.004561
9340.000000;0.004366
9339.000000;0.004160
9338.000000;0.003914
9337.000000;0.003581
9336.000000;0.003149
9335.000000;0.002669
9334.000000;0.002237
9333.000000;0.001937
9332.000000;0.001779
9331.000000;0.001688
9330.000000;0.001561
9329.000000;0.001354
9328.000000;0.001084
9327.000000;0.000754
9326.000000;0.000340
9325.000000;-0.000129
9324.000000;-0.000544
9323.000000;-0.000835
9322.000000;-0.001063
9321.000000;-0.001338
9320.000000;-0.001670
9319.000000;-0.001979
9318.000000;-0.002230
9317.000000;-0.002482
9316.000000;-0.002783
9315.000000;-0.003095
9314.000000;-0.003346
9313.000000;-0.003518
9312.000000;-0.003669
9311.000000;-0.003873
9310.000000;-0.004167
9309.000000;-0.004529
9308.000000;-0.004894
9307.000000;-0.005211
9306.000000;-0.005468
9305.000000;-0.005664
9304.000000;-0.005799
9303.000000;-0.005922
9302.000000;-0.006147
9301.000000;-0.006565
9300.000000;-0.007132
9299.000000;-0.007691
9298.000000;-0.008100
9297.000000;-0.008311
9296.000000;-0.008355
9295.000000;-0.008318
9294.000000;-0.008320
9293.000000;-0.008463
9292.000000;-0.008776
9291.000000;-0.009201
9290.000000;-0.009639
9289.000000;-0.009997
9288.000000;-0.010223
9287.000000;-0.010367
9286.000000;-0.010564
9285.000000;-0.010901
9284.000000;-0.011315
9283.000000;-0.011670
9282.000000;-0.011930
9281.000000;-0.012188
9280.000000;-0.012529
9279.000000;-0.012929
9278.000000;-0.013315
9277.000000;-0.013632
9276.000000;-0.013851
9275.000000;-0.013969
9274.000000;-0.014043
9273.000000;-0.014182
9272.000000;-0.014462
9271.000000;-0.014849
9270.000000;-0.015252
9269.000000;-0.015601
9268.000000;-0.015879
9267.000000;-0.016099
9266.000000;-0.016285
9265.000000;-0.016467
9264.000000;-0.016686
9263.000000;-0.016993
9262.000000;-0.017416
9261.000000;-0.017904
9260.000000;-0.018336
9259.000000;-0.018613
9258.000000;-0.018750
9257.000000;-0.018837
9256.000000;-0.018939
9255.000000;-0.019069
9254.000000;-0.019226
9253.000000;-0.019422
9252.000000;-0.019654
9251.000000;-0.019906
9250.000000;-0.020172
9249.000000;-0.020446
9248.000000;-0.020694
9247.000000;-0.020888
9246.000000;-0.021063
9245.000000;-0.021302
9244.000000;-0.021648
9243.000000;-0.022078
9242.000000;-0.022520
9241.000000;-0.022874
9240.000000;-0.023042
9239.000000;-0.023016
9238.000000;-0.022947
9237.000000;-0.023035
9236.000000;-0.023337
9235.000000;-0.023736
9234.000000;-0.024114
9233.000000;-0.024464
9232.000000;-0.024820
9231.000000;-0.025151
9230.000000;-0.025395
9229.000000;-0.025554
9228.000000;-0.025698
9227.000000;-0.025896
9226.000000;-0.026165
9225.000000;-0.026467
9224.000000;-0.026742
9223.000000;-0.026960
9222.000000;-0.027166
9221.000000;-0.027433
9220.000000;-0.027771
9219.000000;-0.028109
9218.000000;-0.028371
9217.000000;-0.028548
9216.000000;-0.028685
9215.000000;-0.028848
9214.000000;-0.029096
9213.000000;-0.029440
9212.000000;-0.029811
9211.000000;-0.030097
9210.000000;-0.030258
9209.000000;-0.030360
9208.000000;-0.030478
9207.000000;-0.030623
9206.000000;-0.030782
9205.000000;-0.030981
9204.000000;-0.031260
9203.000000;-0.031604
9202.000000;-0.031945
9201.000000;-0.032231
9200.000000;-0.032466
9199.000000;-0.032702
9198.000000;-0.032987
9197.000000;-0.033311
9196.000000;-0.033601
9195.000000;-0.033806
9194.000000;-0.033965
9193.000000;-0.034162
9192.000000;-0.034412
9191.000000;-0.034650
9190.000000;-0.034836
9189.000000;-0.035010
9188.000000;-0.035226
9187.000000;-0.035483
9186.000000;-0.035753
9185.000000;-0.036018
9184.000000;-0.036260
9183.000000;-0.036451
9182.000000;-0.036590
9181.000000;-0.036722
9180.000000;-0.036865
9179.000000;-0.036981
9178.000000;-0.037060
9177.000000;-0.037187
9176.000000;-0.037462
9175.000000;-0.037878
9174.000000;-0.038323
9173.000000;-0.038700
9172.000000;-0.038994
9171.000000;-0.039227
9170.000000;-0.039403
9169.000000;-0.039525
9168.000000;-0.039618
9167.000000;-0.039715
9166.000000;-0.039838
9165.000000;-0.040007
9164.000000;-0.040247
9163.000000;-0.040565
9162.000000;-0.040905
9161.000000;-0.041168
9160.000000;-0.041303
9159.000000;-0.041385
9158.000000;-0.041569
9157.000000;-0.041927
9156.000000;-0.042358
9155.000000;-0.042694
9154.000000;-0.042886
9153.000000;-0.043030
9152.000000;-0.043222
9151.000000;-0.043458
9150.000000;-0.043676
9149.000000;-0.043846
9148.000000;-0.043970
9147.000000;-0.044067
9146.000000;-0.044187
9145.000000;-0.044420
9144.000000;-0.044813
9143.000000;-0.045284
9142.000000;-0.045648
9141.000000;-0.045772
9140.000000;-0.045681
9139.000000;-0.045549
9138.000000;-0.045579
9137.000000;-0.045853
9136.000000;-0.046263
9135.000000;-0.046603
9134.000000;-0.046766
9133.000000;-0.046835
9132.000000;-0.046986
9131.000000;-0.047293
9130.000000;-0.047679
9129.000000;-0.048031
9128.000000;-0.048314
9127.000000;-0.048563
9126.000000;-0.048799
9125.000000;-0.048989
9124.000000;-0.049101
9123.000000;-0.049162
9122.000000;-0.049254
9121.000000;-0.049428
9120.000000;-0.049658
9119.000000;-0.049894
9118.000000;-0.050129
9117.000000;-0.050400
9116.000000;-0.050706
9115.000000;-0.050969
9114.000000;-0.051108
9113.000000;-0.051135
9112.000000;-0.051166
9111.000000;-0.051309
9110.000000;-0.051575
9109.000000;-0.051878
9108.000000;-0.052140
9107.000000;-0.052352
9106.000000;-0.052536
9105.000000;-0.052681
9104.000000;-0.052740
9103.000000;-0.052717
9102.000000;-0.052701
9101.000000;-0.052791
9100.000000;-0.053014
9099.000000;-0.053329
9098.000000;-0.053678
9097.000000;-0.054010
9096.000000;-0.054271
9095.000000;-0.054443
9094.000000;-0.054568
9093.000000;-0.054714
9092.000000;-0.054907
9091.000000;-0.055127
9090.000000;-0.055349
9089.000000;-0.055561
9088.000000;-0.055743
9087.000000;-0.055886
9086.000000;-0.056018
9085.000000;-0.056178
9084.000000;-0.056351
9083.000000;-0.056487
9082.000000;-0.056598
9081.000000;-0.056766
9080.000000;-0.057037
9079.000000;-0.057355
9078.000000;-0.057618
9077.000000;-0.057797
9076.000000;-0.057952
9075.000000;-0.058153
9074.000000;-0.058419
9073.000000;-0.058717
9072.000000;-0.058993
9071.000000;-0.059207
9070.000000;-0.059346
9069.000000;-0.059428
9068.000000;-0.059489
9067.000000;-0.059572
9066.000000;-0.059706
9065.000000;-0.059887
