Criado como novo conjunto de dados;"e2410_daniel_v2.spp","27543.1 Secs"
cm-1;Abs
10000.000000;0.517975
9999.000000;0.517708
9998.000000;0.517255
9997.000000;0.516656
9996.000000;0.516063
9995.000000;0.515464
9994.000000;0.514863
9993.000000;0.514352
9992.000000;0.513939
9991.000000;0.513507
9990.000000;0.513051
9989.000000;0.512680
9988.000000;0.512351
9987.000000;0.511915
9986.000000;0.511467
9985.000000;0.511263
9984.000000;0.511240
9983.000000;0.510990
9982.000000;0.510328
9981.000000;0.509513
9980.000000;0.508804
9979.000000;0.508177
9978.000000;0.507598
9977.000000;0.507168
9976.000000;0.506821
9975.000000;0.506268
9974.000000;0.505449
9973.000000;0.504710
9972.000000;0.504322
9971.000000;0.504121
9970.000000;0.503815
9969.000000;0.503360
9968.000000;0.502841
9967.000000;0.502251
9966.000000;0.501596
9965.000000;0.500998
9964.000000;0.500508
9963.000000;0.500002
9962.000000;0.499387
9961.000000;0.498717
9960.000000;0.498057
9959.000000;0.497443
9958.000000;0.497021
9957.000000;0.496923
9956.000000;0.496923
9955.000000;0.496560
9954.000000;0.495715
9953.000000;0.494757
9952.000000;0.494036
9951.000000;0.493516
9950.000000;0.493062
9949.000000;0.492730
9948.000000;0.492583
9947.000000;0.492474
9946.000000;0.492226
9945.000000;0.491837
9944.000000;0.491360
9943.000000;0.490782
9942.000000;0.490132
9941.000000;0.489533
9940.000000;0.489013
9939.000000;0.488473
9938.000000;0.487887
9937.000000;0.487337
9936.000000;0.486798
9935.000000;0.486141
9934.000000;0.485405
9933.000000;0.484830
9932.000000;0.484530
9931.000000;0.484356
9930.000000;0.484144
9929.000000;0.483866
9928.000000;0.483490
9927.000000;0.482934
9926.000000;0.482232
9925.000000;0.481518
9924.000000;0.480838
9923.000000;0.480197
9922.000000;0.479761
9921.000000;0.479696
9920.000000;0.479790
9919.000000;0.479586
9918.000000;0.478959
9917.000000;0.478241
9916.000000;0.477706
9915.000000;0.477246
9914.000000;0.476673
9913.000000;0.476006
9912.000000;0.475327
9911.000000;0.474624
9910.000000;0.473934
9909.000000;0.473402
9908.000000;0.473057
9907.000000;0.472729
9906.000000;0.472281
9905.000000;0.471744
9904.000000;0.471180
9903.000000;0.470608
9902.000000;0.470085
9901.000000;0.469647
9900.000000;0.469150
9899.000000;0.468458
9898.000000;0.467755
9897.000000;0.467384
9896.000000;0.467333
9895.000000;0.467190
9894.000000;0.466678
9893.000000;0.465951
9892.000000;0.465293
9891.000000;0.464803
9890.000000;0.464459
9889.000000;0.464206
9888.000000;0.463901
9887.000000;0.463390
9886.000000;0.462731
9885.000000;0.462123
9884.000000;0.461613
9883.000000;0.461103
9882.000000;0.460617
9881.000000;0.460263
9880.000000;0.459935
9879.000000;0.459398
9878.000000;0.458683
9877.000000;0.458073
9876.000000;0.457643
9875.000000;0.457154
9874.000000;0.456466
9873.000000;0.455734
9872.000000;0.455090
9871.000000;0.454489
9870.000000;0.453931
9869.000000;0.453535
9868.000000;0.453268
9867.000000;0.452922
9866.000000;0.452477
9865.000000;0.452169
9864.000000;0.452067
9863.000000;0.451888
9862.000000;0.451394
9861.000000;0.450713
9860.000000;0.450089
9859.000000;0.449556
9858.000000;0.449036
9857.000000;0.448552
9856.000000;0.448164
9855.000000;0.447813
9854.000000;0.447389
9853.000000;0.446851
9852.000000;0.446234
9851.000000;0.445644
9850.000000;0.445256
9849.000000;0.445139
9848.000000;0.445106
9847.000000;0.444881
9846.000000;0.444381
9845.000000;0.443683
9844.000000;0.442812
9843.000000;0.441825
9842.000000;0.440999
9841.000000;0.440605
9840.000000;0.440494
9839.000000;0.440232
9838.000000;0.439645
9837.000000;0.438933
9836.000000;0.438270
9835.000000;0.437626
9834.000000;0.437021
9833.000000;0.436607
9832.000000;0.436404
9831.000000;0.436249
9830.000000;0.436072
9829.000000;0.435945
9828.000000;0.435803
9827.000000;0.435409
9826.000000;0.434692
9825.000000;0.433853
9824.000000;0.433082
9823.000000;0.432408
9822.000000;0.431877
9821.000000;0.431608
9820.000000;0.431565
9819.000000;0.431505
9818.000000;0.431217
9817.000000;0.430644
9816.000000;0.429810
9815.000000;0.428854
9814.000000;0.428098
9813.000000;0.427787
9812.000000;0.427742
9811.000000;0.427538
9810.000000;0.427011
9809.000000;0.426337
9808.000000;0.425660
9807.000000;0.424977
9806.000000;0.424367
9805.000000;0.423963
9804.000000;0.423665
9803.000000;0.423217
9802.000000;0.422614
9801.000000;0.422116
9800.000000;0.421820
9799.000000;0.421553
9798.000000;0.421207
9797.000000;0.420857
9796.000000;0.420494
9795.000000;0.419985
9794.000000;0.419368
9793.000000;0.418826
9792.000000;0.418342
9791.000000;0.417709
9790.000000;0.416951
9789.000000;0.416364
9788.000000;0.416045
9787.000000;0.415754
9786.000000;0.415330
9785.000000;0.414913
9784.000000;0.414591
9783.000000;0.414218
9782.000000;0.413730
9781.000000;0.413321
9780.000000;0.413110
9779.000000;0.412900
9778.000000;0.412475
9777.000000;0.411883
9776.000000;0.411283
9775.000000;0.410703
9774.000000;0.410119
9773.000000;0.409558
9772.000000;0.409007
9771.000000;0.408396
9770.000000;0.407779
9769.000000;0.407326
9768.000000;0.407078
9767.000000;0.406888
9766.000000;0.406652
9765.000000;0.406370
9764.000000;0.405957
9763.000000;0.405274
9762.000000;0.404407
9761.000000;0.403649
9760.000000;0.403136
9759.000000;0.402722
9758.000000;0.402291
9757.000000;0.401912
9756.000000;0.401617
9755.000000;0.401286
9754.000000;0.400834
9753.000000;0.400312
9752.000000;0.399751
9751.000000;0.399143
9750.000000;0.398590
9749.000000;0.398219
9748.000000;0.397915
9747.000000;0.397429
9746.000000;0.396778
9745.000000;0.396238
9744.000000;0.395910
9743.000000;0.395599
9742.000000;0.395207
9741.000000;0.394906
9740.000000;0.394795
9739.000000;0.394690
9738.000000;0.394392
9737.000000;0.393924
9736.000000;0.393377
9735.000000;0.392768
9734.000000;0.392170
9733.000000;0.391717
9732.000000;0.391373
9731.000000;0.390930
9730.000000;0.390347
9729.000000;0.389842
9728.000000;0.389537
9727.000000;0.389278
9726.000000;0.388902
9725.000000;0.388436
9724.000000;0.387912
9723.000000;0.387254
9722.000000;0.386506
9721.000000;0.385912
9720.000000;0.385600
9719.000000;0.385382
9718.000000;0.385029
9717.000000;0.384561
9716.000000;0.384123
9715.000000;0.383751
9714.000000;0.383410
9713.000000;0.383094
9712.000000;0.382768
9711.000000;0.382328
9710.000000;0.381752
9709.000000;0.381161
9708.000000;0.380649
9707.000000;0.380173
9706.000000;0.379663
9705.000000;0.379135
9704.000000;0.378631
9703.000000;0.378179
9702.000000;0.377839
9701.000000;0.377648
9700.000000;0.377491
9699.000000;0.377171
9698.000000;0.376646
9697.000000;0.376050
9696.000000;0.375487
9695.000000;0.374973
9694.000000;0.374545
9693.000000;0.374237
9692.000000;0.373931
9691.000000;0.373456
9690.000000;0.372837
9689.000000;0.372269
9688.000000;0.371825
9687.000000;0.371396
9686.000000;0.370937
9685.000000;0.370554
9684.000000;0.370298
9683.000000;0.370054
9682.000000;0.369690
9681.000000;0.369189
9680.000000;0.368608
9679.000000;0.368042
9678.000000;0.367586
9677.000000;0.367202
9676.000000;0.366686
9675.000000;0.365940
9674.000000;0.365200
9673.000000;0.364774
9672.000000;0.364628
9671.000000;0.364466
9670.000000;0.364146
9669.000000;0.363756
9668.000000;0.363340
9667.000000;0.362843
9666.000000;0.362306
9665.000000;0.361843
9664.000000;0.361417
9663.000000;0.360905
9662.000000;0.360358
9661.000000;0.359937
9660.000000;0.359612
9659.000000;0.359199
9658.000000;0.358687
9657.000000;0.358237
9656.000000;0.357859
9655.000000;0.357399
9654.000000;0.356861
9653.000000;0.356436
9652.000000;0.356160
9651.000000;0.355855
9650.000000;0.355458
9649.000000;0.355107
9648.000000;0.354844
9647.000000;0.354506
9646.000000;0.354010
9645.000000;0.353466
9644.000000;0.352951
9643.000000;0.352398
9642.000000;0.351813
9641.000000;0.351336
9640.000000;0.351001
9639.000000;0.350667
9638.000000;0.350263
9637.000000;0.349890
9636.000000;0.349581
9635.000000;0.349192
9634.000000;0.348618
9633.000000;0.347969
9632.000000;0.347433
9631.000000;0.347111
9630.000000;0.346993
9629.000000;0.346945
9628.000000;0.346733
9627.000000;0.346221
9626.000000;0.345540
9625.000000;0.344911
9624.000000;0.344357
9623.000000;0.343784
9622.000000;0.343263
9621.000000;0.342962
9620.000000;0.342850
9619.000000;0.342720
9618.000000;0.342492
9617.000000;0.342224
9616.000000;0.341876
9615.000000;0.341343
9614.000000;0.340710
9613.000000;0.340185
9612.000000;0.339773
9611.000000;0.339308
9610.000000;0.338794
9609.000000;0.338412
9608.000000;0.338186
9607.000000;0.337945
9606.000000;0.337639
9605.000000;0.337377
9604.000000;0.337121
9603.000000;0.336673
9602.000000;0.336013
9601.000000;0.335342
9600.000000;0.334738
9599.000000;0.334073
9598.000000;0.333351
9597.000000;0.332792
9596.000000;0.332492
9595.000000;0.332261
9594.000000;0.331932
9593.000000;0.331575
9592.000000;0.331293
9591.000000;0.331051
9590.000000;0.330799
9589.000000;0.330535
9588.000000;0.330192
9587.000000;0.329680
9586.000000;0.329117
9585.000000;0.328758
9584.000000;0.328624
9583.000000;0.328443
9582.000000;0.328045
9581.000000;0.327549
9580.000000;0.327118
9579.000000;0.326753
9578.000000;0.326449
9577.000000;0.326282
9576.000000;0.326228
9575.000000;0.326108
9574.000000;0.325804
9573.000000;0.325370
9572.000000;0.324852
9571.000000;0.324218
9570.000000;0.323543
9569.000000;0.323039
9568.000000;0.322798
9567.000000;0.322673
9566.000000;0.322482
9565.000000;0.322155
9564.000000;0.321656
9563.000000;0.320974
9562.000000;0.320224
9561.000000;0.319589
9560.000000;0.319104
9559.000000;0.318667
9558.000000;0.318270
9557.000000;0.317993
9556.000000;0.317788
9555.000000;0.317486
9554.000000;0.317058
9553.000000;0.316643
9552.000000;0.316287
9551.000000;0.315908
9550.000000;0.315509
9549.000000;0.315196
9548.000000;0.314938
9547.000000;0.314566
9546.000000;0.314062
9545.000000;0.313601
9544.000000;0.313254
9543.000000;0.312910
9542.000000;0.312516
9541.000000;0.312156
9540.000000;0.311819
9539.000000;0.311356
9538.000000;0.310739
9537.000000;0.310140
9536.000000;0.309679
9535.000000;0.309311
9534.000000;0.309004
9533.000000;0.308781
9532.000000;0.308552
9531.000000;0.308158
9530.000000;0.307659
9529.000000;0.307321
9528.000000;0.307228
9527.000000;0.307150
9526.000000;0.306870
9525.000000;0.306417
9524.000000;0.305872
9523.000000;0.305219
9522.000000;0.304494
9521.000000;0.303859
9520.000000;0.303388
9519.000000;0.302970
9518.000000;0.302515
9517.000000;0.302090
9516.000000;0.301747
9515.000000;0.301427
9514.000000;0.301122
9513.000000;0.300916
9512.000000;0.300787
9511.000000;0.300560
9510.000000;0.300172
9509.000000;0.299792
9508.000000;0.299559
9507.000000;0.299369
9506.000000;0.299043
9505.000000;0.298545
9504.000000;0.297936
9503.000000;0.297272
9502.000000;0.296656
9501.000000;0.296242
9500.000000;0.296066
9499.000000;0.295961
9498.000000;0.295748
9497.000000;0.295405
9496.000000;0.295005
9495.000000;0.294589
9494.000000;0.294168
9493.000000;0.293751
9492.000000;0.293319
9491.000000;0.292869
9490.000000;0.292473
9489.000000;0.292212
9488.000000;0.292029
9487.000000;0.291760
9486.000000;0.291331
9485.000000;0.290824
9484.000000;0.290364
9483.000000;0.290036
9482.000000;0.289885
9481.000000;0.289852
9480.000000;0.289747
9479.000000;0.289415
9478.000000;0.288907
9477.000000;0.288378
9476.000000;0.287884
9475.000000;0.287401
9474.000000;0.286942
9473.000000;0.286487
9472.000000;0.285908
9471.000000;0.285165
9470.000000;0.284492
9469.000000;0.284158
9468.000000;0.284116
9467.000000;0.284104
9466.000000;0.283999
9465.000000;0.283850
9464.000000;0.283611
9463.000000;0.283172
9462.000000;0.282605
9461.000000;0.282107
9460.000000;0.281700
9459.000000;0.281254
9458.000000;0.280801
9457.000000;0.280531
9456.000000;0.280432
9455.000000;0.280232
9454.000000;0.279785
9453.000000;0.279258
9452.000000;0.278872
9451.000000;0.278640
9450.000000;0.278425
9449.000000;0.278091
9448.000000;0.277554
9447.000000;0.276870
9446.000000;0.276292
9445.000000;0.276033
9444.000000;0.275998
9443.000000;0.275911
9442.000000;0.275713
9441.000000;0.275569
9440.000000;0.275527
9439.000000;0.275420
9438.000000;0.275140
9437.000000;0.274768
9436.000000;0.274366
9435.000000;0.273884
9434.000000;0.273316
9433.000000;0.272750
9432.000000;0.272213
9431.000000;0.271662
9430.000000;0.271144
9429.000000;0.270773
9428.000000;0.270517
9427.000000;0.270227
9426.000000;0.269873
9425.000000;0.269567
9424.000000;0.269329
9423.000000;0.269058
9422.000000;0.268734
9421.000000;0.268447
9420.000000;0.268203
9419.000000;0.267923
9418.000000;0.267630
9417.000000;0.267408
9416.000000;0.267179
9415.000000;0.266777
9414.000000;0.266255
9413.000000;0.265862
9412.000000;0.265684
9411.000000;0.265539
9410.000000;0.265275
9409.000000;0.264947
9408.000000;0.264638
9407.000000;0.264329
9406.000000;0.264001
9405.000000;0.263669
9404.000000;0.263272
9403.000000;0.262744
9402.000000;0.262207
9401.000000;0.261876
9400.000000;0.261739
9399.000000;0.261550
9398.000000;0.261172
9397.000000;0.260722
9396.000000;0.260346
9395.000000;0.260053
9394.000000;0.259811
9393.000000;0.259589
9392.000000;0.259273
9391.000000;0.258756
9390.000000;0.258151
9389.000000;0.257716
9388.000000;0.257523
9387.000000;0.257412
9386.000000;0.257262
9385.000000;0.257071
9384.000000;0.256766
9383.000000;0.256220
9382.000000;0.255521
9381.000000;0.254978
9380.000000;0.254758
9379.000000;0.254725
9378.000000;0.254684
9377.000000;0.254566
9376.000000;0.254325
9375.000000;0.253889
9374.000000;0.253323
9373.000000;0.252826
9372.000000;0.252485
9371.000000;0.252202
9370.000000;0.251902
9369.000000;0.251609
9368.000000;0.251297
9367.000000;0.250877
9366.000000;0.250404
9365.000000;0.250058
9364.000000;0.249864
9363.000000;0.249629
9362.000000;0.249251
9361.000000;0.248876
9360.000000;0.248660
9359.000000;0.248561
9358.000000;0.248450
9357.000000;0.248249
9356.000000;0.247898
9355.000000;0.247340
9354.000000;0.246653
9353.000000;0.246035
9352.000000;0.245603
9351.000000;0.245320
9350.000000;0.245130
9349.000000;0.245023
9348.000000;0.244926
9347.000000;0.244732
9346.000000;0.244450
9345.000000;0.244189
9344.000000;0.243963
9343.000000;0.243710
9342.000000;0.243467
9341.000000;0.243320
9340.000000;0.243174
9339.000000;0.242817
9338.000000;0.242267
9337.000000;0.241787
9336.000000;0.241507
9335.000000;0.241269
9334.000000;0.240925
9333.000000;0.240569
9332.000000;0.240341
9331.000000;0.240194
9330.000000;0.239999
9329.000000;0.239717
9328.000000;0.239364
9327.000000;0.238940
9326.000000;0.238496
9325.000000;0.238140
9324.000000;0.237927
9323.000000;0.237807
9322.000000;0.237724
9321.000000;0.237623
9320.000000;0.237375
9319.000000;0.236874
9318.000000;0.236240
9317.000000;0.235727
9316.000000;0.235409
9315.000000;0.235123
9314.000000;0.234768
9313.000000;0.234455
9312.000000;0.234287
9311.000000;0.234175
9310.000000;0.233979
9309.000000;0.233675
9308.000000;0.233309
9307.000000;0.232891
9306.000000;0.232424
9305.000000;0.231947
9304.000000;0.231507
9303.000000;0.231168
9302.000000;0.231018
9301.000000;0.231044
9300.000000;0.231032
9299.000000;0.230771
9298.000000;0.230349
9297.000000;0.230047
9296.000000;0.229939
9295.000000;0.229796
9294.000000;0.229423
9293.000000;0.228898
9292.000000;0.228410
9291.000000;0.228038
9290.000000;0.227780
9289.000000;0.227631
9288.000000;0.227548
9287.000000;0.227448
9286.000000;0.227307
9285.000000;0.227164
9284.000000;0.227011
9283.000000;0.226763
9282.000000;0.226386
9281.000000;0.225931
9280.000000;0.225459
9279.000000;0.225022
9278.000000;0.224705
9277.000000;0.224538
9276.000000;0.224405
9275.000000;0.224164
9274.000000;0.223851
9273.000000;0.223603
9272.000000;0.223427
9271.000000;0.223195
9270.000000;0.222861
9269.000000;0.222506
9268.000000;0.222186
9267.000000;0.221894
9266.000000;0.221663
9265.000000;0.221539
9264.000000;0.221447
9263.000000;0.221270
9262.000000;0.221029
9261.000000;0.220821
9260.000000;0.220597
9259.000000;0.220204
9258.000000;0.219662
9257.000000;0.219181
9256.000000;0.218872
9255.000000;0.218638
9254.000000;0.218373
9253.000000;0.218097
9252.000000;0.217850
9251.000000;0.217600
9250.000000;0.217323
9249.000000;0.217036
9248.000000;0.216729
9247.000000;0.216383
9246.000000;0.216072
9245.000000;0.215893
9244.000000;0.215791
9243.000000;0.215593
9242.000000;0.215246
9241.000000;0.214879
9240.000000;0.214628
9239.000000;0.214510
9238.000000;0.214459
9237.000000;0.214363
9236.000000;0.214102
9235.000000;0.213688
9234.000000;0.213319
9233.000000;0.213140
9232.000000;0.213001
9231.000000;0.212641
9230.000000;0.212072
9229.000000;0.211572
9228.000000;0.211316
9227.000000;0.211230
9226.000000;0.211173
9225.000000;0.211063
9224.000000;0.210817
9223.000000;0.210382
9222.000000;0.209875
9221.000000;0.209502
9220.000000;0.209308
9219.000000;0.209162
9218.000000;0.208989
9217.000000;0.208847
9216.000000;0.208760
9215.000000;0.208646
9214.000000;0.208459
9213.000000;0.208230
9212.000000;0.207966
9211.000000;0.207637
9210.000000;0.207280
9209.000000;0.206986
9208.000000;0.206766
9207.000000;0.206560
9206.000000;0.206354
9205.000000;0.206160
9204.000000;0.205924
9203.000000;0.205606
9202.000000;0.205299
9201.000000;0.205109
9200.000000;0.204962
9199.000000;0.204714
9198.000000;0.204395
9197.000000;0.204142
9196.000000;0.203921
9195.000000;0.203571
9194.000000;0.203095
9193.000000;0.202703
9192.000000;0.202536
9191.000000;0.202547
9190.000000;0.202635
9189.000000;0.202716
9188.000000;0.202646
9187.000000;0.202306
9186.000000;0.201766
9185.000000;0.201218
9184.000000;0.200748
9183.000000;0.200341
9182.000000;0.200062
9181.000000;0.199999
9180.000000;0.200049
9179.000000;0.199988
9178.000000;0.199755
9177.000000;0.199469
9176.000000;0.199171
9175.000000;0.198779
9174.000000;0.198314
9173.000000;0.197929
9172.000000;0.197680
9171.000000;0.197470
9170.000000;0.197256
9169.000000;0.197113
9168.000000;0.197048
9167.000000;0.196955
9166.000000;0.196797
9165.000000;0.196634
9164.000000;0.196456
9163.000000;0.196156
9162.000000;0.195731
9161.000000;0.195314
9160.000000;0.194991
9159.000000;0.194730
9158.000000;0.194524
9157.000000;0.194408
9156.000000;0.194315
9155.000000;0.194099
9154.000000;0.193746
9153.000000;0.193397
9152.000000;0.193154
9151.000000;0.193003
9150.000000;0.192938
9149.000000;0.192974
9148.000000;0.193005
9147.000000;0.192856
9146.000000;0.192497
9145.000000;0.192062
9144.000000;0.191667
9143.000000;0.191345
9142.000000;0.191151
9141.000000;0.191116
9140.000000;0.191106
9139.000000;0.190940
9138.000000;0.190642
9137.000000;0.190389
9136.000000;0.190204
9135.000000;0.189928
9134.000000;0.189517
9133.000000;0.189152
9132.000000;0.188994
9131.000000;0.189000
9130.000000;0.189048
9129.000000;0.189049
9128.000000;0.188907
9127.000000;0.188554
9126.000000;0.188080
9125.000000;0.187671
9124.000000;0.187397
9123.000000;0.187200
9122.000000;0.187073
9121.000000;0.187051
9120.000000;0.187038
9119.000000;0.186850
9118.000000;0.186478
9117.000000;0.186113
9116.000000;0.185861
9115.000000;0.185629
9114.000000;0.185342
9113.000000;0.185077
9112.000000;0.184908
9111.000000;0.184809
9110.000000;0.184758
9109.000000;0.184779
9108.000000;0.184815
9107.000000;0.184711
9106.000000;0.184403
9105.000000;0.183988
9104.000000;0.183573
9103.000000;0.183182
9102.000000;0.182836
9101.000000;0.182566
9100.000000;0.182322
9099.000000;0.182025
9098.000000;0.181739
9097.000000;0.181621
9096.000000;0.181683
9095.000000;0.181750
9094.000000;0.181682
9093.000000;0.181507
9092.000000;0.181293
9091.000000;0.181059
9090.000000;0.180836
9089.000000;0.180663
9088.000000;0.180505
9087.000000;0.180282
9086.000000;0.180026
9085.000000;0.179842
9084.000000;0.179739
9083.000000;0.179616
9082.000000;0.179427
9081.000000;0.179210
9080.000000;0.178971
9079.000000;0.178679
9078.000000;0.178383
9077.000000;0.178157
9076.000000;0.177959
9075.000000;0.177704
9074.000000;0.177442
9073.000000;0.177295
9072.000000;0.177218
9071.000000;0.177045
9070.000000;0.176755
9069.000000;0.176496
9068.000000;0.176322
9067.000000;0.176122
9066.000000;0.175843
9065.000000;0.175577
9064.000000;0.175390
9063.000000;0.175245
9062.000000;0.175135
9061.000000;0.175108
9060.000000;0.175112
9059.000000;0.175000
9058.000000;0.174733
9057.000000;0.174436
9056.000000;0.174190
9055.000000;0.173956
9054.000000;0.173719
9053.000000;0.173532
