Criado como novo conjunto de dados;"e2410_daniel_v2.spp","69845.2 Secs"
cm-1;Abs
10000.000000;1.345563
9999.000000;1.344035
9998.000000;1.342527
9997.000000;1.340998
9996.000000;1.339520
9995.000000;1.337956
9994.000000;1.336656
9993.000000;1.336090
9992.000000;1.335546
9991.000000;1.335136
9990.000000;1.335103
9989.000000;1.335429
9988.000000;1.335890
9987.000000;1.336424
9986.000000;1.336944
9985.000000;1.337206
9984.000000;1.336968
9983.000000;1.336031
9982.000000;1.334244
9981.000000;1.331933
9980.000000;1.330154
9979.000000;1.329830
9978.000000;1.330677
9977.000000;1.331552
9976.000000;1.331809
9975.000000;1.331700
9974.000000;1.331560
9973.000000;1.331382
9972.000000;1.331135
9971.000000;1.330766
9970.000000;1.329983
9969.000000;1.328768
9968.000000;1.327900
9967.000000;1.328136
9966.000000;1.329029
9965.000000;1.329424
9964.000000;1.328972
9963.000000;1.328172
9962.000000;1.327139
9961.000000;1.325563
9960.000000;1.323829
9959.000000;1.322842
9958.000000;1.322561
9957.000000;1.321964
9956.000000;1.320754
9955.000000;1.319841
9954.000000;1.319716
9953.000000;1.319588
9952.000000;1.318783
9951.000000;1.317944
9950.000000;1.317994
9949.000000;1.318672
9948.000000;1.318874
9947.000000;1.318002
9946.000000;1.316435
9945.000000;1.315052
9944.000000;1.314645
9943.000000;1.315314
9942.000000;1.316153
9941.000000;1.315994
9940.000000;1.314706
9939.000000;1.313258
9938.000000;1.312415
9937.000000;1.312008
9936.000000;1.311625
9935.000000;1.311283
9934.000000;1.311139
9933.000000;1.311083
9932.000000;1.310887
9931.000000;1.310300
9930.000000;1.308989
9929.000000;1.306973
9928.000000;1.305139
9927.000000;1.304591
9926.000000;1.305365
9925.000000;1.306411
9924.000000;1.306901
9923.000000;1.306815
9922.000000;1.306172
9921.000000;1.304676
9920.000000;1.302543
9919.000000;1.300857
9918.000000;1.300556
9917.000000;1.301533
9916.000000;1.302981
9915.000000;1.304084
9914.000000;1.304186
9913.000000;1.302935
9912.000000;1.300647
9911.000000;1.298119
9910.000000;1.295903
9909.000000;1.294103
9908.000000;1.292868
9907.000000;1.292454
9906.000000;1.292717
9905.000000;1.293078
9904.000000;1.293117
9903.000000;1.292782
9902.000000;1.292083
9901.000000;1.291177
9900.000000;1.290679
9899.000000;1.291092
9898.000000;1.291888
9897.000000;1.291950
9896.000000;1.291038
9895.000000;1.290023
9894.000000;1.289514
9893.000000;1.289130
9892.000000;1.288414
9891.000000;1.287661
9890.000000;1.287392
9889.000000;1.287579
9888.000000;1.287790
9887.000000;1.287650
9886.000000;1.286931
9885.000000;1.285671
9884.000000;1.284450
9883.000000;1.284061
9882.000000;1.284645
9881.000000;1.285499
9880.000000;1.285837
9879.000000;1.285364
9878.000000;1.284133
9877.000000;1.282439
9876.000000;1.280949
9875.000000;1.280253
9874.000000;1.280065
9873.000000;1.279437
9872.000000;1.278014
9871.000000;1.276543
9870.000000;1.275871
9869.000000;1.275979
9868.000000;1.276271
9867.000000;1.276362
9866.000000;1.276217
9865.000000;1.275827
9864.000000;1.275117
9863.000000;1.274032
9862.000000;1.272604
9861.000000;1.271061
9860.000000;1.269837
9859.000000;1.269269
9858.000000;1.269339
9857.000000;1.269876
9856.000000;1.270811
9855.000000;1.271907
9854.000000;1.272511
9853.000000;1.272052
9852.000000;1.270680
9851.000000;1.269014
9850.000000;1.267466
9849.000000;1.266226
9848.000000;1.265570
9847.000000;1.265564
9846.000000;1.265647
9845.000000;1.265189
9844.000000;1.264349
9843.000000;1.263790
9842.000000;1.263640
9841.000000;1.263425
9840.000000;1.262976
9839.000000;1.262726
9838.000000;1.262961
9837.000000;1.263315
9836.000000;1.263171
9835.000000;1.262261
9834.000000;1.260880
9833.000000;1.259743
9832.000000;1.259441
9831.000000;1.259741
9830.000000;1.259710
9829.000000;1.258913
9828.000000;1.258015
9827.000000;1.257633
9826.000000;1.257192
9825.000000;1.255834
9824.000000;1.254076
9823.000000;1.253444
9822.000000;1.254498
9821.000000;1.256160
9820.000000;1.257060
9819.000000;1.256756
9818.000000;1.255474
9817.000000;1.253546
9816.000000;1.251472
9815.000000;1.249934
9814.000000;1.249300
9813.000000;1.249348
9812.000000;1.249591
9811.000000;1.249620
9810.000000;1.249216
9809.000000;1.248483
9808.000000;1.247813
9807.000000;1.247427
9806.000000;1.247135
9805.000000;1.246822
9804.000000;1.246785
9803.000000;1.247151
9802.000000;1.247388
9801.000000;1.247006
9800.000000;1.246334
9799.000000;1.245892
9798.000000;1.245376
9797.000000;1.244186
9796.000000;1.242687
9795.000000;1.241932
9794.000000;1.242159
9793.000000;1.242461
9792.000000;1.242091
9791.000000;1.241324
9790.000000;1.240811
9789.000000;1.240717
9788.000000;1.240732
9787.000000;1.240479
9786.000000;1.239751
9785.000000;1.238672
9784.000000;1.237626
9783.000000;1.236790
9782.000000;1.235921
9781.000000;1.234930
9780.000000;1.234309
9779.000000;1.234472
9778.000000;1.234985
9777.000000;1.235057
9776.000000;1.234555
9775.000000;1.233930
9774.000000;1.233382
9773.000000;1.232769
9772.000000;1.232148
9771.000000;1.231722
9770.000000;1.231378
9769.000000;1.230861
9768.000000;1.230240
9767.000000;1.229721
9766.000000;1.229244
9765.000000;1.228807
9764.000000;1.228760
9763.000000;1.229152
9762.000000;1.229198
9761.000000;1.228202
9760.000000;1.226665
9759.000000;1.225570
9758.000000;1.224910
9757.000000;1.223892
9756.000000;1.222393
9755.000000;1.221154
9754.000000;1.220544
9753.000000;1.220116
9752.000000;1.219537
9751.000000;1.219113
9750.000000;1.219164
9749.000000;1.219480
9748.000000;1.219583
9747.000000;1.219087
9746.000000;1.217872
9745.000000;1.216372
9744.000000;1.215501
9743.000000;1.215724
9742.000000;1.216360
9741.000000;1.216384
9740.000000;1.215732
9739.000000;1.215158
9738.000000;1.215012
9737.000000;1.214905
9736.000000;1.214444
9735.000000;1.213615
9734.000000;1.212562
9733.000000;1.211611
9732.000000;1.211311
9731.000000;1.211748
9730.000000;1.212062
9729.000000;1.211363
9728.000000;1.209967
9727.000000;1.208928
9726.000000;1.208566
9725.000000;1.208317
9724.000000;1.207843
9723.000000;1.207410
9722.000000;1.207204
9721.000000;1.207081
9720.000000;1.207007
9719.000000;1.206976
9718.000000;1.206556
9717.000000;1.205283
9716.000000;1.203557
9715.000000;1.202416
9714.000000;1.202390
9713.000000;1.203149
9712.000000;1.204214
9711.000000;1.205299
9710.000000;1.205993
9709.000000;1.205786
9708.000000;1.204586
9707.000000;1.202751
9706.000000;1.200725
9705.000000;1.199042
9704.000000;1.198321
9703.000000;1.198647
9702.000000;1.199220
9701.000000;1.199274
9700.000000;1.199013
9699.000000;1.198961
9698.000000;1.198862
9697.000000;1.198129
9696.000000;1.197026
9695.000000;1.196318
9694.000000;1.195967
9693.000000;1.195232
9692.000000;1.193993
9691.000000;1.192940
9690.000000;1.192430
9689.000000;1.192098
9688.000000;1.191646
9687.000000;1.191186
9686.000000;1.190728
9685.000000;1.190146
9684.000000;1.189700
9683.000000;1.189816
9682.000000;1.190301
9681.000000;1.190469
9680.000000;1.190088
9679.000000;1.189488
9678.000000;1.188840
9677.000000;1.188080
9676.000000;1.187446
9675.000000;1.187255
9674.000000;1.187169
9673.000000;1.186559
9672.000000;1.185552
9671.000000;1.184854
9670.000000;1.184548
9669.000000;1.184042
9668.000000;1.183243
9667.000000;1.182783
9666.000000;1.182899
9665.000000;1.182987
9664.000000;1.182542
9663.000000;1.181792
9662.000000;1.181066
9661.000000;1.180252
9660.000000;1.179193
9659.000000;1.178093
9658.000000;1.177271
9657.000000;1.176894
9656.000000;1.177008
9655.000000;1.177406
9654.000000;1.177512
9653.000000;1.176906
9652.000000;1.175947
9651.000000;1.175345
9650.000000;1.175181
9649.000000;1.174945
9648.000000;1.174389
9647.000000;1.173673
9646.000000;1.172810
9645.000000;1.171724
9644.000000;1.170804
9643.000000;1.170655
9642.000000;1.171228
9641.000000;1.171796
9640.000000;1.171838
9639.000000;1.171367
9638.000000;1.170490
9637.000000;1.169309
9636.000000;1.168199
9635.000000;1.167519
9634.000000;1.167049
9633.000000;1.166353
9632.000000;1.165573
9631.000000;1.165207
9630.000000;1.165187
9629.000000;1.164918
9628.000000;1.164166
9627.000000;1.163245
9626.000000;1.162389
9625.000000;1.161686
9624.000000;1.161507
9623.000000;1.162183
9622.000000;1.163229
9621.000000;1.163634
9620.000000;1.163028
9619.000000;1.161951
9618.000000;1.160990
9617.000000;1.160324
9616.000000;1.160010
9615.000000;1.159950
9614.000000;1.159635
9613.000000;1.158670
9612.000000;1.157543
9611.000000;1.157137
9610.000000;1.157553
9609.000000;1.158104
9608.000000;1.158392
9607.000000;1.158556
9606.000000;1.158478
9605.000000;1.157642
9604.000000;1.155972
9603.000000;1.154077
9602.000000;1.152561
9601.000000;1.151716
9600.000000;1.151803
9599.000000;1.152784
9598.000000;1.153772
9597.000000;1.153621
9596.000000;1.152303
9595.000000;1.150946
9594.000000;1.150356
9593.000000;1.150243
9592.000000;1.150034
9591.000000;1.149633
9590.000000;1.149119
9589.000000;1.148392
9588.000000;1.147495
9587.000000;1.146758
9586.000000;1.146347
9585.000000;1.146083
9584.000000;1.145840
9583.000000;1.145680
9582.000000;1.145503
9581.000000;1.145034
9580.000000;1.144244
9579.000000;1.143412
9578.000000;1.142775
9577.000000;1.142494
9576.000000;1.142778
9575.000000;1.143540
9574.000000;1.144045
9573.000000;1.143594
9572.000000;1.142495
9571.000000;1.141705
9570.000000;1.141533
9569.000000;1.141324
9568.000000;1.140377
9567.000000;1.138667
9566.000000;1.136675
9565.000000;1.135069
9564.000000;1.134465
9563.000000;1.134876
9562.000000;1.135438
9561.000000;1.135281
9560.000000;1.134620
9559.000000;1.134342
9558.000000;1.134683
9557.000000;1.135028
9556.000000;1.134938
9555.000000;1.134572
9554.000000;1.134079
9553.000000;1.133362
9552.000000;1.132560
9551.000000;1.132033
9550.000000;1.131734
9549.000000;1.131247
9548.000000;1.130570
9547.000000;1.130233
9546.000000;1.130463
9545.000000;1.130795
9544.000000;1.130665
9543.000000;1.129943
9542.000000;1.128815
9541.000000;1.127649
9540.000000;1.126989
9539.000000;1.127129
9538.000000;1.127622
9537.000000;1.127683
9536.000000;1.127130
9535.000000;1.126445
9534.000000;1.125967
9533.000000;1.125546
9532.000000;1.124990
9531.000000;1.124319
9530.000000;1.123580
9529.000000;1.122873
9528.000000;1.122468
9527.000000;1.122434
9526.000000;1.122317
9525.000000;1.121671
9524.000000;1.120771
9523.000000;1.120219
9522.000000;1.120029
9521.000000;1.119703
9520.000000;1.119069
9519.000000;1.118405
9518.000000;1.117837
9517.000000;1.117279
9516.000000;1.116878
9515.000000;1.116839
9514.000000;1.116909
9513.000000;1.116655
9512.000000;1.116221
9511.000000;1.116147
9510.000000;1.116476
9509.000000;1.116681
9508.000000;1.116430
9507.000000;1.115856
9506.000000;1.115137
9505.000000;1.114448
9504.000000;1.114190
9503.000000;1.114547
9502.000000;1.114897
9501.000000;1.114412
9500.000000;1.113201
9499.000000;1.112133
9498.000000;1.111588
9497.000000;1.111187
9496.000000;1.110720
9495.000000;1.110513
9494.000000;1.110723
9493.000000;1.111015
9492.000000;1.111119
9491.000000;1.111076
9490.000000;1.110813
9489.000000;1.110119
9488.000000;1.109187
9487.000000;1.108553
9486.000000;1.108333
9485.000000;1.108068
9484.000000;1.107467
9483.000000;1.106776
9482.000000;1.106292
9481.000000;1.106010
9480.000000;1.105835
9479.000000;1.105671
9478.000000;1.105269
9477.000000;1.104436
9476.000000;1.103414
9475.000000;1.102599
9474.000000;1.101957
9473.000000;1.101200
9472.000000;1.100435
9471.000000;1.100056
9470.000000;1.100039
9469.000000;1.099964
9468.000000;1.099739
9467.000000;1.099711
9466.000000;1.100015
9465.000000;1.100353
9464.000000;1.100485
9463.000000;1.100404
9462.000000;1.100015
9461.000000;1.099181
9460.000000;1.098114
9459.000000;1.097255
9458.000000;1.096731
9457.000000;1.096357
9456.000000;1.096102
9455.000000;1.096094
9454.000000;1.096225
9453.000000;1.096197
9452.000000;1.095890
9451.000000;1.095291
9450.000000;1.094281
9449.000000;1.092961
9448.000000;1.091924
9447.000000;1.091601
9446.000000;1.091535
9445.000000;1.090946
9444.000000;1.089852
9443.000000;1.088963
9442.000000;1.088635
9441.000000;1.088596
9440.000000;1.088609
9439.000000;1.088724
9438.000000;1.088861
9437.000000;1.088813
9436.000000;1.088647
9435.000000;1.088532
9434.000000;1.088237
9433.000000;1.087416
9432.000000;1.086335
9431.000000;1.085662
9430.000000;1.085589
9429.000000;1.085753
9428.000000;1.085948
9427.000000;1.086257
9426.000000;1.086477
9425.000000;1.086126
9424.000000;1.085112
9423.000000;1.083874
9422.000000;1.082829
9421.000000;1.082144
9420.000000;1.081931
9419.000000;1.082073
9418.000000;1.081952
9417.000000;1.081007
9416.000000;1.079595
9415.000000;1.078670
9414.000000;1.078633
9413.000000;1.079035
9412.000000;1.079329
9411.000000;1.079320
9410.000000;1.078915
9409.000000;1.078066
9408.000000;1.077031
9407.000000;1.076196
9406.000000;1.075624
9405.000000;1.075214
9404.000000;1.075137
9403.000000;1.075582
9402.000000;1.076184
9401.000000;1.076327
9400.000000;1.075940
9399.000000;1.075423
9398.000000;1.074941
9397.000000;1.074369
9396.000000;1.073771
9395.000000;1.073255
9394.000000;1.072521
9393.000000;1.071275
9392.000000;1.069980
9391.000000;1.069450
9390.000000;1.069746
9389.000000;1.070160
9388.000000;1.070260
9387.000000;1.070244
9386.000000;1.070262
9385.000000;1.070132
9384.000000;1.069828
9383.000000;1.069592
9382.000000;1.069465
9381.000000;1.069278
9380.000000;1.069093
9379.000000;1.069068
9378.000000;1.068916
9377.000000;1.068174
9376.000000;1.067020
9375.000000;1.066162
9374.000000;1.065915
9373.000000;1.065990
9372.000000;1.066166
9371.000000;1.066493
9370.000000;1.066804
9369.000000;1.066723
9368.000000;1.066253
9367.000000;1.065751
9366.000000;1.065251
9365.000000;1.064448
9364.000000;1.063437
9363.000000;1.062825
9362.000000;1.062933
9361.000000;1.063389
9360.000000;1.063595
9359.000000;1.063210
9358.000000;1.062208
9357.000000;1.060953
9356.000000;1.060146
9355.000000;1.060147
9354.000000;1.060418
9353.000000;1.060147
9352.000000;1.059313
9351.000000;1.058533
9350.000000;1.058029
9349.000000;1.057486
9348.000000;1.056867
9347.000000;1.056563
9346.000000;1.056667
9345.000000;1.056802
9344.000000;1.056782
9343.000000;1.056808
9342.000000;1.056887
9341.000000;1.056691
9340.000000;1.056107
9339.000000;1.055402
9338.000000;1.054764
9337.000000;1.054184
9336.000000;1.053795
9335.000000;1.053781
9334.000000;1.053936
9333.000000;1.053860
9332.000000;1.053567
9331.000000;1.053326
9330.000000;1.052994
9329.000000;1.052156
9328.000000;1.050915
9327.000000;1.049878
9326.000000;1.049304
9325.000000;1.048927
9324.000000;1.048615
9323.000000;1.048526
9322.000000;1.048559
9321.000000;1.048358
9320.000000;1.048007
9319.000000;1.048006
9318.000000;1.048428
9317.000000;1.048720
9316.000000;1.048550
9315.000000;1.048222
9314.000000;1.048051
9313.000000;1.047871
9312.000000;1.047425
9311.000000;1.046746
9310.000000;1.045987
9309.000000;1.045286
9308.000000;1.044928
9307.000000;1.045181
9306.000000;1.045808
9305.000000;1.046154
9304.000000;1.045818
9303.000000;1.044909
9302.000000;1.043676
9301.000000;1.042397
9300.000000;1.041599
9299.000000;1.041787
9298.000000;1.042783
9297.000000;1.043763
9296.000000;1.044089
9295.000000;1.043765
9294.000000;1.043106
9293.000000;1.042401
9292.000000;1.041883
9291.000000;1.041558
9290.000000;1.041062
9289.000000;1.040105
9288.000000;1.039023
9287.000000;1.038412
9286.000000;1.038313
9285.000000;1.038264
9284.000000;1.038092
9283.000000;1.038055
9282.000000;1.038192
9281.000000;1.038130
9280.000000;1.037647
9279.000000;1.036943
9278.000000;1.036282
9277.000000;1.035818
9276.000000;1.035712
9275.000000;1.035943
9274.000000;1.036004
9273.000000;1.035354
9272.000000;1.034203
9271.000000;1.033337
9270.000000;1.033141
9269.000000;1.033282
9268.000000;1.033330
9267.000000;1.033169
9266.000000;1.032773
9265.000000;1.032135
9264.000000;1.031488
9263.000000;1.031120
9262.000000;1.030926
9261.000000;1.030601
9260.000000;1.030246
9259.000000;1.030263
9258.000000;1.030634
9257.000000;1.030827
9256.000000;1.030500
9255.000000;1.029874
9254.000000;1.029338
9253.000000;1.029115
9252.000000;1.029279
9251.000000;1.029618
9250.000000;1.029540
9249.000000;1.028622
9248.000000;1.027260
9247.000000;1.026323
9246.000000;1.026205
9245.000000;1.026609
9244.000000;1.027150
9243.000000;1.027647
9242.000000;1.027897
9241.000000;1.027682
9240.000000;1.027036
9239.000000;1.026092
9238.000000;1.024809
9237.000000;1.023287
9236.000000;1.022128
9235.000000;1.021865
9234.000000;1.022178
9233.000000;1.022293
9232.000000;1.022039
9231.000000;1.021846
9230.000000;1.021821
9229.000000;1.021600
9228.000000;1.021137
9227.000000;1.020870
9226.000000;1.020972
9225.000000;1.021070
9224.000000;1.020859
9223.000000;1.020456
9222.000000;1.020015
9221.000000;1.019562
9220.000000;1.019256
9219.000000;1.019287
9218.000000;1.019435
9217.000000;1.019254
9216.000000;1.018743
9215.000000;1.018321
9214.000000;1.018129
9213.000000;1.017935
9212.000000;1.017721
9211.000000;1.017746
9210.000000;1.017940
9209.000000;1.017852
9208.000000;1.017302
9207.000000;1.016572
9206.000000;1.015871
9205.000000;1.015162
9204.000000;1.014531
9203.000000;1.014158
9202.000000;1.013862
9201.000000;1.013276
9200.000000;1.012572
9199.000000;1.012389
9198.000000;1.012867
9197.000000;1.013327
9196.000000;1.013111
9195.000000;1.012296
9194.000000;1.011415
9193.000000;1.010919
9192.000000;1.011029
9191.000000;1.011622
9190.000000;1.012140
9189.000000;1.012070
9188.000000;1.011595
9187.000000;1.011325
9186.000000;1.011371
9185.000000;1.011236
9184.000000;1.010696
9183.000000;1.010198
9182.000000;1.010165
9181.000000;1.010410
9180.000000;1.010474
9179.000000;1.010171
9178.000000;1.009587
9177.000000;1.008881
9176.000000;1.008237
9175.000000;1.007750
9174.000000;1.007310
9173.000000;1.006863
9172.000000;1.006707
9171.000000;1.007133
9170.000000;1.007844
9169.000000;1.008182
9168.000000;1.007922
9167.000000;1.007389
9166.000000;1.006816
9165.000000;1.006108
9164.000000;1.005250
9163.000000;1.004450
9162.000000;1.003831
9161.000000;1.003394
9160.000000;1.003247
9159.000000;1.003433
9158.000000;1.003603
9157.000000;1.003367
9156.000000;1.002929
9155.000000;1.002798
9154.000000;1.002937
9153.000000;1.002803
9152.000000;1.002226
9151.000000;1.001616
9150.000000;1.001238
9149.000000;1.000947
9148.000000;1.000734
9147.000000;1.000871
9146.000000;1.001304
9145.000000;1.001509
9144.000000;1.001209
9143.000000;1.000710
9142.000000;1.000299
9141.000000;0.999831
9140.000000;0.999181
9139.000000;0.998605
9138.000000;0.998320
9137.000000;0.998112
9136.000000;0.997650
9135.000000;0.996932
9134.000000;0.996238
9133.000000;0.995862
9132.000000;0.995973
9131.000000;0.996434
9130.000000;0.996709
9129.000000;0.996332
9128.000000;0.995531
9127.000000;0.994995
9126.000000;0.994986
9125.000000;0.995070
9124.000000;0.994803
9123.000000;0.994257
9122.000000;0.993737
9121.000000;0.993390
9120.000000;0.993276
9119.000000;0.993461
9118.000000;0.993867
9117.000000;0.994259
9116.000000;0.994495
9115.000000;0.994560
9114.000000;0.994390
9113.000000;0.993943
9112.000000;0.993429
9111.000000;0.993099
9110.000000;0.992823
9109.000000;0.992240
9108.000000;0.991343
9107.000000;0.990559
9106.000000;0.990214
9105.000000;0.990255
9104.000000;0.990513
9103.000000;0.990860
9102.000000;0.991110
9101.000000;0.991098
9100.000000;0.990887
9099.000000;0.990615
9098.000000;0.990218
9097.000000;0.989618
9096.000000;0.989080
9095.000000;0.988953
9094.000000;0.989138
9093.000000;0.989231
9092.000000;0.989116
9091.000000;0.988989
9090.000000;0.988861
9089.000000;0.988544
9088.000000;0.988091
9087.000000;0.987765
9086.000000;0.987566
9085.000000;0.987274
9084.000000;0.986934
9083.000000;0.986805
9082.000000;0.986808
9081.000000;0.986574
9080.000000;0.986080
9079.000000;0.985703
9078.000000;0.985568
9077.000000;0.985369
9076.000000;0.984958
9075.000000;0.984612
9074.000000;0.984524
9073.000000;0.984486
9072.000000;0.984279
9071.000000;0.983977
9070.000000;0.983691
9069.000000;0.983372
9068.000000;0.983002
9067.000000;0.982682
9066.000000;0.982403
9065.000000;0.982047
9064.000000;0.981673
9063.000000;0.981468
9062.000000;0.981375
9061.000000;0.981154
9060.000000;0.980878
9059.000000;0.980948
9058.000000;0.981473
9057.000000;0.981986
9056.000000;0.981950
9055.000000;0.981309
9054.000000;0.980429
9053.000000;0.979729
