Criado como novo conjunto de dados;"e2410_daniel_v2.spp","91806.8 Secs"
cm-1;Abs
10000.000000;0.093342
9999.000000;0.094132
9998.000000;0.094796
9997.000000;0.095264
9996.000000;0.095583
9995.000000;0.095939
9994.000000;0.096536
9993.000000;0.097389
9992.000000;0.098308
9991.000000;0.099096
9990.000000;0.099728
9989.000000;0.100294
9988.000000;0.100856
9987.000000;0.101395
9986.000000;0.101879
9985.000000;0.102321
9984.000000;0.102765
9983.000000;0.103249
9982.000000;0.103768
9981.000000;0.104262
9980.000000;0.104655
9979.000000;0.104931
9978.000000;0.105189
9977.000000;0.105611
9976.000000;0.106354
9975.000000;0.107414
9974.000000;0.108601
9973.000000;0.109682
9972.000000;0.110566
9971.000000;0.111297
9970.000000;0.111894
9969.000000;0.112314
9968.000000;0.112600
9967.000000;0.112945
9966.000000;0.113494
9965.000000;0.114170
9964.000000;0.114804
9963.000000;0.115365
9962.000000;0.115931
9961.000000;0.116515
9960.000000;0.117066
9959.000000;0.117601
9958.000000;0.118163
9957.000000;0.118687
9956.000000;0.119059
9955.000000;0.119335
9954.000000;0.119731
9953.000000;0.120360
9952.000000;0.121120
9951.000000;0.121893
9950.000000;0.122689
9949.000000;0.123535
9948.000000;0.124359
9947.000000;0.125090
9946.000000;0.125757
9945.000000;0.126394
9944.000000;0.126925
9943.000000;0.127275
9942.000000;0.127522
9941.000000;0.127844
9940.000000;0.128361
9939.000000;0.129096
9938.000000;0.130026
9937.000000;0.131065
9936.000000;0.132042
9935.000000;0.132777
9934.000000;0.133215
9933.000000;0.133457
9932.000000;0.133709
9931.000000;0.134183
9930.000000;0.134976
9929.000000;0.135965
9928.000000;0.136890
9927.000000;0.137586
9926.000000;0.138098
9925.000000;0.138551
9924.000000;0.139009
9923.000000;0.139501
9922.000000;0.140079
9921.000000;0.140762
9920.000000;0.141484
9919.000000;0.142190
9918.000000;0.142916
9917.000000;0.143690
9916.000000;0.144444
9915.000000;0.145128
9914.000000;0.145843
9913.000000;0.146725
9912.000000;0.147721
9911.000000;0.148615
9910.000000;0.149264
9909.000000;0.149706
9908.000000;0.150028
9907.000000;0.150268
9906.000000;0.150479
9905.000000;0.150794
9904.000000;0.151350
9903.000000;0.152185
9902.000000;0.153223
9901.000000;0.154324
9900.000000;0.155334
9899.000000;0.156148
9898.000000;0.156747
9897.000000;0.157180
9896.000000;0.157505
9895.000000;0.157788
9894.000000;0.158110
9893.000000;0.158529
9892.000000;0.159061
9891.000000;0.159728
9890.000000;0.160581
9889.000000;0.161598
9888.000000;0.162607
9887.000000;0.163416
9886.000000;0.164011
9885.000000;0.164537
9884.000000;0.165093
9883.000000;0.165662
9882.000000;0.166236
9881.000000;0.166867
9880.000000;0.167536
9879.000000;0.168128
9878.000000;0.168612
9877.000000;0.169157
9876.000000;0.169956
9875.000000;0.170978
9874.000000;0.171990
9873.000000;0.172790
9872.000000;0.173356
9871.000000;0.173818
9870.000000;0.174366
9869.000000;0.175145
9868.000000;0.176128
9867.000000;0.177107
9866.000000;0.177882
9865.000000;0.178474
9864.000000;0.179071
9863.000000;0.179791
9862.000000;0.180589
9861.000000;0.181390
9860.000000;0.182183
9859.000000;0.182952
9858.000000;0.183619
9857.000000;0.184158
9856.000000;0.184690
9855.000000;0.185356
9854.000000;0.186141
9853.000000;0.186911
9852.000000;0.187615
9851.000000;0.188333
9850.000000;0.189121
9849.000000;0.189890
9848.000000;0.190499
9847.000000;0.190935
9846.000000;0.191351
9845.000000;0.191938
9844.000000;0.192783
9843.000000;0.193798
9842.000000;0.194775
9841.000000;0.195545
9840.000000;0.196124
9839.000000;0.196697
9838.000000;0.197437
9837.000000;0.198350
9836.000000;0.199295
9835.000000;0.200122
9834.000000;0.200752
9833.000000;0.201192
9832.000000;0.201514
9831.000000;0.201839
9830.000000;0.202282
9829.000000;0.202889
9828.000000;0.203632
9827.000000;0.204455
9826.000000;0.205313
9825.000000;0.206187
9824.000000;0.207090
9823.000000;0.208060
9822.000000;0.209117
9821.000000;0.210221
9820.000000;0.211281
9819.000000;0.212218
9818.000000;0.212985
9817.000000;0.213564
9816.000000;0.213989
9815.000000;0.214379
9814.000000;0.214897
9813.000000;0.215619
9812.000000;0.216454
9811.000000;0.217216
9810.000000;0.217794
9809.000000;0.218248
9808.000000;0.218747
9807.000000;0.219405
9806.000000;0.220198
9805.000000;0.221015
9804.000000;0.221777
9803.000000;0.222466
9802.000000;0.223089
9801.000000;0.223654
9800.000000;0.224233
9799.000000;0.224970
9798.000000;0.225944
9797.000000;0.227027
9796.000000;0.227942
9795.000000;0.228531
9794.000000;0.228935
9793.000000;0.229479
9792.000000;0.230369
9791.000000;0.231525
9790.000000;0.232696
9789.000000;0.233700
9788.000000;0.234506
9787.000000;0.235145
9786.000000;0.235620
9785.000000;0.235992
9784.000000;0.236453
9783.000000;0.237222
9782.000000;0.238318
9781.000000;0.239515
9780.000000;0.240547
9779.000000;0.241324
9778.000000;0.241937
9777.000000;0.242521
9776.000000;0.243157
9775.000000;0.243855
9774.000000;0.244547
9773.000000;0.245122
9772.000000;0.245545
9771.000000;0.245939
9770.000000;0.246512
9769.000000;0.247388
9768.000000;0.248529
9767.000000;0.249787
9766.000000;0.250992
9765.000000;0.252014
9764.000000;0.252809
9763.000000;0.253426
9762.000000;0.253959
9761.000000;0.254466
9760.000000;0.254965
9759.000000;0.255483
9758.000000;0.256086
9757.000000;0.256850
9756.000000;0.257809
9755.000000;0.258917
9754.000000;0.260055
9753.000000;0.261115
9752.000000;0.262105
9751.000000;0.263100
9750.000000;0.264078
9749.000000;0.264843
9748.000000;0.265221
9747.000000;0.265314
9746.000000;0.265468
9745.000000;0.265983
9744.000000;0.266894
9743.000000;0.268014
9742.000000;0.269117
9741.000000;0.270081
9740.000000;0.270924
9739.000000;0.271730
9738.000000;0.272534
9737.000000;0.273277
9736.000000;0.273918
9735.000000;0.274528
9734.000000;0.275220
9733.000000;0.275980
9732.000000;0.276655
9731.000000;0.277145
9730.000000;0.277523
9729.000000;0.277979
9728.000000;0.278655
9727.000000;0.279562
9726.000000;0.280608
9725.000000;0.281669
9724.000000;0.282678
9723.000000;0.283649
9722.000000;0.284592
9721.000000;0.285442
9720.000000;0.286126
9719.000000;0.286693
9718.000000;0.287306
9717.000000;0.288082
9716.000000;0.288998
9715.000000;0.289945
9714.000000;0.290810
9713.000000;0.291540
9712.000000;0.292205
9711.000000;0.292995
9710.000000;0.294008
9709.000000;0.295032
9708.000000;0.295694
9707.000000;0.295919
9706.000000;0.296105
9705.000000;0.296702
9704.000000;0.297727
9703.000000;0.298829
9702.000000;0.299748
9701.000000;0.300516
9700.000000;0.301244
9699.000000;0.301924
9698.000000;0.302518
9697.000000;0.303071
9696.000000;0.303648
9695.000000;0.304282
9694.000000;0.305098
9693.000000;0.306322
9692.000000;0.307979
9691.000000;0.309666
9690.000000;0.310828
9689.000000;0.311296
9688.000000;0.311389
9687.000000;0.311497
9686.000000;0.311782
9685.000000;0.312323
9684.000000;0.313260
9683.000000;0.314570
9682.000000;0.315869
9681.000000;0.316722
9680.000000;0.317135
9679.000000;0.317517
9678.000000;0.318158
9677.000000;0.318959
9676.000000;0.319705
9675.000000;0.320356
9674.000000;0.320987
9673.000000;0.321645
9672.000000;0.322409
9671.000000;0.323411
9670.000000;0.324621
9669.000000;0.325730
9668.000000;0.326460
9667.000000;0.326916
9666.000000;0.327452
9665.000000;0.328233
9664.000000;0.329106
9663.000000;0.329863
9662.000000;0.330433
9661.000000;0.330830
9660.000000;0.331091
9659.000000;0.331335
9658.000000;0.331735
9657.000000;0.332350
9656.000000;0.333118
9655.000000;0.334030
9654.000000;0.335195
9653.000000;0.336623
9652.000000;0.338051
9651.000000;0.339116
9650.000000;0.339702
9649.000000;0.340030
9648.000000;0.340417
9647.000000;0.340975
9646.000000;0.341567
9645.000000;0.342043
9644.000000;0.342509
9643.000000;0.343267
9642.000000;0.344455
9641.000000;0.345822
9640.000000;0.346989
9639.000000;0.347856
9638.000000;0.348593
9637.000000;0.349288
9636.000000;0.349815
9635.000000;0.350112
9634.000000;0.350390
9633.000000;0.350937
9632.000000;0.351804
9631.000000;0.352788
9630.000000;0.353653
9629.000000;0.354301
9628.000000;0.354793
9627.000000;0.355261
9626.000000;0.355780
9625.000000;0.356305
9624.000000;0.356819
9623.000000;0.357508
9622.000000;0.358624
9621.000000;0.360100
9620.000000;0.361493
9619.000000;0.362419
9618.000000;0.362932
9617.000000;0.363323
9616.000000;0.363718
9615.000000;0.364058
9614.000000;0.364366
9613.000000;0.364793
9612.000000;0.365425
9611.000000;0.366236
9610.000000;0.367242
9609.000000;0.368472
9608.000000;0.369767
9607.000000;0.370804
9606.000000;0.371452
9605.000000;0.371965
9604.000000;0.372677
9603.000000;0.373599
9602.000000;0.374422
9601.000000;0.374878
9600.000000;0.374977
9599.000000;0.374932
9598.000000;0.374970
9597.000000;0.375241
9596.000000;0.375807
9595.000000;0.376631
9594.000000;0.377575
9593.000000;0.378461
9592.000000;0.379169
9591.000000;0.379705
9590.000000;0.380199
9589.000000;0.380837
9588.000000;0.381708
9587.000000;0.382683
9586.000000;0.383488
9585.000000;0.383945
9584.000000;0.384154
9583.000000;0.384354
9582.000000;0.384647
9581.000000;0.384986
9580.000000;0.385445
9579.000000;0.386308
9578.000000;0.387699
9577.000000;0.389246
9576.000000;0.390343
9575.000000;0.390769
9574.000000;0.390849
9573.000000;0.390993
9572.000000;0.391337
9571.000000;0.391862
9570.000000;0.392596
9569.000000;0.393479
9568.000000;0.394256
9567.000000;0.394742
9566.000000;0.395094
9565.000000;0.395587
9564.000000;0.396220
9563.000000;0.396790
9562.000000;0.397264
9561.000000;0.397816
9560.000000;0.398501
9559.000000;0.399144
9558.000000;0.399633
9557.000000;0.400056
9556.000000;0.400484
9555.000000;0.400845
9554.000000;0.401148
9553.000000;0.401580
9552.000000;0.402243
9551.000000;0.402931
9550.000000;0.403374
9549.000000;0.403582
9548.000000;0.403797
9547.000000;0.404205
9546.000000;0.404822
9545.000000;0.405557
9544.000000;0.406222
9543.000000;0.406598
9542.000000;0.406673
9541.000000;0.406746
9540.000000;0.407079
9539.000000;0.407520
9538.000000;0.407695
9537.000000;0.407572
9536.000000;0.407567
9535.000000;0.408052
9534.000000;0.408939
9533.000000;0.409875
9532.000000;0.410649
9531.000000;0.411274
9530.000000;0.411790
9529.000000;0.412198
9528.000000;0.412580
9527.000000;0.413109
9526.000000;0.413836
9525.000000;0.414510
9524.000000;0.414761
9523.000000;0.414529
9522.000000;0.414240
9521.000000;0.414442
9520.000000;0.415228
9519.000000;0.416139
9518.000000;0.416685
9517.000000;0.416849
9516.000000;0.416961
9515.000000;0.417235
9514.000000;0.417630
9513.000000;0.418102
9512.000000;0.418713
9511.000000;0.419435
9510.000000;0.420093
9509.000000;0.420569
9508.000000;0.420908
9507.000000;0.421145
9506.000000;0.421204
9505.000000;0.421085
9504.000000;0.420984
9503.000000;0.421059
9502.000000;0.421240
9501.000000;0.421396
9500.000000;0.421576
9499.000000;0.421914
9498.000000;0.422415
9497.000000;0.422972
9496.000000;0.423530
9495.000000;0.424063
9494.000000;0.424455
9493.000000;0.424600
9492.000000;0.424594
9491.000000;0.424652
9490.000000;0.424859
9489.000000;0.425134
9488.000000;0.425423
9487.000000;0.425756
9486.000000;0.426141
9485.000000;0.426546
9484.000000;0.426969
9483.000000;0.427383
9482.000000;0.427637
9481.000000;0.427600
9480.000000;0.427386
9479.000000;0.427274
9478.000000;0.427402
9477.000000;0.427716
9476.000000;0.428201
9475.000000;0.428912
9474.000000;0.429706
9473.000000;0.430216
9472.000000;0.430220
9471.000000;0.429889
9470.000000;0.429512
9469.000000;0.429172
9468.000000;0.428820
9467.000000;0.428523
9466.000000;0.428420
9465.000000;0.428540
9464.000000;0.428821
9463.000000;0.429235
9462.000000;0.429731
9461.000000;0.430138
9460.000000;0.430300
9459.000000;0.430296
9458.000000;0.430353
9457.000000;0.430531
9456.000000;0.430689
9455.000000;0.430770
9454.000000;0.430944
9453.000000;0.431351
9452.000000;0.431818
9451.000000;0.431986
9450.000000;0.431728
9449.000000;0.431338
9448.000000;0.431224
9447.000000;0.431436
9446.000000;0.431603
9445.000000;0.431373
9444.000000;0.430847
9443.000000;0.430473
9442.000000;0.430558
9441.000000;0.431017
9440.000000;0.431559
9439.000000;0.431950
9438.000000;0.432060
9437.000000;0.431875
9436.000000;0.431572
9435.000000;0.431430
9434.000000;0.431522
9433.000000;0.431613
9432.000000;0.431508
9431.000000;0.431338
9430.000000;0.431321
9429.000000;0.431381
9428.000000;0.431255
9427.000000;0.430936
9426.000000;0.430724
9425.000000;0.430787
9424.000000;0.430920
9423.000000;0.430851
9422.000000;0.430603
9421.000000;0.430414
9420.000000;0.430438
9419.000000;0.430634
9418.000000;0.430852
9417.000000;0.430932
9416.000000;0.430819
9415.000000;0.430641
9414.000000;0.430617
9413.000000;0.430782
9412.000000;0.430859
9411.000000;0.430511
9410.000000;0.429678
9409.000000;0.428619
9408.000000;0.427699
9407.000000;0.427208
9406.000000;0.427294
9405.000000;0.427893
9404.000000;0.428689
9403.000000;0.429241
9402.000000;0.429247
9401.000000;0.428705
9400.000000;0.427876
9399.000000;0.427160
9398.000000;0.426917
9397.000000;0.427243
9396.000000;0.427828
9395.000000;0.428122
9394.000000;0.427797
9393.000000;0.427049
9392.000000;0.426402
9391.000000;0.426191
9390.000000;0.426327
9389.000000;0.426511
9388.000000;0.426568
9387.000000;0.426478
9386.000000;0.426225
9385.000000;0.425774
9384.000000;0.425203
9383.000000;0.424687
9382.000000;0.424301
9381.000000;0.423967
9380.000000;0.423666
9379.000000;0.423555
9378.000000;0.423718
9377.000000;0.423863
9376.000000;0.423498
9375.000000;0.422463
9374.000000;0.421163
9373.000000;0.420190
9372.000000;0.419807
9371.000000;0.419860
9370.000000;0.420081
9369.000000;0.420308
9368.000000;0.420448
9367.000000;0.420404
9366.000000;0.420163
9365.000000;0.419869
9364.000000;0.419670
9363.000000;0.419498
9362.000000;0.419137
9361.000000;0.418551
9360.000000;0.417984
9359.000000;0.417660
9358.000000;0.417505
9357.000000;0.417301
9356.000000;0.417009
9355.000000;0.416713
9354.000000;0.416308
9353.000000;0.415550
9352.000000;0.414497
9351.000000;0.413624
9350.000000;0.413289
9349.000000;0.413266
9348.000000;0.413064
9347.000000;0.412579
9346.000000;0.412170
9345.000000;0.412119
9344.000000;0.412297
9343.000000;0.412420
9342.000000;0.412392
9341.000000;0.412282
9340.000000;0.412108
9339.000000;0.411776
9338.000000;0.411180
9337.000000;0.410285
9336.000000;0.409216
9335.000000;0.408292
9334.000000;0.407872
9333.000000;0.408043
9332.000000;0.408495
9331.000000;0.408745
9330.000000;0.408485
9329.000000;0.407752
9328.000000;0.406844
9327.000000;0.406092
9326.000000;0.405624
9325.000000;0.405331
9324.000000;0.405081
9323.000000;0.404909
9322.000000;0.404847
9321.000000;0.404658
9320.000000;0.404007
9319.000000;0.402972
9318.000000;0.402138
9317.000000;0.401979
9316.000000;0.402339
9315.000000;0.402704
9314.000000;0.402826
9313.000000;0.402820
9312.000000;0.402723
9311.000000;0.402296
9310.000000;0.401324
9309.000000;0.399894
9308.000000;0.398307
9307.000000;0.396884
9306.000000;0.395911
9305.000000;0.395542
9304.000000;0.395632
9303.000000;0.395789
9302.000000;0.395728
9301.000000;0.395492
9300.000000;0.395218
9299.000000;0.394842
9298.000000;0.394209
9297.000000;0.393380
9296.000000;0.392634
9295.000000;0.392173
9294.000000;0.391978
9293.000000;0.391945
9292.000000;0.391996
9291.000000;0.391989
9290.000000;0.391719
9289.000000;0.391133
9288.000000;0.390453
9287.000000;0.389968
9286.000000;0.389749
9285.000000;0.389648
9284.000000;0.389492
9283.000000;0.389181
9282.000000;0.388616
9281.000000;0.387719
9280.000000;0.386580
9279.000000;0.385496
9278.000000;0.384780
9277.000000;0.384557
9276.000000;0.384756
9275.000000;0.385209
9274.000000;0.385651
9273.000000;0.385687
9272.000000;0.384945
9271.000000;0.383399
9270.000000;0.381507
9269.000000;0.379923
9268.000000;0.379008
9267.000000;0.378621
9266.000000;0.378401
9265.000000;0.378172
9264.000000;0.378007
9263.000000;0.377958
9262.000000;0.377885
9261.000000;0.377615
9260.000000;0.377138
9259.000000;0.376565
9258.000000;0.375985
9257.000000;0.375465
9256.000000;0.375127
9255.000000;0.375022
9254.000000;0.374943
9253.000000;0.374554
9252.000000;0.373763
9251.000000;0.372861
9250.000000;0.372189
9249.000000;0.371779
9248.000000;0.371409
9247.000000;0.370911
9246.000000;0.370334
9245.000000;0.369846
9244.000000;0.369551
9243.000000;0.369374
9242.000000;0.369066
9241.000000;0.368390
9240.000000;0.367376
9239.000000;0.366344
9238.000000;0.365596
9237.000000;0.365145
9236.000000;0.364803
9235.000000;0.364449
9234.000000;0.364100
9233.000000;0.363766
9232.000000;0.363394
9231.000000;0.362961
9230.000000;0.362485
9229.000000;0.361948
9228.000000;0.361326
9227.000000;0.360691
9226.000000;0.360199
9225.000000;0.359906
9224.000000;0.359676
9223.000000;0.359301
9222.000000;0.358671
9221.000000;0.357825
9220.000000;0.356921
9219.000000;0.356143
9218.000000;0.355569
9217.000000;0.355097
9216.000000;0.354555
9215.000000;0.353902
9214.000000;0.353281
9213.000000;0.352894
9212.000000;0.352847
9211.000000;0.353064
9210.000000;0.353263
9209.000000;0.353095
9208.000000;0.352464
9207.000000;0.351693
9206.000000;0.351230
9205.000000;0.351144
9204.000000;0.351037
9203.000000;0.350461
9202.000000;0.349343
9201.000000;0.347989
9200.000000;0.346833
9199.000000;0.346218
9198.000000;0.346212
9197.000000;0.346497
9196.000000;0.346531
9195.000000;0.345972
9194.000000;0.344938
9193.000000;0.343811
9192.000000;0.342890
9191.000000;0.342277
9190.000000;0.341918
9189.000000;0.341633
9188.000000;0.341177
9187.000000;0.340469
9186.000000;0.339712
9185.000000;0.339162
9184.000000;0.338811
9183.000000;0.338437
9182.000000;0.337924
9181.000000;0.337355
9180.000000;0.336801
9179.000000;0.336208
9178.000000;0.335579
9177.000000;0.335109
9176.000000;0.334994
9175.000000;0.335145
9174.000000;0.335206
9173.000000;0.334872
9172.000000;0.334145
9171.000000;0.333274
9170.000000;0.332509
9169.000000;0.331940
9168.000000;0.331507
9167.000000;0.331107
9166.000000;0.330670
9165.000000;0.330187
9164.000000;0.329702
9163.000000;0.329274
9162.000000;0.328905
9161.000000;0.328526
9160.000000;0.328082
9159.000000;0.327611
9158.000000;0.327176
9157.000000;0.326742
9156.000000;0.326187
9155.000000;0.325485
9154.000000;0.324769
9153.000000;0.324187
9152.000000;0.323743
9151.000000;0.323322
9150.000000;0.322824
9149.000000;0.322225
9148.000000;0.321600
9147.000000;0.321114
9146.000000;0.320903
9145.000000;0.320878
9144.000000;0.320708
9143.000000;0.320138
9142.000000;0.319276
9141.000000;0.318464
9140.000000;0.317915
9139.000000;0.317559
9138.000000;0.317211
9137.000000;0.316770
9136.000000;0.316261
9135.000000;0.315800
9134.000000;0.315534
9133.000000;0.315526
9132.000000;0.315623
9131.000000;0.315522
9130.000000;0.315021
9129.000000;0.314199
9128.000000;0.313337
9127.000000;0.312687
9126.000000;0.312291
9125.000000;0.311948
9124.000000;0.311388
9123.000000;0.310553
9122.000000;0.309703
9121.000000;0.309163
9120.000000;0.308969
9119.000000;0.308849
9118.000000;0.308539
9117.000000;0.308007
9116.000000;0.307341
9115.000000;0.306598
9114.000000;0.305860
9113.000000;0.305320
9112.000000;0.305112
9111.000000;0.305077
9110.000000;0.304841
9109.000000;0.304180
9108.000000;0.303263
9107.000000;0.302482
9106.000000;0.302072
9105.000000;0.301926
9104.000000;0.301749
9103.000000;0.301349
9102.000000;0.300791
9101.000000;0.300284
9100.000000;0.299963
9099.000000;0.299779
9098.000000;0.299588
9097.000000;0.299334
9096.000000;0.299104
9095.000000;0.299029
9094.000000;0.299127
9093.000000;0.299271
9092.000000;0.299301
9091.000000;0.299134
9090.000000;0.298730
9089.000000;0.298028
9088.000000;0.297013
9087.000000;0.295884
9086.000000;0.294999
9085.000000;0.294544
9084.000000;0.294317
9083.000000;0.293953
9082.000000;0.293336
9081.000000;0.292677
9080.000000;0.292196
9079.000000;0.291859
9078.000000;0.291476
9077.000000;0.290933
9076.000000;0.290262
9075.000000;0.289551
9074.000000;0.288872
9073.000000;0.288262
9072.000000;0.287725
9071.000000;0.287255
9070.000000;0.286888
9069.000000;0.286679
9068.000000;0.286623
9067.000000;0.286628
9066.000000;0.286591
9065.000000;0.286475
9064.000000;0.286299
9063.000000;0.286087
9062.000000;0.285819
9061.000000;0.285380
9060.000000;0.284629
9059.000000;0.283605
9058.000000;0.282636
9057.000000;0.282079
9056.000000;0.281948
9055.000000;0.281923
9054.000000;0.281765
9053.000000;0.281548
