Criado como novo conjunto de dados;"e2410_daniel_v2.spp","66605.5 Secs"
cm-1;Abs
10000.000000;1.294522
9999.000000;1.294071
9998.000000;1.293620
9997.000000;1.293170
9996.000000;1.292720
9995.000000;1.292271
9994.000000;1.291821
9993.000000;1.291375
9992.000000;1.290919
9991.000000;1.290786
9990.000000;1.290883
9989.000000;1.290906
9988.000000;1.290775
9987.000000;1.290669
9986.000000;1.290615
9985.000000;1.290366
9984.000000;1.289768
9983.000000;1.288975
9982.000000;1.288240
9981.000000;1.287691
9980.000000;1.287279
9979.000000;1.286770
9978.000000;1.285871
9977.000000;1.284594
9976.000000;1.283362
9975.000000;1.282521
9974.000000;1.281996
9973.000000;1.281685
9972.000000;1.281840
9971.000000;1.282549
9970.000000;1.283139
9969.000000;1.282801
9968.000000;1.281758
9967.000000;1.281068
9966.000000;1.281219
9965.000000;1.281590
9964.000000;1.281367
9963.000000;1.280370
9962.000000;1.278806
9961.000000;1.276926
9960.000000;1.275258
9959.000000;1.274475
9958.000000;1.274570
9957.000000;1.274659
9956.000000;1.274086
9955.000000;1.273322
9954.000000;1.273236
9953.000000;1.273811
9952.000000;1.274140
9951.000000;1.273595
9950.000000;1.272464
9949.000000;1.271400
9948.000000;1.270709
9947.000000;1.270303
9946.000000;1.270031
9945.000000;1.269807
9944.000000;1.269513
9943.000000;1.268957
9942.000000;1.267999
9941.000000;1.266774
9940.000000;1.265678
9939.000000;1.265008
9938.000000;1.264617
9937.000000;1.264110
9936.000000;1.263414
9935.000000;1.262933
9934.000000;1.263015
9933.000000;1.263345
9932.000000;1.263109
9931.000000;1.261794
9930.000000;1.259787
9929.000000;1.258112
9928.000000;1.257551
9927.000000;1.257975
9926.000000;1.258563
9925.000000;1.258629
9924.000000;1.258135
9923.000000;1.257428
9922.000000;1.256759
9921.000000;1.256245
9920.000000;1.256028
9919.000000;1.256142
9918.000000;1.256322
9917.000000;1.256219
9916.000000;1.255783
9915.000000;1.255219
9914.000000;1.254625
9913.000000;1.253906
9912.000000;1.253002
9911.000000;1.251963
9910.000000;1.250847
9909.000000;1.249791
9908.000000;1.249131
9907.000000;1.249165
9906.000000;1.249725
9905.000000;1.250186
9904.000000;1.249992
9903.000000;1.249071
9902.000000;1.247788
9901.000000;1.246676
9900.000000;1.246127
9899.000000;1.246098
9898.000000;1.246098
9897.000000;1.245637
9896.000000;1.244701
9895.000000;1.243631
9894.000000;1.242651
9893.000000;1.241756
9892.000000;1.241005
9891.000000;1.240624
9890.000000;1.240738
9889.000000;1.241156
9888.000000;1.241440
9887.000000;1.241159
9886.000000;1.240188
9885.000000;1.238890
9884.000000;1.237898
9883.000000;1.237540
9882.000000;1.237549
9881.000000;1.237438
9880.000000;1.236944
9879.000000;1.235988
9878.000000;1.234559
9877.000000;1.232999
9876.000000;1.232049
9875.000000;1.232092
9874.000000;1.232484
9873.000000;1.232200
9872.000000;1.231122
9871.000000;1.230162
9870.000000;1.230032
9869.000000;1.230470
9868.000000;1.230836
9867.000000;1.230939
9866.000000;1.230913
9865.000000;1.230694
9864.000000;1.230090
9863.000000;1.229213
9862.000000;1.228427
9861.000000;1.227883
9860.000000;1.227333
9859.000000;1.226484
9858.000000;1.225373
9857.000000;1.224339
9856.000000;1.223651
9855.000000;1.223241
9854.000000;1.222813
9853.000000;1.222160
9852.000000;1.221319
9851.000000;1.220440
9850.000000;1.219699
9849.000000;1.219303
9848.000000;1.219338
9847.000000;1.219533
9846.000000;1.219454
9845.000000;1.219038
9844.000000;1.218640
9843.000000;1.218407
9842.000000;1.218003
9841.000000;1.217220
9840.000000;1.216439
9839.000000;1.216042
9838.000000;1.215713
9837.000000;1.214889
9836.000000;1.213707
9835.000000;1.212873
9834.000000;1.212665
9833.000000;1.212630
9832.000000;1.212330
9831.000000;1.211853
9830.000000;1.211460
9829.000000;1.211146
9828.000000;1.210759
9827.000000;1.210246
9826.000000;1.209630
9825.000000;1.208967
9824.000000;1.208366
9823.000000;1.207878
9822.000000;1.207408
9821.000000;1.206946
9820.000000;1.206725
9819.000000;1.206854
9818.000000;1.207001
9817.000000;1.206831
9816.000000;1.206584
9815.000000;1.206632
9814.000000;1.206614
9813.000000;1.205688
9812.000000;1.203734
9811.000000;1.201646
9810.000000;1.200261
9809.000000;1.199611
9808.000000;1.199397
9807.000000;1.199525
9806.000000;1.199830
9805.000000;1.199806
9804.000000;1.199126
9803.000000;1.198104
9802.000000;1.197264
9801.000000;1.196731
9800.000000;1.196354
9799.000000;1.196084
9798.000000;1.195870
9797.000000;1.195463
9796.000000;1.194789
9795.000000;1.194294
9794.000000;1.194500
9793.000000;1.195247
9792.000000;1.195720
9791.000000;1.195234
9790.000000;1.193815
9789.000000;1.192103
9788.000000;1.190885
9787.000000;1.190568
9786.000000;1.190802
9785.000000;1.190719
9784.000000;1.189796
9783.000000;1.188403
9782.000000;1.187295
9781.000000;1.186736
9780.000000;1.186372
9779.000000;1.185822
9778.000000;1.185078
9777.000000;1.184376
9776.000000;1.183964
9775.000000;1.183990
9774.000000;1.184329
9773.000000;1.184505
9772.000000;1.184061
9771.000000;1.183084
9770.000000;1.182135
9769.000000;1.181636
9768.000000;1.181502
9767.000000;1.181406
9766.000000;1.181180
9765.000000;1.180820
9764.000000;1.180275
9763.000000;1.179442
9762.000000;1.178357
9761.000000;1.177249
9760.000000;1.176407
9759.000000;1.176026
9758.000000;1.176108
9757.000000;1.176386
9756.000000;1.176375
9755.000000;1.175689
9754.000000;1.174404
9753.000000;1.173050
9752.000000;1.172133
9751.000000;1.171729
9750.000000;1.171568
9749.000000;1.171392
9748.000000;1.171113
9747.000000;1.170696
9746.000000;1.170139
9745.000000;1.169573
9744.000000;1.169184
9743.000000;1.168947
9742.000000;1.168598
9741.000000;1.167975
9740.000000;1.167240
9739.000000;1.166662
9738.000000;1.166332
9737.000000;1.166159
9736.000000;1.165996
9735.000000;1.165650
9734.000000;1.164966
9733.000000;1.164078
9732.000000;1.163386
9731.000000;1.163117
9730.000000;1.163038
9729.000000;1.162804
9728.000000;1.162395
9727.000000;1.161960
9726.000000;1.161415
9725.000000;1.160585
9724.000000;1.159636
9723.000000;1.158959
9722.000000;1.158641
9721.000000;1.158420
9720.000000;1.158208
9719.000000;1.158232
9718.000000;1.158498
9717.000000;1.158515
9716.000000;1.157871
9715.000000;1.156834
9714.000000;1.156053
9713.000000;1.155743
9712.000000;1.155493
9711.000000;1.154869
9710.000000;1.153928
9709.000000;1.153041
9708.000000;1.152390
9707.000000;1.151837
9706.000000;1.151227
9705.000000;1.150645
9704.000000;1.150251
9703.000000;1.149959
9702.000000;1.149475
9701.000000;1.148675
9700.000000;1.147832
9699.000000;1.147350
9698.000000;1.147365
9697.000000;1.147666
9696.000000;1.147912
9695.000000;1.147831
9694.000000;1.147316
9693.000000;1.146497
9692.000000;1.145720
9691.000000;1.145357
9690.000000;1.145571
9689.000000;1.146175
9688.000000;1.146634
9687.000000;1.146298
9686.000000;1.144921
9685.000000;1.143018
9684.000000;1.141483
9683.000000;1.140726
9682.000000;1.140378
9681.000000;1.139925
9680.000000;1.139375
9679.000000;1.139073
9678.000000;1.139069
9677.000000;1.139037
9676.000000;1.138760
9675.000000;1.138380
9674.000000;1.138123
9673.000000;1.137961
9672.000000;1.137614
9671.000000;1.136773
9670.000000;1.135363
9669.000000;1.133715
9668.000000;1.132417
9667.000000;1.131865
9666.000000;1.132001
9665.000000;1.132505
9664.000000;1.133084
9663.000000;1.133471
9662.000000;1.133396
9661.000000;1.132804
9660.000000;1.131961
9659.000000;1.131125
9658.000000;1.130244
9657.000000;1.129247
9656.000000;1.128414
9655.000000;1.128072
9654.000000;1.128035
9653.000000;1.127748
9652.000000;1.127006
9651.000000;1.126175
9650.000000;1.125693
9649.000000;1.125708
9648.000000;1.126211
9647.000000;1.127079
9646.000000;1.127836
9645.000000;1.127765
9644.000000;1.126586
9643.000000;1.124831
9642.000000;1.123301
9641.000000;1.122360
9640.000000;1.121927
9639.000000;1.121899
9638.000000;1.122207
9637.000000;1.122531
9636.000000;1.122347
9635.000000;1.121454
9634.000000;1.120290
9633.000000;1.119502
9632.000000;1.119257
9631.000000;1.119091
9630.000000;1.118451
9629.000000;1.117279
9628.000000;1.116001
9627.000000;1.115059
9626.000000;1.114591
9625.000000;1.114518
9624.000000;1.114672
9623.000000;1.114786
9622.000000;1.114580
9621.000000;1.114009
9620.000000;1.113329
9619.000000;1.112788
9618.000000;1.112388
9617.000000;1.112024
9616.000000;1.111671
9615.000000;1.111283
9614.000000;1.110733
9613.000000;1.110061
9612.000000;1.109608
9611.000000;1.109615
9610.000000;1.109815
9609.000000;1.109698
9608.000000;1.109150
9607.000000;1.108532
9606.000000;1.108146
9605.000000;1.107895
9604.000000;1.107531
9603.000000;1.107002
9602.000000;1.106454
9601.000000;1.106044
9600.000000;1.105795
9599.000000;1.105518
9598.000000;1.104893
9597.000000;1.103788
9596.000000;1.102528
9595.000000;1.101675
9594.000000;1.101459
9593.000000;1.101529
9592.000000;1.101348
9591.000000;1.100749
9590.000000;1.100032
9589.000000;1.099565
9588.000000;1.099415
9587.000000;1.099352
9586.000000;1.099166
9585.000000;1.098882
9584.000000;1.098633
9583.000000;1.098351
9582.000000;1.097778
9581.000000;1.096847
9580.000000;1.095894
9579.000000;1.095332
9578.000000;1.095171
9577.000000;1.095013
9576.000000;1.094506
9575.000000;1.093711
9574.000000;1.093004
9573.000000;1.092680
9572.000000;1.092673
9571.000000;1.092659
9570.000000;1.092453
9569.000000;1.092229
9568.000000;1.092213
9567.000000;1.092260
9566.000000;1.091960
9565.000000;1.091216
9564.000000;1.090420
9563.000000;1.089953
9562.000000;1.089739
9561.000000;1.089446
9560.000000;1.088899
9559.000000;1.088126
9558.000000;1.087251
9557.000000;1.086551
9556.000000;1.086414
9555.000000;1.086920
9554.000000;1.087603
9553.000000;1.087889
9552.000000;1.087656
9551.000000;1.087121
9550.000000;1.086340
9549.000000;1.085222
9548.000000;1.083974
9547.000000;1.083131
9546.000000;1.082984
9545.000000;1.083183
9544.000000;1.083073
9543.000000;1.082337
9542.000000;1.081237
9541.000000;1.080289
9540.000000;1.079780
9539.000000;1.079571
9538.000000;1.079333
9537.000000;1.078929
9536.000000;1.078472
9535.000000;1.078067
9534.000000;1.077674
9533.000000;1.077296
9532.000000;1.077067
9531.000000;1.077022
9530.000000;1.076964
9529.000000;1.076721
9528.000000;1.076380
9527.000000;1.076081
9526.000000;1.075758
9525.000000;1.075277
9524.000000;1.074708
9523.000000;1.074230
9522.000000;1.073885
9521.000000;1.073595
9520.000000;1.073312
9519.000000;1.072969
9518.000000;1.072430
9517.000000;1.071716
9516.000000;1.071123
9515.000000;1.070865
9514.000000;1.070692
9513.000000;1.070124
9512.000000;1.069020
9511.000000;1.067712
9510.000000;1.066650
9509.000000;1.066111
9508.000000;1.066136
9507.000000;1.066507
9506.000000;1.066842
9505.000000;1.066926
9504.000000;1.066865
9503.000000;1.066752
9502.000000;1.066346
9501.000000;1.065395
9500.000000;1.064179
9499.000000;1.063363
9498.000000;1.063284
9497.000000;1.063627
9496.000000;1.063826
9495.000000;1.063574
9494.000000;1.062898
9493.000000;1.061970
9492.000000;1.060921
9491.000000;1.059774
9490.000000;1.058565
9489.000000;1.057578
9488.000000;1.057253
9487.000000;1.057673
9486.000000;1.058301
9485.000000;1.058510
9484.000000;1.058264
9483.000000;1.057974
9482.000000;1.057794
9481.000000;1.057459
9480.000000;1.056841
9479.000000;1.056241
9478.000000;1.055997
9477.000000;1.056030
9476.000000;1.055948
9475.000000;1.055445
9474.000000;1.054564
9473.000000;1.053669
9472.000000;1.053189
9471.000000;1.053211
9470.000000;1.053325
9469.000000;1.053036
9468.000000;1.052336
9467.000000;1.051704
9466.000000;1.051512
9465.000000;1.051594
9464.000000;1.051444
9463.000000;1.050717
9462.000000;1.049534
9461.000000;1.048370
9460.000000;1.047632
9459.000000;1.047279
9458.000000;1.046933
9457.000000;1.046408
9456.000000;1.045956
9455.000000;1.045845
9454.000000;1.045913
9453.000000;1.045823
9452.000000;1.045569
9451.000000;1.045392
9450.000000;1.045299
9449.000000;1.045052
9448.000000;1.044611
9447.000000;1.044212
9446.000000;1.043976
9445.000000;1.043773
9444.000000;1.043558
9443.000000;1.043502
9442.000000;1.043670
9441.000000;1.043808
9440.000000;1.043618
9439.000000;1.043053
9438.000000;1.042216
9437.000000;1.041186
9436.000000;1.040076
9435.000000;1.039107
9434.000000;1.038472
9433.000000;1.038223
9432.000000;1.038325
9431.000000;1.038677
9430.000000;1.039029
9429.000000;1.039016
9428.000000;1.038409
9427.000000;1.037308
9426.000000;1.036081
9425.000000;1.035184
9424.000000;1.034926
9423.000000;1.035215
9422.000000;1.035547
9421.000000;1.035455
9420.000000;1.034998
9419.000000;1.034613
9418.000000;1.034467
9417.000000;1.034217
9416.000000;1.033526
9415.000000;1.032580
9414.000000;1.031880
9413.000000;1.031621
9412.000000;1.031488
9411.000000;1.031038
9410.000000;1.030184
9409.000000;1.029310
9408.000000;1.028939
9407.000000;1.029242
9406.000000;1.029823
9405.000000;1.030029
9404.000000;1.029541
9403.000000;1.028625
9402.000000;1.027775
9401.000000;1.027233
9400.000000;1.026925
9399.000000;1.026768
9398.000000;1.026836
9397.000000;1.027166
9396.000000;1.027494
9395.000000;1.027393
9394.000000;1.026727
9393.000000;1.025841
9392.000000;1.025183
9391.000000;1.024804
9390.000000;1.024394
9389.000000;1.023761
9388.000000;1.023058
9387.000000;1.022507
9386.000000;1.022106
9385.000000;1.021672
9384.000000;1.021048
9383.000000;1.020210
9382.000000;1.019356
9381.000000;1.018928
9380.000000;1.019331
9379.000000;1.020429
9378.000000;1.021426
9377.000000;1.021462
9376.000000;1.020351
9375.000000;1.018683
9374.000000;1.017319
9373.000000;1.016829
9372.000000;1.017197
9371.000000;1.017873
9370.000000;1.018176
9369.000000;1.017803
9368.000000;1.016954
9367.000000;1.016014
9366.000000;1.015252
9365.000000;1.014820
9364.000000;1.014748
9363.000000;1.014816
9362.000000;1.014659
9361.000000;1.014163
9360.000000;1.013578
9359.000000;1.013134
9358.000000;1.012769
9357.000000;1.012350
9356.000000;1.011897
9355.000000;1.011438
9354.000000;1.010888
9353.000000;1.010289
9352.000000;1.009918
9351.000000;1.009910
9350.000000;1.010004
9349.000000;1.009882
9348.000000;1.009576
9347.000000;1.009258
9346.000000;1.008887
9345.000000;1.008359
9344.000000;1.007808
9343.000000;1.007419
9342.000000;1.007126
9341.000000;1.006840
9340.000000;1.006761
9339.000000;1.007068
9338.000000;1.007438
9337.000000;1.007325
9336.000000;1.006669
9335.000000;1.005898
9334.000000;1.005266
9333.000000;1.004614
9332.000000;1.003817
9331.000000;1.003071
9330.000000;1.002604
9329.000000;1.002397
9328.000000;1.002304
9327.000000;1.002185
9326.000000;1.001855
9325.000000;1.001173
9324.000000;1.000298
9323.000000;0.999662
9322.000000;0.999530
9321.000000;0.999721
9320.000000;0.999818
9319.000000;0.999552
9318.000000;0.998962
9317.000000;0.998332
9316.000000;0.997997
9315.000000;0.998109
9314.000000;0.998523
9313.000000;0.998931
9312.000000;0.999089
9311.000000;0.998892
9310.000000;0.998379
9309.000000;0.997743
9308.000000;0.997201
9307.000000;0.996736
9306.000000;0.996120
9305.000000;0.995314
9304.000000;0.994632
9303.000000;0.994328
9302.000000;0.994226
9301.000000;0.994019
9300.000000;0.993721
9299.000000;0.993509
9298.000000;0.993280
9297.000000;0.992756
9296.000000;0.991994
9295.000000;0.991419
9294.000000;0.991308
9293.000000;0.991523
9292.000000;0.991759
9291.000000;0.991794
9290.000000;0.991490
9289.000000;0.990806
9288.000000;0.989868
9287.000000;0.988887
9286.000000;0.988023
9285.000000;0.987469
9284.000000;0.987502
9283.000000;0.988167
9282.000000;0.989008
9281.000000;0.989419
9280.000000;0.989252
9279.000000;0.988795
9278.000000;0.988239
9277.000000;0.987504
9276.000000;0.986606
9275.000000;0.985816
9274.000000;0.985345
9273.000000;0.985129
9272.000000;0.985008
9271.000000;0.984875
9270.000000;0.984634
9269.000000;0.984232
9268.000000;0.983811
9267.000000;0.983595
9266.000000;0.983567
9265.000000;0.983462
9264.000000;0.983135
9263.000000;0.982751
9262.000000;0.982518
9261.000000;0.982423
9260.000000;0.982285
9259.000000;0.981969
9258.000000;0.981472
9257.000000;0.980913
9256.000000;0.980445
9255.000000;0.980116
9254.000000;0.979851
9253.000000;0.979627
9252.000000;0.979522
9251.000000;0.979461
9250.000000;0.979131
9249.000000;0.978415
9248.000000;0.977746
9247.000000;0.977702
9246.000000;0.978284
9245.000000;0.978901
9244.000000;0.979027
9243.000000;0.978615
9242.000000;0.977932
9241.000000;0.977279
9240.000000;0.976881
9239.000000;0.976746
9238.000000;0.976593
9237.000000;0.976143
9236.000000;0.975509
9235.000000;0.975042
9234.000000;0.974860
9233.000000;0.974767
9232.000000;0.974602
9231.000000;0.974350
9230.000000;0.973916
9229.000000;0.973161
9228.000000;0.972229
9227.000000;0.971564
9226.000000;0.971479
9225.000000;0.971881
9224.000000;0.972432
9223.000000;0.972765
9222.000000;0.972587
9221.000000;0.971858
9220.000000;0.970904
9219.000000;0.970132
9218.000000;0.969611
9217.000000;0.969161
9216.000000;0.968789
9215.000000;0.968678
9214.000000;0.968763
9213.000000;0.968698
9212.000000;0.968312
9211.000000;0.967752
9210.000000;0.967127
9209.000000;0.966406
9208.000000;0.965791
9207.000000;0.965747
9206.000000;0.966373
9205.000000;0.967062
9204.000000;0.967088
9203.000000;0.966378
9202.000000;0.965448
9201.000000;0.964769
9200.000000;0.964445
9199.000000;0.964381
9198.000000;0.964459
9197.000000;0.964573
9196.000000;0.964642
9195.000000;0.964636
9194.000000;0.964534
9193.000000;0.964302
9192.000000;0.963923
9191.000000;0.963404
9190.000000;0.962773
9189.000000;0.962174
9188.000000;0.961887
9187.000000;0.962043
9186.000000;0.962352
9185.000000;0.962338
9184.000000;0.961889
9183.000000;0.961345
9182.000000;0.960997
9181.000000;0.960756
9180.000000;0.960390
9179.000000;0.959855
9178.000000;0.959263
9177.000000;0.958720
9176.000000;0.958291
9175.000000;0.958008
9174.000000;0.957818
9173.000000;0.957664
9172.000000;0.957634
9171.000000;0.957802
9170.000000;0.957930
9169.000000;0.957616
9168.000000;0.956853
9167.000000;0.956149
9166.000000;0.955909
9165.000000;0.955929
9164.000000;0.955716
9163.000000;0.955152
9162.000000;0.954568
9161.000000;0.954245
9160.000000;0.954119
9159.000000;0.954019
9158.000000;0.953980
9157.000000;0.954178
9156.000000;0.954593
9155.000000;0.954870
9154.000000;0.954629
9153.000000;0.953894
9152.000000;0.953085
9151.000000;0.952527
9150.000000;0.952152
9149.000000;0.951783
9148.000000;0.951516
9147.000000;0.951543
9146.000000;0.951740
9145.000000;0.951774
9144.000000;0.951592
9143.000000;0.951465
9142.000000;0.951505
9141.000000;0.951461
9140.000000;0.951126
9139.000000;0.950636
9138.000000;0.950219
9137.000000;0.949895
9136.000000;0.949563
9135.000000;0.949199
9134.000000;0.948809
9133.000000;0.948357
9132.000000;0.947875
9131.000000;0.947506
9130.000000;0.947324
9129.000000;0.947244
9128.000000;0.947202
9127.000000;0.947228
9126.000000;0.947259
9125.000000;0.947085
9124.000000;0.946614
9123.000000;0.946030
9122.000000;0.945552
9121.000000;0.945201
9120.000000;0.944911
9119.000000;0.944684
9118.000000;0.944486
9117.000000;0.944177
9116.000000;0.943749
9115.000000;0.943452
9114.000000;0.943465
9113.000000;0.943586
9112.000000;0.943493
9111.000000;0.943232
9110.000000;0.943172
9109.000000;0.943484
9108.000000;0.943872
9107.000000;0.943896
9106.000000;0.943416
9105.000000;0.942679
9104.000000;0.942068
9103.000000;0.941808
9102.000000;0.941823
9101.000000;0.941843
9100.000000;0.941676
9099.000000;0.941394
9098.000000;0.941225
9097.000000;0.941273
9096.000000;0.941400
9095.000000;0.941359
9094.000000;0.941021
9093.000000;0.940466
9092.000000;0.939907
9091.000000;0.939510
9090.000000;0.939282
9089.000000;0.939087
9088.000000;0.938788
9087.000000;0.938387
9086.000000;0.938062
9085.000000;0.938016
9084.000000;0.938212
9083.000000;0.938264
9082.000000;0.937755
9081.000000;0.936735
9080.000000;0.935737
9079.000000;0.935175
9078.000000;0.934885
9077.000000;0.934455
9076.000000;0.933855
9075.000000;0.933469
9074.000000;0.933530
9073.000000;0.933827
9072.000000;0.934003
9071.000000;0.933921
9070.000000;0.933668
9069.000000;0.933403
9068.000000;0.933289
9067.000000;0.933401
9066.000000;0.933609
9065.000000;0.933686
9064.000000;0.933608
9063.000000;0.933578
9062.000000;0.933679
9061.000000;0.933676
9060.000000;0.933308
9059.000000;0.932630
9058.000000;0.931942
9057.000000;0.931471
9056.000000;0.931232
9055.000000;0.931108
9054.000000;0.930965
9053.000000;0.930731
