Criado como novo conjunto de dados;"e2410_daniel_v2.spp","52564.8 Secs"
cm-1;Abs
10000.000000;1.037434
9999.000000;1.036484
9998.000000;1.035498
9997.000000;1.034776
9996.000000;1.034347
9995.000000;1.033835
9994.000000;1.033157
9993.000000;1.032721
9992.000000;1.032699
9991.000000;1.032689
9990.000000;1.032313
9989.000000;1.031610
9988.000000;1.030669
9987.000000;1.029479
9986.000000;1.028325
9985.000000;1.027727
9984.000000;1.027734
9983.000000;1.027788
9982.000000;1.027454
9981.000000;1.026835
9980.000000;1.026163
9979.000000;1.025496
9978.000000;1.024943
9977.000000;1.024625
9976.000000;1.024318
9975.000000;1.023650
9974.000000;1.022751
9973.000000;1.022128
9972.000000;1.021856
9971.000000;1.021494
9970.000000;1.020896
9969.000000;1.020461
9968.000000;1.020416
9967.000000;1.020461
9966.000000;1.020345
9965.000000;1.020203
9964.000000;1.020072
9963.000000;1.019620
9962.000000;1.018655
9961.000000;1.017484
9960.000000;1.016509
9959.000000;1.015831
9958.000000;1.015369
9957.000000;1.015027
9956.000000;1.014619
9955.000000;1.013998
9954.000000;1.013309
9953.000000;1.012807
9952.000000;1.012477
9951.000000;1.012232
9950.000000;1.012297
9949.000000;1.012812
9948.000000;1.013184
9947.000000;1.012557
9946.000000;1.010987
9945.000000;1.009462
9944.000000;1.008673
9943.000000;1.008424
9942.000000;1.008317
9941.000000;1.008306
9940.000000;1.008346
9939.000000;1.008111
9938.000000;1.007419
9937.000000;1.006515
9936.000000;1.005706
9935.000000;1.005088
9934.000000;1.004746
9933.000000;1.004766
9932.000000;1.004865
9931.000000;1.004477
9930.000000;1.003395
9929.000000;1.002022
9928.000000;1.000859
9927.000000;1.000094
9926.000000;0.999765
9925.000000;0.999856
9924.000000;1.000124
9923.000000;1.000184
9922.000000;0.999891
9921.000000;0.999359
9920.000000;0.998619
9919.000000;0.997643
9918.000000;0.996635
9917.000000;0.995835
9916.000000;0.995067
9915.000000;0.993963
9914.000000;0.992669
9913.000000;0.991828
9912.000000;0.991773
9911.000000;0.992155
9910.000000;0.992430
9909.000000;0.992342
9908.000000;0.991888
9907.000000;0.991170
9906.000000;0.990374
9905.000000;0.989627
9904.000000;0.988906
9903.000000;0.988286
9902.000000;0.988047
9901.000000;0.988207
9900.000000;0.988246
9899.000000;0.987762
9898.000000;0.987076
9897.000000;0.986642
9896.000000;0.986173
9895.000000;0.985104
9894.000000;0.983702
9893.000000;0.982879
9892.000000;0.982955
9891.000000;0.983355
9890.000000;0.983535
9889.000000;0.983483
9888.000000;0.983208
9887.000000;0.982498
9886.000000;0.981414
9885.000000;0.980379
9884.000000;0.979585
9883.000000;0.978844
9882.000000;0.978112
9881.000000;0.977640
9880.000000;0.977475
9879.000000;0.977361
9878.000000;0.977208
9877.000000;0.977107
9876.000000;0.976822
9875.000000;0.975891
9874.000000;0.974420
9873.000000;0.973194
9872.000000;0.972793
9871.000000;0.973040
9870.000000;0.973402
9869.000000;0.973489
9868.000000;0.973072
9867.000000;0.972161
9866.000000;0.971234
9865.000000;0.970875
9864.000000;0.970984
9863.000000;0.970774
9862.000000;0.969731
9861.000000;0.968188
9860.000000;0.966821
9859.000000;0.965997
9858.000000;0.965748
9857.000000;0.965926
9856.000000;0.966162
9855.000000;0.966025
9854.000000;0.965421
9853.000000;0.964641
9852.000000;0.963982
9851.000000;0.963568
9850.000000;0.963461
9849.000000;0.963587
9848.000000;0.963584
9847.000000;0.963081
9846.000000;0.962126
9845.000000;0.961073
9844.000000;0.960178
9843.000000;0.959606
9842.000000;0.959587
9841.000000;0.960050
9840.000000;0.960303
9839.000000;0.959669
9838.000000;0.958367
9837.000000;0.957186
9836.000000;0.956413
9835.000000;0.955708
9834.000000;0.954950
9833.000000;0.954477
9832.000000;0.954379
9831.000000;0.954227
9830.000000;0.953732
9829.000000;0.953118
9828.000000;0.952620
9827.000000;0.952113
9826.000000;0.951450
9825.000000;0.950780
9824.000000;0.950306
9823.000000;0.950024
9822.000000;0.949817
9821.000000;0.949529
9820.000000;0.948914
9819.000000;0.947843
9818.000000;0.946617
9817.000000;0.945746
9816.000000;0.945378
9815.000000;0.945210
9814.000000;0.944922
9813.000000;0.944427
9812.000000;0.943772
9811.000000;0.943123
9810.000000;0.942741
9809.000000;0.942685
9808.000000;0.942645
9807.000000;0.942369
9806.000000;0.942056
9805.000000;0.941965
9804.000000;0.941896
9803.000000;0.941490
9802.000000;0.940802
9801.000000;0.940095
9800.000000;0.939293
9799.000000;0.938190
9798.000000;0.937029
9797.000000;0.936252
9796.000000;0.935847
9795.000000;0.935492
9794.000000;0.935235
9793.000000;0.935368
9792.000000;0.935705
9791.000000;0.935616
9790.000000;0.934851
9789.000000;0.933794
9788.000000;0.932900
9787.000000;0.932359
9786.000000;0.932243
9785.000000;0.932421
9784.000000;0.932387
9783.000000;0.931699
9782.000000;0.930600
9781.000000;0.929704
9780.000000;0.929173
9779.000000;0.928724
9778.000000;0.928289
9777.000000;0.928048
9776.000000;0.927890
9775.000000;0.927483
9774.000000;0.926879
9773.000000;0.926443
9772.000000;0.926195
9771.000000;0.925801
9770.000000;0.925187
9769.000000;0.924562
9768.000000;0.923871
9767.000000;0.922869
9766.000000;0.921727
9765.000000;0.920949
9764.000000;0.920697
9763.000000;0.920766
9762.000000;0.921133
9761.000000;0.921833
9760.000000;0.922352
9759.000000;0.921964
9758.000000;0.920776
9757.000000;0.919694
9756.000000;0.919214
9755.000000;0.918979
9754.000000;0.918616
9753.000000;0.918215
9752.000000;0.917771
9751.000000;0.916967
9750.000000;0.915854
9749.000000;0.915072
9748.000000;0.914969
9747.000000;0.915062
9746.000000;0.914764
9745.000000;0.914162
9744.000000;0.913714
9743.000000;0.913580
9742.000000;0.913614
9741.000000;0.913648
9740.000000;0.913467
9739.000000;0.912831
9738.000000;0.911787
9737.000000;0.910691
9736.000000;0.909745
9735.000000;0.908840
9734.000000;0.907983
9733.000000;0.907491
9732.000000;0.907517
9731.000000;0.907678
9730.000000;0.907413
9729.000000;0.906541
9728.000000;0.905356
9727.000000;0.904344
9726.000000;0.903874
9725.000000;0.903940
9724.000000;0.904161
9723.000000;0.904183
9722.000000;0.903994
9721.000000;0.903639
9720.000000;0.902891
9719.000000;0.901633
9718.000000;0.900390
9717.000000;0.899917
9716.000000;0.900249
9715.000000;0.900645
9714.000000;0.900471
9713.000000;0.899721
9712.000000;0.898662
9711.000000;0.897505
9710.000000;0.896518
9709.000000;0.895984
9708.000000;0.895870
9707.000000;0.895857
9706.000000;0.895749
9705.000000;0.895567
9704.000000;0.895284
9703.000000;0.894846
9702.000000;0.894438
9701.000000;0.894300
9700.000000;0.894286
9699.000000;0.894027
9698.000000;0.893491
9697.000000;0.892931
9696.000000;0.892351
9695.000000;0.891519
9694.000000;0.890515
9693.000000;0.889708
9692.000000;0.889163
9691.000000;0.888598
9690.000000;0.887995
9689.000000;0.887707
9688.000000;0.887810
9687.000000;0.887890
9686.000000;0.887673
9685.000000;0.887375
9684.000000;0.887217
9683.000000;0.886993
9682.000000;0.886413
9681.000000;0.885542
9680.000000;0.884652
9679.000000;0.883875
9678.000000;0.883185
9677.000000;0.882541
9676.000000;0.881911
9675.000000;0.881266
9674.000000;0.880598
9673.000000;0.879877
9672.000000;0.879100
9671.000000;0.878527
9670.000000;0.878615
9669.000000;0.879434
9668.000000;0.880338
9667.000000;0.880543
9666.000000;0.879912
9665.000000;0.878861
9664.000000;0.877746
9663.000000;0.876774
9662.000000;0.876219
9661.000000;0.876153
9660.000000;0.876119
9659.000000;0.875649
9658.000000;0.874985
9657.000000;0.874714
9656.000000;0.874798
9655.000000;0.874600
9654.000000;0.873901
9653.000000;0.873242
9652.000000;0.873124
9651.000000;0.873417
9650.000000;0.873679
9649.000000;0.873617
9648.000000;0.873086
9647.000000;0.872069
9646.000000;0.870798
9645.000000;0.869586
9644.000000;0.868505
9643.000000;0.867533
9642.000000;0.866916
9641.000000;0.866921
9640.000000;0.867293
9639.000000;0.867438
9638.000000;0.867170
9637.000000;0.866819
9636.000000;0.866583
9635.000000;0.866241
9634.000000;0.865581
9633.000000;0.864703
9632.000000;0.863829
9631.000000;0.863142
9630.000000;0.862773
9629.000000;0.862605
9628.000000;0.862200
9627.000000;0.861343
9626.000000;0.860530
9625.000000;0.860405
9624.000000;0.860818
9623.000000;0.860985
9622.000000;0.860514
9621.000000;0.859723
9620.000000;0.858939
9619.000000;0.858125
9618.000000;0.857278
9617.000000;0.856597
9616.000000;0.856093
9615.000000;0.855516
9614.000000;0.854824
9613.000000;0.854295
9612.000000;0.854052
9611.000000;0.853897
9610.000000;0.853707
9609.000000;0.853585
9608.000000;0.853523
9607.000000;0.853323
9606.000000;0.852935
9605.000000;0.852504
9604.000000;0.852042
9603.000000;0.851461
9602.000000;0.850914
9601.000000;0.850659
9600.000000;0.850559
9599.000000;0.850179
9598.000000;0.849447
9597.000000;0.848773
9596.000000;0.848407
9595.000000;0.848139
9594.000000;0.847715
9593.000000;0.847158
9592.000000;0.846544
9591.000000;0.845869
9590.000000;0.845241
9589.000000;0.844860
9588.000000;0.844728
9587.000000;0.844653
9586.000000;0.844546
9585.000000;0.844400
9584.000000;0.844060
9583.000000;0.843422
9582.000000;0.842776
9581.000000;0.842503
9580.000000;0.842471
9579.000000;0.842217
9578.000000;0.841701
9577.000000;0.841336
9576.000000;0.841269
9575.000000;0.841162
9574.000000;0.840739
9573.000000;0.840059
9572.000000;0.839168
9571.000000;0.838042
9570.000000;0.836972
9569.000000;0.836467
9568.000000;0.836571
9567.000000;0.836727
9566.000000;0.836499
9565.000000;0.836038
9564.000000;0.835673
9563.000000;0.835472
9562.000000;0.835347
9561.000000;0.835200
9560.000000;0.834809
9559.000000;0.833956
9558.000000;0.832829
9557.000000;0.831956
9556.000000;0.831561
9555.000000;0.831335
9554.000000;0.830956
9553.000000;0.830530
9552.000000;0.830331
9551.000000;0.830398
9550.000000;0.830519
9549.000000;0.830412
9548.000000;0.829876
9547.000000;0.828984
9546.000000;0.828122
9545.000000;0.827621
9544.000000;0.827399
9543.000000;0.827191
9542.000000;0.826983
9541.000000;0.826889
9540.000000;0.826769
9539.000000;0.826413
9538.000000;0.825998
9537.000000;0.825860
9536.000000;0.825868
9535.000000;0.825534
9534.000000;0.824767
9533.000000;0.823996
9532.000000;0.823499
9531.000000;0.823111
9530.000000;0.822690
9529.000000;0.822357
9528.000000;0.822117
9527.000000;0.821716
9526.000000;0.821068
9525.000000;0.820435
9524.000000;0.820010
9523.000000;0.819665
9522.000000;0.819270
9521.000000;0.818951
9520.000000;0.818844
9519.000000;0.818855
9518.000000;0.818786
9517.000000;0.818502
9516.000000;0.817941
9515.000000;0.817169
9514.000000;0.816404
9513.000000;0.815748
9512.000000;0.815001
9511.000000;0.813994
9510.000000;0.812993
9509.000000;0.812400
9508.000000;0.812187
9507.000000;0.812030
9506.000000;0.811891
9505.000000;0.811977
9504.000000;0.812213
9503.000000;0.812256
9502.000000;0.812052
9501.000000;0.811845
9500.000000;0.811636
9499.000000;0.811156
9498.000000;0.810442
9497.000000;0.809885
9496.000000;0.809595
9495.000000;0.809244
9494.000000;0.808684
9493.000000;0.808216
9492.000000;0.808031
9491.000000;0.807827
9490.000000;0.807247
9489.000000;0.806344
9488.000000;0.805413
9487.000000;0.804679
9486.000000;0.804291
9485.000000;0.804289
9484.000000;0.804413
9483.000000;0.804270
9482.000000;0.803817
9481.000000;0.803383
9480.000000;0.803084
9479.000000;0.802600
9478.000000;0.801692
9477.000000;0.800627
9476.000000;0.799841
9475.000000;0.799433
9474.000000;0.799167
9473.000000;0.798814
9472.000000;0.798376
9471.000000;0.798069
9470.000000;0.798114
9469.000000;0.798410
9468.000000;0.798490
9467.000000;0.798026
9466.000000;0.797277
9465.000000;0.796755
9464.000000;0.796571
9463.000000;0.796457
9462.000000;0.796321
9461.000000;0.796314
9460.000000;0.796353
9459.000000;0.796061
9458.000000;0.795318
9457.000000;0.794506
9456.000000;0.794051
9455.000000;0.794003
9454.000000;0.794110
9453.000000;0.794020
9452.000000;0.793414
9451.000000;0.792264
9450.000000;0.791001
9449.000000;0.790139
9448.000000;0.789747
9447.000000;0.789546
9446.000000;0.789418
9445.000000;0.789445
9444.000000;0.789483
9443.000000;0.789202
9442.000000;0.788606
9441.000000;0.788090
9440.000000;0.787882
9439.000000;0.787790
9438.000000;0.787586
9437.000000;0.787254
9436.000000;0.786789
9435.000000;0.786131
9434.000000;0.785414
9433.000000;0.784921
9432.000000;0.784731
9431.000000;0.784701
9430.000000;0.784819
9429.000000;0.785201
9428.000000;0.785663
9427.000000;0.785713
9426.000000;0.785137
9425.000000;0.784280
9424.000000;0.783584
9423.000000;0.783164
9422.000000;0.782914
9421.000000;0.782741
9420.000000;0.782537
9419.000000;0.782160
9418.000000;0.781581
9417.000000;0.780904
9416.000000;0.780221
9415.000000;0.779641
9414.000000;0.779362
9413.000000;0.779441
9412.000000;0.779532
9411.000000;0.779219
9410.000000;0.778556
9409.000000;0.777966
9408.000000;0.777616
9407.000000;0.777291
9406.000000;0.776890
9405.000000;0.776624
9404.000000;0.776622
9403.000000;0.776695
9402.000000;0.776594
9401.000000;0.776240
9400.000000;0.775652
9399.000000;0.774933
9398.000000;0.774346
9397.000000;0.774090
9396.000000;0.773955
9395.000000;0.773533
9394.000000;0.772787
9393.000000;0.772095
9392.000000;0.771687
9391.000000;0.771423
9390.000000;0.771162
9389.000000;0.770964
9388.000000;0.770824
9387.000000;0.770549
9386.000000;0.770051
9385.000000;0.769490
9384.000000;0.769023
9383.000000;0.768646
9382.000000;0.768352
9381.000000;0.768170
9380.000000;0.768021
9379.000000;0.767779
9378.000000;0.767509
9377.000000;0.767347
9376.000000;0.767133
9375.000000;0.766547
9374.000000;0.765649
9373.000000;0.764935
9372.000000;0.764700
9371.000000;0.764662
9370.000000;0.764387
9369.000000;0.763807
9368.000000;0.763179
9367.000000;0.762740
9366.000000;0.762544
9365.000000;0.762488
9364.000000;0.762364
9363.000000;0.761993
9362.000000;0.761386
9361.000000;0.760718
9360.000000;0.760184
9359.000000;0.759954
9358.000000;0.760127
9357.000000;0.760547
9356.000000;0.760806
9355.000000;0.760652
9354.000000;0.760278
9353.000000;0.759982
9352.000000;0.759725
9351.000000;0.759317
9350.000000;0.758849
9349.000000;0.758545
9348.000000;0.758285
9347.000000;0.757732
9346.000000;0.756895
9345.000000;0.756194
9344.000000;0.755941
9343.000000;0.756065
9342.000000;0.756326
9341.000000;0.756444
9340.000000;0.756102
9339.000000;0.755205
9338.000000;0.754178
9337.000000;0.753627
9336.000000;0.753665
9335.000000;0.753873
9334.000000;0.753898
9333.000000;0.753737
9332.000000;0.753443
9331.000000;0.752951
9330.000000;0.752304
9329.000000;0.751705
9328.000000;0.751241
9327.000000;0.750798
9326.000000;0.750310
9325.000000;0.749830
9324.000000;0.749352
9323.000000;0.748847
9322.000000;0.748465
9321.000000;0.748411
9320.000000;0.748590
9319.000000;0.748659
9318.000000;0.748442
9317.000000;0.748040
9316.000000;0.747560
9315.000000;0.747043
9314.000000;0.746634
9313.000000;0.746471
9312.000000;0.746375
9311.000000;0.745974
9310.000000;0.745195
9309.000000;0.744359
9308.000000;0.743781
9307.000000;0.743534
9306.000000;0.743593
9305.000000;0.743886
9304.000000;0.744156
9303.000000;0.744081
9302.000000;0.743626
9301.000000;0.743055
9300.000000;0.742580
9299.000000;0.742223
9298.000000;0.741990
9297.000000;0.741882
9296.000000;0.741727
9295.000000;0.741292
9294.000000;0.740615
9293.000000;0.740026
9292.000000;0.739821
9291.000000;0.740053
9290.000000;0.740554
9289.000000;0.740946
9288.000000;0.740800
9287.000000;0.740068
9286.000000;0.739263
9285.000000;0.738892
9284.000000;0.738828
9283.000000;0.738564
9282.000000;0.737968
9281.000000;0.737381
9280.000000;0.737027
9279.000000;0.736736
9278.000000;0.736302
9277.000000;0.735762
9276.000000;0.735280
9275.000000;0.735007
9274.000000;0.735076
9273.000000;0.735438
9272.000000;0.735738
9271.000000;0.735600
9270.000000;0.735019
9269.000000;0.734253
9268.000000;0.733459
9267.000000;0.732738
9266.000000;0.732324
9265.000000;0.732352
9264.000000;0.732515
9263.000000;0.732380
9262.000000;0.731950
9261.000000;0.731540
9260.000000;0.731194
9259.000000;0.730707
9258.000000;0.730152
9257.000000;0.729873
9256.000000;0.729902
9255.000000;0.729875
9254.000000;0.729583
9253.000000;0.729194
9252.000000;0.728845
9251.000000;0.728459
9250.000000;0.728056
9249.000000;0.727841
9248.000000;0.727861
9247.000000;0.727903
9246.000000;0.727832
9245.000000;0.727693
9244.000000;0.727420
9243.000000;0.726827
9242.000000;0.726007
9241.000000;0.725370
9240.000000;0.725141
9239.000000;0.725125
9238.000000;0.725067
9237.000000;0.724956
9236.000000;0.724824
9235.000000;0.724582
9234.000000;0.724200
9233.000000;0.723839
9232.000000;0.723641
9231.000000;0.723554
9230.000000;0.723451
9229.000000;0.723243
9228.000000;0.722859
9227.000000;0.722325
9226.000000;0.721850
9225.000000;0.721628
9224.000000;0.721537
9223.000000;0.721284
9222.000000;0.720813
9221.000000;0.720337
9220.000000;0.720000
9219.000000;0.719788
9218.000000;0.719738
9217.000000;0.719927
9216.000000;0.720241
9215.000000;0.720415
9214.000000;0.720328
9213.000000;0.720038
9212.000000;0.719549
9211.000000;0.718858
9210.000000;0.718157
9209.000000;0.717697
9208.000000;0.717426
9207.000000;0.717056
9206.000000;0.716497
9205.000000;0.715959
9204.000000;0.715627
9203.000000;0.715506
9202.000000;0.715574
9201.000000;0.715788
9200.000000;0.715963
9199.000000;0.715912
9198.000000;0.715694
9197.000000;0.715453
9196.000000;0.715113
9195.000000;0.714543
9194.000000;0.713937
9193.000000;0.713650
9192.000000;0.713699
9191.000000;0.713797
9190.000000;0.713849
9189.000000;0.714007
9188.000000;0.714212
9187.000000;0.714127
9186.000000;0.713604
9185.000000;0.712904
9184.000000;0.712349
9183.000000;0.712031
9182.000000;0.711887
9181.000000;0.711766
9180.000000;0.711409
9179.000000;0.710700
9178.000000;0.709952
9177.000000;0.709608
9176.000000;0.709651
9175.000000;0.709641
9174.000000;0.709322
9173.000000;0.708852
9172.000000;0.708405
9171.000000;0.707960
9170.000000;0.707557
9169.000000;0.707379
9168.000000;0.707434
9167.000000;0.707486
9166.000000;0.707409
9165.000000;0.707306
9164.000000;0.707198
9163.000000;0.706905
9162.000000;0.706367
9161.000000;0.705801
9160.000000;0.705417
9159.000000;0.705236
9158.000000;0.705243
9157.000000;0.705455
9156.000000;0.705712
9155.000000;0.705690
9154.000000;0.705254
9153.000000;0.704610
9152.000000;0.704027
9151.000000;0.703592
9150.000000;0.703268
9149.000000;0.702996
9148.000000;0.702675
9147.000000;0.702245
9146.000000;0.701828
9145.000000;0.701621
9144.000000;0.701641
9143.000000;0.701744
9142.000000;0.701840
9141.000000;0.701884
9140.000000;0.701736
9139.000000;0.701316
9138.000000;0.700838
9137.000000;0.700602
9136.000000;0.700570
9135.000000;0.700422
9134.000000;0.700009
9133.000000;0.699488
9132.000000;0.699009
9131.000000;0.698584
9130.000000;0.698239
9129.000000;0.698045
9128.000000;0.697970
9127.000000;0.697952
9126.000000;0.698053
9125.000000;0.698275
9124.000000;0.698330
9123.000000;0.697959
9122.000000;0.697392
9121.000000;0.697100
9120.000000;0.697113
9119.000000;0.696998
9118.000000;0.696538
9117.000000;0.695993
9116.000000;0.695630
9115.000000;0.695383
9114.000000;0.695121
9113.000000;0.694862
9112.000000;0.694593
9111.000000;0.694208
9110.000000;0.693787
9109.000000;0.693625
9108.000000;0.693817
9107.000000;0.694079
9106.000000;0.694106
9105.000000;0.693890
9104.000000;0.693564
9103.000000;0.693198
9102.000000;0.692865
9101.000000;0.692667
9100.000000;0.692546
9099.000000;0.692286
9098.000000;0.691825
9097.000000;0.691381
9096.000000;0.691134
9095.000000;0.691001
9094.000000;0.690822
9093.000000;0.690603
9092.000000;0.690447
9091.000000;0.690378
9090.000000;0.690321
9089.000000;0.690165
9088.000000;0.689819
9087.000000;0.689318
9086.000000;0.688855
9085.000000;0.688576
9084.000000;0.688394
9083.000000;0.688170
9082.000000;0.687987
9081.000000;0.688012
9080.000000;0.688147
9079.000000;0.688102
9078.000000;0.687804
9077.000000;0.687486
9076.000000;0.687336
9075.000000;0.687316
9074.000000;0.687335
9073.000000;0.687341
9072.000000;0.687239
9071.000000;0.686947
9070.000000;0.686571
9069.000000;0.686307
9068.000000;0.686147
9067.000000;0.685912
9066.000000;0.685585
9065.000000;0.685370
9064.000000;0.685377
9063.000000;0.685454
9062.000000;0.685381
9061.000000;0.685047
9060.000000;0.684474
9059.000000;0.683860
9058.000000;0.683568
9057.000000;0.683789
9056.000000;0.684224
9055.000000;0.684354
9054.000000;0.684043
9053.000000;0.683623
