Criado como novo conjunto de dados;"e2410_daniel_v2.spp","1802.1 Secs"
cm-1;Abs
10000.000000;0.121123
9999.000000;0.120540
9998.000000;0.119876
9997.000000;0.119221
9996.000000;0.118678
9995.000000;0.118264
9994.000000;0.117957
9993.000000;0.117685
9992.000000;0.117362
9991.000000;0.116901
9990.000000;0.116304
9989.000000;0.115693
9988.000000;0.115229
9987.000000;0.114912
9986.000000;0.114539
9985.000000;0.113924
9984.000000;0.113145
9983.000000;0.112471
9982.000000;0.112033
9981.000000;0.111701
9980.000000;0.111300
9979.000000;0.110828
9978.000000;0.110368
9977.000000;0.109899
9976.000000;0.109344
9975.000000;0.108749
9974.000000;0.108255
9973.000000;0.107897
9972.000000;0.107543
9971.000000;0.107065
9970.000000;0.106494
9969.000000;0.105959
9968.000000;0.105543
9967.000000;0.105211
9966.000000;0.104839
9965.000000;0.104307
9964.000000;0.103623
9963.000000;0.102958
9962.000000;0.102491
9961.000000;0.102216
9960.000000;0.101967
9959.000000;0.101614
9958.000000;0.101175
9957.000000;0.100709
9956.000000;0.100203
9955.000000;0.099625
9954.000000;0.099021
9953.000000;0.098479
9952.000000;0.098035
9951.000000;0.097651
9950.000000;0.097255
9949.000000;0.096780
9948.000000;0.096201
9947.000000;0.095575
9946.000000;0.095013
9945.000000;0.094560
9944.000000;0.094153
9943.000000;0.093704
9942.000000;0.093213
9941.000000;0.092732
9940.000000;0.092277
9939.000000;0.091828
9938.000000;0.091381
9937.000000;0.090939
9936.000000;0.090473
9935.000000;0.089968
9934.000000;0.089487
9933.000000;0.089110
9932.000000;0.088800
9931.000000;0.088399
9930.000000;0.087811
9929.000000;0.087136
9928.000000;0.086574
9927.000000;0.086227
9926.000000;0.086010
9925.000000;0.085752
9924.000000;0.085331
9923.000000;0.084753
9922.000000;0.084115
9921.000000;0.083517
9920.000000;0.082984
9919.000000;0.082490
9918.000000;0.082031
9917.000000;0.081641
9916.000000;0.081310
9915.000000;0.080950
9914.000000;0.080500
9913.000000;0.080029
9912.000000;0.079665
9911.000000;0.079414
9910.000000;0.079130
9909.000000;0.078685
9908.000000;0.078098
9907.000000;0.077478
9906.000000;0.076887
9905.000000;0.076326
9904.000000;0.075798
9903.000000;0.075324
9902.000000;0.074898
9901.000000;0.074491
9900.000000;0.074106
9899.000000;0.073763
9898.000000;0.073440
9897.000000;0.073060
9896.000000;0.072567
9895.000000;0.071973
9894.000000;0.071329
9893.000000;0.070679
9892.000000;0.070071
9891.000000;0.069542
9890.000000;0.069077
9889.000000;0.068606
9888.000000;0.068090
9887.000000;0.067589
9886.000000;0.067200
9885.000000;0.066928
9884.000000;0.066657
9883.000000;0.066263
9882.000000;0.065746
9881.000000;0.065212
9880.000000;0.064737
9879.000000;0.064280
9878.000000;0.063762
9877.000000;0.063197
9876.000000;0.062701
9875.000000;0.062336
9874.000000;0.062035
9873.000000;0.061705
9872.000000;0.061357
9871.000000;0.061046
9870.000000;0.060719
9869.000000;0.060250
9868.000000;0.059628
9867.000000;0.059010
9866.000000;0.058545
9865.000000;0.058210
9864.000000;0.057881
9863.000000;0.057502
9862.000000;0.057114
9861.000000;0.056745
9860.000000;0.056355
9859.000000;0.055896
9858.000000;0.055371
9857.000000;0.054828
9856.000000;0.054324
9855.000000;0.053874
9854.000000;0.053427
9853.000000;0.052896
9852.000000;0.052257
9851.000000;0.051604
9850.000000;0.051090
9849.000000;0.050781
9848.000000;0.050583
9847.000000;0.050312
9846.000000;0.049837
9845.000000;0.049189
9844.000000;0.048530
9843.000000;0.048018
9842.000000;0.047669
9841.000000;0.047376
9840.000000;0.047037
9839.000000;0.046631
9838.000000;0.046170
9837.000000;0.045662
9836.000000;0.045132
9835.000000;0.044634
9834.000000;0.044181
9833.000000;0.043722
9832.000000;0.043219
9831.000000;0.042719
9830.000000;0.042301
9829.000000;0.041963
9828.000000;0.041635
9827.000000;0.041264
9826.000000;0.040843
9825.000000;0.040356
9824.000000;0.039782
9823.000000;0.039154
9822.000000;0.038558
9821.000000;0.038056
9820.000000;0.037624
9819.000000;0.037190
9818.000000;0.036704
9817.000000;0.036175
9816.000000;0.035659
9815.000000;0.035216
9814.000000;0.034860
9813.000000;0.034546
9812.000000;0.034221
9811.000000;0.033858
9810.000000;0.033451
9809.000000;0.032998
9808.000000;0.032518
9807.000000;0.032037
9806.000000;0.031547
9805.000000;0.031011
9804.000000;0.030440
9803.000000;0.029933
9802.000000;0.029575
9801.000000;0.029325
9800.000000;0.029051
9799.000000;0.028678
9798.000000;0.028241
9797.000000;0.027803
9796.000000;0.027381
9795.000000;0.026942
9794.000000;0.026451
9793.000000;0.025884
9792.000000;0.025263
9791.000000;0.024661
9790.000000;0.024161
9789.000000;0.023774
9788.000000;0.023432
9787.000000;0.023066
9786.000000;0.022659
9785.000000;0.022239
9784.000000;0.021846
9783.000000;0.021499
9782.000000;0.021180
9781.000000;0.020832
9780.000000;0.020415
9779.000000;0.019950
9778.000000;0.019491
9777.000000;0.019055
9776.000000;0.018623
9775.000000;0.018192
9774.000000;0.017785
9773.000000;0.017389
9772.000000;0.016931
9771.000000;0.016356
9770.000000;0.015697
9769.000000;0.015048
9768.000000;0.014479
9767.000000;0.013990
9766.000000;0.013557
9765.000000;0.013184
9764.000000;0.012885
9763.000000;0.012628
9762.000000;0.012311
9761.000000;0.011850
9760.000000;0.011282
9759.000000;0.010751
9758.000000;0.010369
9757.000000;0.010113
9756.000000;0.009866
9755.000000;0.009540
9754.000000;0.009115
9753.000000;0.008615
9752.000000;0.008079
9751.000000;0.007556
9750.000000;0.007080
9749.000000;0.006654
9748.000000;0.006268
9747.000000;0.005911
9746.000000;0.005561
9745.000000;0.005176
9744.000000;0.004743
9743.000000;0.004293
9742.000000;0.003839
9741.000000;0.003332
9740.000000;0.002741
9739.000000;0.002141
9738.000000;0.001655
9737.000000;0.001311
9736.000000;0.001016
9735.000000;0.000664
9734.000000;0.000230
9733.000000;-0.000247
9732.000000;-0.000704
9731.000000;-0.001073
9730.000000;-0.001341
9729.000000;-0.001594
9728.000000;-0.001957
9727.000000;-0.002468
9726.000000;-0.003047
9725.000000;-0.003597
9724.000000;-0.004070
9723.000000;-0.004448
9722.000000;-0.004724
9721.000000;-0.004960
9720.000000;-0.005287
9719.000000;-0.005781
9718.000000;-0.006376
9717.000000;-0.006935
9716.000000;-0.007393
9715.000000;-0.007787
9714.000000;-0.008173
9713.000000;-0.008563
9712.000000;-0.008935
9711.000000;-0.009279
9710.000000;-0.009619
9709.000000;-0.010008
9708.000000;-0.010476
9707.000000;-0.010978
9706.000000;-0.011417
9705.000000;-0.011749
9704.000000;-0.012033
9703.000000;-0.012357
9702.000000;-0.012751
9701.000000;-0.013189
9700.000000;-0.013647
9699.000000;-0.014112
9698.000000;-0.014560
9697.000000;-0.014979
9696.000000;-0.015407
9695.000000;-0.015901
9694.000000;-0.016448
9693.000000;-0.016948
9692.000000;-0.017328
9691.000000;-0.017635
9690.000000;-0.017990
9689.000000;-0.018445
9688.000000;-0.018926
9687.000000;-0.019316
9686.000000;-0.019592
9685.000000;-0.019829
9684.000000;-0.020097
9683.000000;-0.020403
9682.000000;-0.020737
9681.000000;-0.021135
9680.000000;-0.021651
9679.000000;-0.022269
9678.000000;-0.022886
9677.000000;-0.023389
9676.000000;-0.023746
9675.000000;-0.024021
9674.000000;-0.024329
9673.000000;-0.024754
9672.000000;-0.025281
9671.000000;-0.025812
9670.000000;-0.026270
9669.000000;-0.026673
9668.000000;-0.027082
9667.000000;-0.027507
9666.000000;-0.027903
9665.000000;-0.028256
9664.000000;-0.028612
9663.000000;-0.029001
9662.000000;-0.029394
9661.000000;-0.029752
9660.000000;-0.030094
9659.000000;-0.030473
9658.000000;-0.030916
9657.000000;-0.031408
9656.000000;-0.031902
9655.000000;-0.032341
9654.000000;-0.032704
9653.000000;-0.033044
9652.000000;-0.033453
9651.000000;-0.033953
9650.000000;-0.034471
9649.000000;-0.034923
9648.000000;-0.035309
9647.000000;-0.035677
9646.000000;-0.036049
9645.000000;-0.036423
9644.000000;-0.036833
9643.000000;-0.037325
9642.000000;-0.037867
9641.000000;-0.038339
9640.000000;-0.038649
9639.000000;-0.038842
9638.000000;-0.039067
9637.000000;-0.039438
9636.000000;-0.039947
9635.000000;-0.040490
9634.000000;-0.040972
9633.000000;-0.041376
9632.000000;-0.041760
9631.000000;-0.042175
9630.000000;-0.042613
9629.000000;-0.043013
9628.000000;-0.043312
9627.000000;-0.043493
9626.000000;-0.043617
9625.000000;-0.043798
9624.000000;-0.044131
9623.000000;-0.044612
9622.000000;-0.045138
9621.000000;-0.045605
9620.000000;-0.045994
9619.000000;-0.046360
9618.000000;-0.046762
9617.000000;-0.047221
9616.000000;-0.047721
9615.000000;-0.048205
9614.000000;-0.048587
9613.000000;-0.048824
9612.000000;-0.048986
9611.000000;-0.049230
9610.000000;-0.049655
9609.000000;-0.050218
9608.000000;-0.050786
9607.000000;-0.051259
9606.000000;-0.051621
9605.000000;-0.051900
9604.000000;-0.052135
9603.000000;-0.052374
9602.000000;-0.052676
9601.000000;-0.053061
9600.000000;-0.053492
9599.000000;-0.053908
9598.000000;-0.054300
9597.000000;-0.054712
9596.000000;-0.055190
9595.000000;-0.055724
9594.000000;-0.056260
9593.000000;-0.056743
9592.000000;-0.057129
9591.000000;-0.057399
9590.000000;-0.057583
9589.000000;-0.057779
9588.000000;-0.058086
9587.000000;-0.058516
9586.000000;-0.058991
9585.000000;-0.059440
9584.000000;-0.059883
9583.000000;-0.060379
9582.000000;-0.060911
9581.000000;-0.061383
9580.000000;-0.061719
9579.000000;-0.061937
9578.000000;-0.062109
9577.000000;-0.062288
9576.000000;-0.062519
9575.000000;-0.062868
9574.000000;-0.063378
9573.000000;-0.063995
9572.000000;-0.064571
9571.000000;-0.064980
9570.000000;-0.065219
9569.000000;-0.065399
9568.000000;-0.065651
9567.000000;-0.066034
9566.000000;-0.066502
9565.000000;-0.066944
9564.000000;-0.067288
9563.000000;-0.067582
9562.000000;-0.067953
9561.000000;-0.068457
9560.000000;-0.068990
9559.000000;-0.069400
9558.000000;-0.069657
9557.000000;-0.069879
9556.000000;-0.070183
9555.000000;-0.070572
9554.000000;-0.070979
9553.000000;-0.071374
9552.000000;-0.071765
9551.000000;-0.072149
9550.000000;-0.072491
9549.000000;-0.072783
9548.000000;-0.073062
9547.000000;-0.073371
9546.000000;-0.073719
9545.000000;-0.074090
9544.000000;-0.074473
9543.000000;-0.074848
9542.000000;-0.075191
9541.000000;-0.075505
9540.000000;-0.075843
9539.000000;-0.076264
9538.000000;-0.076765
9537.000000;-0.077269
9536.000000;-0.077710
9535.000000;-0.078080
9534.000000;-0.078398
9533.000000;-0.078657
9532.000000;-0.078847
9531.000000;-0.079015
9530.000000;-0.079255
9529.000000;-0.079620
9528.000000;-0.080072
9527.000000;-0.080535
9526.000000;-0.080973
9525.000000;-0.081393
9524.000000;-0.081814
9523.000000;-0.082249
9522.000000;-0.082714
9521.000000;-0.083215
9520.000000;-0.083720
9519.000000;-0.084171
9518.000000;-0.084526
9517.000000;-0.084781
9516.000000;-0.084957
9515.000000;-0.085107
9514.000000;-0.085296
9513.000000;-0.085564
9512.000000;-0.085890
9511.000000;-0.086228
9510.000000;-0.086570
9509.000000;-0.086944
9508.000000;-0.087358
9507.000000;-0.087771
9506.000000;-0.088127
9505.000000;-0.088415
9504.000000;-0.088676
9503.000000;-0.088962
9502.000000;-0.089302
9501.000000;-0.089682
9500.000000;-0.090072
9499.000000;-0.090462
9498.000000;-0.090867
9497.000000;-0.091274
9496.000000;-0.091638
9495.000000;-0.091942
9494.000000;-0.092232
9493.000000;-0.092554
9492.000000;-0.092878
9491.000000;-0.093150
9490.000000;-0.093413
9489.000000;-0.093774
9488.000000;-0.094255
9487.000000;-0.094746
9486.000000;-0.095141
9485.000000;-0.095471
9484.000000;-0.095833
9483.000000;-0.096235
9482.000000;-0.096595
9481.000000;-0.096856
9480.000000;-0.097061
9479.000000;-0.097289
9478.000000;-0.097576
9477.000000;-0.097917
9476.000000;-0.098300
9475.000000;-0.098718
9474.000000;-0.099155
9473.000000;-0.099564
9472.000000;-0.099888
9471.000000;-0.100111
9470.000000;-0.100286
9469.000000;-0.100495
9468.000000;-0.100779
9467.000000;-0.101119
9466.000000;-0.101492
9465.000000;-0.101890
9464.000000;-0.102291
9463.000000;-0.102664
9462.000000;-0.103030
9461.000000;-0.103475
9460.000000;-0.104028
9459.000000;-0.104573
9458.000000;-0.104931
9457.000000;-0.105053
9456.000000;-0.105068
9455.000000;-0.105150
9454.000000;-0.105360
9453.000000;-0.105649
9452.000000;-0.105949
9451.000000;-0.106247
9450.000000;-0.106570
9449.000000;-0.106942
9448.000000;-0.107348
9447.000000;-0.107750
9446.000000;-0.108113
9445.000000;-0.108438
9444.000000;-0.108761
9443.000000;-0.109121
9442.000000;-0.109522
9441.000000;-0.109928
9440.000000;-0.110289
9439.000000;-0.110595
9438.000000;-0.110887
9437.000000;-0.111202
9436.000000;-0.111530
9435.000000;-0.111835
9434.000000;-0.112113
9433.000000;-0.112400
9432.000000;-0.112717
9431.000000;-0.113039
9430.000000;-0.113348
9429.000000;-0.113666
9428.000000;-0.114011
9427.000000;-0.114353
9426.000000;-0.114646
9425.000000;-0.114895
9424.000000;-0.115148
9423.000000;-0.115425
9422.000000;-0.115703
9421.000000;-0.115964
9420.000000;-0.116226
9419.000000;-0.116522
9418.000000;-0.116858
9417.000000;-0.117213
9416.000000;-0.117563
9415.000000;-0.117895
9414.000000;-0.118211
9413.000000;-0.118520
9412.000000;-0.118846
9411.000000;-0.119224
9410.000000;-0.119676
9409.000000;-0.120173
9408.000000;-0.120635
9407.000000;-0.121005
9406.000000;-0.121311
9405.000000;-0.121631
9404.000000;-0.122000
9403.000000;-0.122359
9402.000000;-0.122623
9401.000000;-0.122760
9400.000000;-0.122824
9399.000000;-0.122935
9398.000000;-0.123208
9397.000000;-0.123649
9396.000000;-0.124120
9395.000000;-0.124440
9394.000000;-0.124573
9393.000000;-0.124678
9392.000000;-0.124945
9391.000000;-0.125411
9390.000000;-0.125953
9389.000000;-0.126423
9388.000000;-0.126753
9387.000000;-0.126970
9386.000000;-0.127154
9385.000000;-0.127372
9384.000000;-0.127630
9383.000000;-0.127888
9382.000000;-0.128123
9381.000000;-0.128357
9380.000000;-0.128611
9379.000000;-0.128883
9378.000000;-0.129182
9377.000000;-0.129548
9376.000000;-0.129983
9375.000000;-0.130409
9374.000000;-0.130742
9373.000000;-0.130992
9372.000000;-0.131239
9371.000000;-0.131527
9370.000000;-0.131822
9369.000000;-0.132074
9368.000000;-0.132284
9367.000000;-0.132505
9366.000000;-0.132806
9365.000000;-0.133217
9364.000000;-0.133676
9363.000000;-0.134058
9362.000000;-0.134292
9361.000000;-0.134434
9360.000000;-0.134602
9359.000000;-0.134847
9358.000000;-0.135138
9357.000000;-0.135438
9356.000000;-0.135742
9355.000000;-0.136044
9354.000000;-0.136324
9353.000000;-0.136580
9352.000000;-0.136829
9351.000000;-0.137073
9350.000000;-0.137320
9349.000000;-0.137617
9348.000000;-0.138018
9347.000000;-0.138488
9346.000000;-0.138913
9345.000000;-0.139208
9344.000000;-0.139407
9343.000000;-0.139609
9342.000000;-0.139877
9341.000000;-0.140197
9340.000000;-0.140524
9339.000000;-0.140813
9338.000000;-0.141040
9337.000000;-0.141214
9336.000000;-0.141365
9335.000000;-0.141527
9334.000000;-0.141718
9333.000000;-0.141941
9332.000000;-0.142176
9331.000000;-0.142410
9330.000000;-0.142662
9329.000000;-0.142979
9328.000000;-0.143369
9327.000000;-0.143767
9326.000000;-0.144104
9325.000000;-0.144393
9324.000000;-0.144703
9323.000000;-0.145058
9322.000000;-0.145394
9321.000000;-0.145639
9320.000000;-0.145792
9319.000000;-0.145917
9318.000000;-0.146101
9317.000000;-0.146399
9316.000000;-0.146791
9315.000000;-0.147173
9314.000000;-0.147445
9313.000000;-0.147619
9312.000000;-0.147805
9311.000000;-0.148081
9310.000000;-0.148424
9309.000000;-0.148765
9308.000000;-0.149071
9307.000000;-0.149338
9306.000000;-0.149553
9305.000000;-0.149720
9304.000000;-0.149896
9303.000000;-0.150155
9302.000000;-0.150509
9301.000000;-0.150906
9300.000000;-0.151294
9299.000000;-0.151652
9298.000000;-0.151974
9297.000000;-0.152256
9296.000000;-0.152512
9295.000000;-0.152764
9294.000000;-0.153016
9293.000000;-0.153241
9292.000000;-0.153413
9291.000000;-0.153554
9290.000000;-0.153722
9289.000000;-0.153966
9288.000000;-0.154282
9287.000000;-0.154614
9286.000000;-0.154898
9285.000000;-0.155115
9284.000000;-0.155297
9283.000000;-0.155506
9282.000000;-0.155777
9281.000000;-0.156094
9280.000000;-0.156403
9279.000000;-0.156668
9278.000000;-0.156906
9277.000000;-0.157154
9276.000000;-0.157410
9275.000000;-0.157628
9274.000000;-0.157789
9273.000000;-0.157953
9272.000000;-0.158198
9271.000000;-0.158534
9270.000000;-0.158895
9269.000000;-0.159221
9268.000000;-0.159516
9267.000000;-0.159806
9266.000000;-0.160085
9265.000000;-0.160324
9264.000000;-0.160524
9263.000000;-0.160716
9262.000000;-0.160934
9261.000000;-0.161185
9260.000000;-0.161454
9259.000000;-0.161722
9258.000000;-0.161971
9257.000000;-0.162190
9256.000000;-0.162392
9255.000000;-0.162610
9254.000000;-0.162882
9253.000000;-0.163216
9252.000000;-0.163568
9251.000000;-0.163873
9250.000000;-0.164086
9249.000000;-0.164210
9248.000000;-0.164280
9247.000000;-0.164337
9246.000000;-0.164425
9245.000000;-0.164578
9244.000000;-0.164801
9243.000000;-0.165073
9242.000000;-0.165381
9241.000000;-0.165738
9240.000000;-0.166148
9239.000000;-0.166579
9238.000000;-0.166988
9237.000000;-0.167356
9236.000000;-0.167666
9235.000000;-0.167883
9234.000000;-0.167975
9233.000000;-0.167984
9232.000000;-0.168018
9231.000000;-0.168181
9230.000000;-0.168493
9229.000000;-0.168890
9228.000000;-0.169278
9227.000000;-0.169606
9226.000000;-0.169890
9225.000000;-0.170165
9224.000000;-0.170422
9223.000000;-0.170612
9222.000000;-0.170729
9221.000000;-0.170852
9220.000000;-0.171055
9219.000000;-0.171316
9218.000000;-0.171543
9217.000000;-0.171690
9216.000000;-0.171790
9215.000000;-0.171897
9214.000000;-0.172046
9213.000000;-0.172271
9212.000000;-0.172599
9211.000000;-0.172999
9210.000000;-0.173391
9209.000000;-0.173702
9208.000000;-0.173918
9207.000000;-0.174054
9206.000000;-0.174136
9205.000000;-0.174221
9204.000000;-0.174374
9203.000000;-0.174599
9202.000000;-0.174830
9201.000000;-0.175022
9200.000000;-0.175230
9199.000000;-0.175537
9198.000000;-0.175931
9197.000000;-0.176300
9196.000000;-0.176562
9195.000000;-0.176747
9194.000000;-0.176942
9193.000000;-0.177180
9192.000000;-0.177424
9191.000000;-0.177638
9190.000000;-0.177836
9189.000000;-0.178042
9188.000000;-0.178244
9187.000000;-0.178415
9186.000000;-0.178581
9185.000000;-0.178808
9184.000000;-0.179115
9183.000000;-0.179423
9182.000000;-0.179638
9181.000000;-0.179755
9180.000000;-0.179850
9179.000000;-0.179984
9178.000000;-0.180163
9177.000000;-0.180377
9176.000000;-0.180635
9175.000000;-0.180933
9174.000000;-0.181237
9173.000000;-0.181518
9172.000000;-0.181777
9171.000000;-0.182012
9170.000000;-0.182207
9169.000000;-0.182366
9168.000000;-0.182526
9167.000000;-0.182710
9166.000000;-0.182891
9165.000000;-0.183037
9164.000000;-0.183177
9163.000000;-0.183365
9162.000000;-0.183604
9161.000000;-0.183849
9160.000000;-0.184081
9159.000000;-0.184330
9158.000000;-0.184615
9157.000000;-0.184892
9156.000000;-0.185101
9155.000000;-0.185250
9154.000000;-0.185406
9153.000000;-0.185620
9152.000000;-0.185875
9151.000000;-0.186118
9150.000000;-0.186315
9149.000000;-0.186461
9148.000000;-0.186560
9147.000000;-0.186618
9146.000000;-0.186677
9145.000000;-0.186814
9144.000000;-0.187082
9143.000000;-0.187449
9142.000000;-0.187813
9141.000000;-0.188083
9140.000000;-0.188245
9139.000000;-0.188352
9138.000000;-0.188470
9137.000000;-0.188645
9136.000000;-0.188887
9135.000000;-0.189180
9134.000000;-0.189482
9133.000000;-0.189738
9132.000000;-0.189915
9131.000000;-0.190022
9130.000000;-0.190122
9129.000000;-0.190289
9128.000000;-0.190541
9127.000000;-0.190817
9126.000000;-0.191037
9125.000000;-0.191177
9124.000000;-0.191279
9123.000000;-0.191400
9122.000000;-0.191563
9121.000000;-0.191757
9120.000000;-0.191961
9119.000000;-0.192156
9118.000000;-0.192342
9117.000000;-0.192539
9116.000000;-0.192764
9115.000000;-0.192998
9114.000000;-0.193202
9113.000000;-0.193363
9112.000000;-0.193511
9111.000000;-0.193669
9110.000000;-0.193823
9109.000000;-0.193961
9108.000000;-0.194112
9107.000000;-0.194322
9106.000000;-0.194598
9105.000000;-0.194899
9104.000000;-0.195177
9103.000000;-0.195401
9102.000000;-0.195567
9101.000000;-0.195692
9100.000000;-0.195815
9099.000000;-0.195970
9098.000000;-0.196154
9097.000000;-0.196329
9096.000000;-0.196466
9095.000000;-0.196581
9094.000000;-0.196714
9093.000000;-0.196892
9092.000000;-0.197109
9091.000000;-0.197345
9090.000000;-0.197576
9089.000000;-0.197773
9088.000000;-0.197912
9087.000000;-0.197995
9086.000000;-0.198061
9085.000000;-0.198165
9084.000000;-0.198339
