Criado como novo conjunto de dados;"e2410_daniel_v2.spp","5942.1 Secs"
cm-1;Abs
10000.000000;0.146033
9999.000000;0.145568
9998.000000;0.145104
9997.000000;0.144640
9996.000000;0.144177
9995.000000;0.143714
9994.000000;0.143252
9993.000000;0.142789
9992.000000;0.142330
9991.000000;0.141865
9990.000000;0.141413
9989.000000;0.140913
9988.000000;0.140397
9987.000000;0.139950
9986.000000;0.139520
9985.000000;0.139026
9984.000000;0.138427
9983.000000;0.137769
9982.000000;0.137135
9981.000000;0.136586
9980.000000;0.136113
9979.000000;0.135655
9978.000000;0.135154
9977.000000;0.134597
9976.000000;0.134022
9975.000000;0.133491
9974.000000;0.133066
9973.000000;0.132760
9972.000000;0.132491
9971.000000;0.132119
9970.000000;0.131570
9969.000000;0.130915
9968.000000;0.130301
9967.000000;0.129820
9966.000000;0.129478
9965.000000;0.129252
9964.000000;0.129086
9963.000000;0.128851
9962.000000;0.128408
9961.000000;0.127759
9960.000000;0.127059
9959.000000;0.126446
9958.000000;0.125902
9957.000000;0.125353
9956.000000;0.124810
9955.000000;0.124340
9954.000000;0.123936
9953.000000;0.123516
9952.000000;0.123047
9951.000000;0.122587
9950.000000;0.122192
9949.000000;0.121837
9948.000000;0.121470
9947.000000;0.121062
9946.000000;0.120604
9945.000000;0.120084
9944.000000;0.119514
9943.000000;0.118949
9942.000000;0.118442
9941.000000;0.117984
9940.000000;0.117513
9939.000000;0.116985
9938.000000;0.116407
9937.000000;0.115829
9936.000000;0.115290
9935.000000;0.114784
9934.000000;0.114273
9933.000000;0.113741
9932.000000;0.113215
9931.000000;0.112718
9930.000000;0.112243
9929.000000;0.111796
9928.000000;0.111436
9927.000000;0.111211
9926.000000;0.111046
9925.000000;0.110786
9924.000000;0.110342
9923.000000;0.109766
9922.000000;0.109150
9921.000000;0.108529
9920.000000;0.107909
9919.000000;0.107351
9918.000000;0.106931
9917.000000;0.106630
9916.000000;0.106315
9915.000000;0.105865
9914.000000;0.105295
9913.000000;0.104737
9912.000000;0.104293
9911.000000;0.103931
9910.000000;0.103550
9909.000000;0.103115
9908.000000;0.102686
9907.000000;0.102283
9906.000000;0.101807
9905.000000;0.101170
9904.000000;0.100447
9903.000000;0.099810
9902.000000;0.099316
9901.000000;0.098864
9900.000000;0.098372
9899.000000;0.097899
9898.000000;0.097518
9897.000000;0.097178
9896.000000;0.096751
9895.000000;0.096194
9894.000000;0.095589
9893.000000;0.095048
9892.000000;0.094611
9891.000000;0.094240
9890.000000;0.093854
9889.000000;0.093390
9888.000000;0.092875
9887.000000;0.092391
9886.000000;0.091959
9885.000000;0.091506
9884.000000;0.090986
9883.000000;0.090476
9882.000000;0.090069
9881.000000;0.089734
9880.000000;0.089362
9879.000000;0.088922
9878.000000;0.088473
9877.000000;0.088035
9876.000000;0.087545
9875.000000;0.086984
9874.000000;0.086429
9873.000000;0.085961
9872.000000;0.085563
9871.000000;0.085180
9870.000000;0.084808
9869.000000;0.084477
9868.000000;0.084180
9867.000000;0.083857
9866.000000;0.083444
9865.000000;0.082906
9864.000000;0.082268
9863.000000;0.081627
9862.000000;0.081102
9861.000000;0.080720
9860.000000;0.080394
9859.000000;0.080013
9858.000000;0.079555
9857.000000;0.079073
9856.000000;0.078608
9855.000000;0.078165
9854.000000;0.077745
9853.000000;0.077369
9852.000000;0.077053
9851.000000;0.076778
9850.000000;0.076471
9849.000000;0.076022
9848.000000;0.075359
9847.000000;0.074544
9846.000000;0.073764
9845.000000;0.073174
9844.000000;0.072784
9843.000000;0.072501
9842.000000;0.072255
9841.000000;0.072015
9840.000000;0.071713
9839.000000;0.071251
9838.000000;0.070626
9837.000000;0.069972
9836.000000;0.069431
9835.000000;0.069021
9834.000000;0.068657
9833.000000;0.068282
9832.000000;0.067890
9831.000000;0.067467
9830.000000;0.066975
9829.000000;0.066422
9828.000000;0.065880
9827.000000;0.065400
9826.000000;0.064942
9825.000000;0.064457
9824.000000;0.063981
9823.000000;0.063581
9822.000000;0.063223
9821.000000;0.062770
9820.000000;0.062153
9819.000000;0.061497
9818.000000;0.061013
9817.000000;0.060777
9816.000000;0.060653
9815.000000;0.060419
9814.000000;0.059962
9813.000000;0.059354
9812.000000;0.058772
9811.000000;0.058358
9810.000000;0.058106
9809.000000;0.057884
9808.000000;0.057543
9807.000000;0.057034
9806.000000;0.056410
9805.000000;0.055768
9804.000000;0.055182
9803.000000;0.054674
9802.000000;0.054203
9801.000000;0.053705
9800.000000;0.053172
9799.000000;0.052677
9798.000000;0.052290
9797.000000;0.051972
9796.000000;0.051615
9795.000000;0.051177
9794.000000;0.050731
9793.000000;0.050353
9792.000000;0.050013
9791.000000;0.049621
9790.000000;0.049160
9789.000000;0.048709
9788.000000;0.048324
9787.000000;0.047962
9786.000000;0.047532
9785.000000;0.047014
9784.000000;0.046474
9783.000000;0.045984
9782.000000;0.045550
9781.000000;0.045146
9780.000000;0.044757
9779.000000;0.044369
9778.000000;0.043935
9777.000000;0.043409
9776.000000;0.042826
9775.000000;0.042295
9774.000000;0.041872
9773.000000;0.041487
9772.000000;0.041021
9771.000000;0.040453
9770.000000;0.039883
9769.000000;0.039428
9768.000000;0.039121
9767.000000;0.038919
9766.000000;0.038733
9765.000000;0.038464
9764.000000;0.038050
9763.000000;0.037513
9762.000000;0.036938
9761.000000;0.036392
9760.000000;0.035881
9759.000000;0.035388
9758.000000;0.034915
9757.000000;0.034470
9756.000000;0.034038
9755.000000;0.033603
9754.000000;0.033173
9753.000000;0.032760
9752.000000;0.032347
9751.000000;0.031916
9750.000000;0.031490
9749.000000;0.031113
9748.000000;0.030783
9747.000000;0.030431
9746.000000;0.029975
9745.000000;0.029399
9744.000000;0.028775
9743.000000;0.028217
9742.000000;0.027797
9741.000000;0.027495
9740.000000;0.027224
9739.000000;0.026906
9738.000000;0.026522
9737.000000;0.026095
9736.000000;0.025632
9735.000000;0.025116
9734.000000;0.024545
9733.000000;0.023974
9732.000000;0.023479
9731.000000;0.023084
9730.000000;0.022741
9729.000000;0.022379
9728.000000;0.021970
9727.000000;0.021520
9726.000000;0.021032
9725.000000;0.020515
9724.000000;0.020030
9723.000000;0.019665
9722.000000;0.019429
9721.000000;0.019212
9720.000000;0.018906
9719.000000;0.018517
9718.000000;0.018120
9717.000000;0.017721
9716.000000;0.017232
9715.000000;0.016610
9714.000000;0.015932
9713.000000;0.015335
9712.000000;0.014892
9711.000000;0.014567
9710.000000;0.014259
9709.000000;0.013874
9708.000000;0.013394
9707.000000;0.012895
9706.000000;0.012472
9705.000000;0.012133
9704.000000;0.011804
9703.000000;0.011432
9702.000000;0.011030
9701.000000;0.010623
9700.000000;0.010190
9699.000000;0.009716
9698.000000;0.009243
9697.000000;0.008829
9696.000000;0.008473
9695.000000;0.008128
9694.000000;0.007764
9693.000000;0.007380
9692.000000;0.006985
9691.000000;0.006595
9690.000000;0.006239
9689.000000;0.005934
9688.000000;0.005665
9687.000000;0.005399
9686.000000;0.005108
9685.000000;0.004770
9684.000000;0.004365
9683.000000;0.003908
9682.000000;0.003444
9681.000000;0.003000
9680.000000;0.002568
9679.000000;0.002146
9678.000000;0.001757
9677.000000;0.001393
9676.000000;0.000985
9675.000000;0.000483
9674.000000;-0.000058
9673.000000;-0.000542
9672.000000;-0.000953
9671.000000;-0.001354
9670.000000;-0.001783
9669.000000;-0.002201
9668.000000;-0.002562
9667.000000;-0.002878
9666.000000;-0.003207
9665.000000;-0.003603
9664.000000;-0.004069
9663.000000;-0.004552
9662.000000;-0.004985
9661.000000;-0.005372
9660.000000;-0.005789
9659.000000;-0.006281
9658.000000;-0.006790
9657.000000;-0.007245
9656.000000;-0.007677
9655.000000;-0.008171
9654.000000;-0.008723
9653.000000;-0.009231
9652.000000;-0.009638
9651.000000;-0.009982
9650.000000;-0.010297
9649.000000;-0.010559
9648.000000;-0.010779
9647.000000;-0.011051
9646.000000;-0.011446
9645.000000;-0.011911
9644.000000;-0.012353
9643.000000;-0.012782
9642.000000;-0.013283
9641.000000;-0.013872
9640.000000;-0.014438
9639.000000;-0.014845
9638.000000;-0.015060
9637.000000;-0.015176
9636.000000;-0.015348
9635.000000;-0.015690
9634.000000;-0.016187
9633.000000;-0.016706
9632.000000;-0.017126
9631.000000;-0.017463
9630.000000;-0.017817
9629.000000;-0.018226
9628.000000;-0.018609
9627.000000;-0.018894
9626.000000;-0.019153
9625.000000;-0.019543
9624.000000;-0.020113
9623.000000;-0.020734
9622.000000;-0.021227
9621.000000;-0.021565
9620.000000;-0.021879
9619.000000;-0.022287
9618.000000;-0.022760
9617.000000;-0.023188
9616.000000;-0.023527
9615.000000;-0.023830
9614.000000;-0.024151
9613.000000;-0.024477
9612.000000;-0.024770
9611.000000;-0.025047
9610.000000;-0.025371
9609.000000;-0.025789
9608.000000;-0.026283
9607.000000;-0.026776
9606.000000;-0.027190
9605.000000;-0.027526
9604.000000;-0.027877
9603.000000;-0.028340
9602.000000;-0.028898
9601.000000;-0.029433
9600.000000;-0.029846
9599.000000;-0.030158
9598.000000;-0.030464
9597.000000;-0.030837
9596.000000;-0.031273
9595.000000;-0.031705
9594.000000;-0.032060
9593.000000;-0.032333
9592.000000;-0.032630
9591.000000;-0.033072
9590.000000;-0.033643
9589.000000;-0.034177
9588.000000;-0.034519
9587.000000;-0.034679
9586.000000;-0.034799
9585.000000;-0.035004
9584.000000;-0.035327
9583.000000;-0.035733
9582.000000;-0.036164
9581.000000;-0.036580
9580.000000;-0.037004
9579.000000;-0.037495
9578.000000;-0.038053
9577.000000;-0.038560
9576.000000;-0.038899
9575.000000;-0.039108
9574.000000;-0.039346
9573.000000;-0.039712
9572.000000;-0.040156
9571.000000;-0.040596
9570.000000;-0.041043
9569.000000;-0.041561
9568.000000;-0.042149
9567.000000;-0.042719
9566.000000;-0.043187
9565.000000;-0.043542
9564.000000;-0.043834
9563.000000;-0.044114
9562.000000;-0.044414
9561.000000;-0.044738
9560.000000;-0.045058
9559.000000;-0.045318
9558.000000;-0.045482
9557.000000;-0.045595
9556.000000;-0.045774
9555.000000;-0.046112
9554.000000;-0.046583
9553.000000;-0.047065
9552.000000;-0.047459
9551.000000;-0.047786
9550.000000;-0.048134
9549.000000;-0.048567
9548.000000;-0.049069
9547.000000;-0.049565
9546.000000;-0.049982
9545.000000;-0.050312
9544.000000;-0.050635
9543.000000;-0.051040
9542.000000;-0.051524
9541.000000;-0.051990
9540.000000;-0.052352
9539.000000;-0.052625
9538.000000;-0.052873
9537.000000;-0.053137
9536.000000;-0.053434
9535.000000;-0.053790
9534.000000;-0.054199
9533.000000;-0.054589
9532.000000;-0.054900
9531.000000;-0.055180
9530.000000;-0.055524
9529.000000;-0.055939
9528.000000;-0.056332
9527.000000;-0.056654
9526.000000;-0.056970
9525.000000;-0.057373
9524.000000;-0.057862
9523.000000;-0.058347
9522.000000;-0.058733
9521.000000;-0.058994
9520.000000;-0.059172
9519.000000;-0.059346
9518.000000;-0.059556
9517.000000;-0.059791
9516.000000;-0.060053
9515.000000;-0.060423
9514.000000;-0.060963
9513.000000;-0.061575
9512.000000;-0.062061
9511.000000;-0.062351
9510.000000;-0.062582
9509.000000;-0.062915
9508.000000;-0.063339
9507.000000;-0.063742
9506.000000;-0.064096
9505.000000;-0.064467
9504.000000;-0.064889
9503.000000;-0.065312
9502.000000;-0.065691
9501.000000;-0.066035
9500.000000;-0.066365
9499.000000;-0.066676
9498.000000;-0.066975
9497.000000;-0.067293
9496.000000;-0.067655
9495.000000;-0.068039
9494.000000;-0.068401
9493.000000;-0.068705
9492.000000;-0.068949
9491.000000;-0.069187
9490.000000;-0.069499
9489.000000;-0.069915
9488.000000;-0.070366
9487.000000;-0.070766
9486.000000;-0.071109
9485.000000;-0.071464
9484.000000;-0.071868
9483.000000;-0.072291
9482.000000;-0.072696
9481.000000;-0.073088
9480.000000;-0.073466
9479.000000;-0.073792
9478.000000;-0.074038
9477.000000;-0.074225
9476.000000;-0.074400
9475.000000;-0.074592
9474.000000;-0.074822
9473.000000;-0.075136
9472.000000;-0.075561
9471.000000;-0.076056
9470.000000;-0.076525
9469.000000;-0.076904
9468.000000;-0.077211
9467.000000;-0.077520
9466.000000;-0.077874
9465.000000;-0.078249
9464.000000;-0.078581
9463.000000;-0.078847
9462.000000;-0.079096
9461.000000;-0.079410
9460.000000;-0.079815
9459.000000;-0.080250
9458.000000;-0.080621
9457.000000;-0.080882
9456.000000;-0.081060
9455.000000;-0.081231
9454.000000;-0.081464
9453.000000;-0.081773
9452.000000;-0.082127
9451.000000;-0.082495
9450.000000;-0.082862
9449.000000;-0.083209
9448.000000;-0.083501
9447.000000;-0.083753
9446.000000;-0.084055
9445.000000;-0.084489
9444.000000;-0.085000
9443.000000;-0.085418
9442.000000;-0.085629
9441.000000;-0.085705
9440.000000;-0.085836
9439.000000;-0.086159
9438.000000;-0.086658
9437.000000;-0.087201
9436.000000;-0.087654
9435.000000;-0.087965
9434.000000;-0.088196
9433.000000;-0.088460
9432.000000;-0.088816
9431.000000;-0.089223
9430.000000;-0.089602
9429.000000;-0.089919
9428.000000;-0.090202
9427.000000;-0.090494
9426.000000;-0.090804
9425.000000;-0.091114
9424.000000;-0.091404
9423.000000;-0.091676
9422.000000;-0.091953
9421.000000;-0.092249
9420.000000;-0.092554
9419.000000;-0.092856
9418.000000;-0.093176
9417.000000;-0.093542
9416.000000;-0.093931
9415.000000;-0.094272
9414.000000;-0.094530
9413.000000;-0.094752
9412.000000;-0.095009
9411.000000;-0.095316
9410.000000;-0.095660
9409.000000;-0.096059
9408.000000;-0.096533
9407.000000;-0.097035
9406.000000;-0.097471
9405.000000;-0.097811
9404.000000;-0.098110
9403.000000;-0.098409
9402.000000;-0.098672
9401.000000;-0.098860
9400.000000;-0.099027
9399.000000;-0.099270
9398.000000;-0.099608
9397.000000;-0.099960
9396.000000;-0.100259
9395.000000;-0.100526
9394.000000;-0.100819
9393.000000;-0.101157
9392.000000;-0.101504
9391.000000;-0.101834
9390.000000;-0.102147
9389.000000;-0.102442
9388.000000;-0.102701
9387.000000;-0.102916
9386.000000;-0.103113
9385.000000;-0.103347
9384.000000;-0.103654
9383.000000;-0.104034
9382.000000;-0.104440
9381.000000;-0.104793
9380.000000;-0.105037
9379.000000;-0.105204
9378.000000;-0.105412
9377.000000;-0.105773
9376.000000;-0.106270
9375.000000;-0.106754
9374.000000;-0.107082
9373.000000;-0.107250
9372.000000;-0.107391
9371.000000;-0.107639
9370.000000;-0.108012
9369.000000;-0.108403
9368.000000;-0.108684
9367.000000;-0.108820
9366.000000;-0.108896
9365.000000;-0.109045
9364.000000;-0.109339
9363.000000;-0.109744
9362.000000;-0.110169
9361.000000;-0.110557
9360.000000;-0.110918
9359.000000;-0.111291
9358.000000;-0.111683
9357.000000;-0.112052
9356.000000;-0.112344
9355.000000;-0.112550
9354.000000;-0.112715
9353.000000;-0.112893
9352.000000;-0.113112
9351.000000;-0.113370
9350.000000;-0.113664
9349.000000;-0.113991
9348.000000;-0.114337
9347.000000;-0.114664
9346.000000;-0.114936
9345.000000;-0.115141
9344.000000;-0.115296
9343.000000;-0.115452
9342.000000;-0.115683
9341.000000;-0.116046
9340.000000;-0.116520
9339.000000;-0.116993
9338.000000;-0.117342
9337.000000;-0.117538
9336.000000;-0.117676
9335.000000;-0.117874
9334.000000;-0.118160
9333.000000;-0.118461
9332.000000;-0.118690
9331.000000;-0.118850
9330.000000;-0.119019
9329.000000;-0.119276
9328.000000;-0.119639
9327.000000;-0.120073
9326.000000;-0.120527
9325.000000;-0.120942
9324.000000;-0.121263
9323.000000;-0.121479
9322.000000;-0.121640
9321.000000;-0.121826
9320.000000;-0.122073
9319.000000;-0.122356
9318.000000;-0.122634
9317.000000;-0.122887
9316.000000;-0.123107
9315.000000;-0.123294
9314.000000;-0.123479
9313.000000;-0.123726
9312.000000;-0.124085
9311.000000;-0.124537
9310.000000;-0.124999
9309.000000;-0.125382
9308.000000;-0.125635
9307.000000;-0.125756
9306.000000;-0.125807
9305.000000;-0.125907
9304.000000;-0.126158
9303.000000;-0.126561
9302.000000;-0.126997
9301.000000;-0.127330
9300.000000;-0.127528
9299.000000;-0.127668
9298.000000;-0.127845
9297.000000;-0.128078
9296.000000;-0.128320
9295.000000;-0.128545
9294.000000;-0.128788
9293.000000;-0.129097
9292.000000;-0.129456
9291.000000;-0.129786
9290.000000;-0.130031
9289.000000;-0.130223
9288.000000;-0.130444
9287.000000;-0.130748
9286.000000;-0.131118
9285.000000;-0.131505
9284.000000;-0.131874
9283.000000;-0.132205
9282.000000;-0.132478
9281.000000;-0.132679
9280.000000;-0.132837
9279.000000;-0.133008
9278.000000;-0.133239
9277.000000;-0.133524
9276.000000;-0.133826
9275.000000;-0.134113
9274.000000;-0.134374
9273.000000;-0.134601
9272.000000;-0.134788
9271.000000;-0.134940
9270.000000;-0.135085
9269.000000;-0.135255
9268.000000;-0.135478
9267.000000;-0.135760
9266.000000;-0.136073
9265.000000;-0.136364
9264.000000;-0.136594
9263.000000;-0.136787
9262.000000;-0.137015
9261.000000;-0.137316
9260.000000;-0.137648
9259.000000;-0.137931
9258.000000;-0.138147
9257.000000;-0.138341
9256.000000;-0.138560
9255.000000;-0.138800
9254.000000;-0.139033
9253.000000;-0.139244
9252.000000;-0.139438
9251.000000;-0.139632
9250.000000;-0.139854
9249.000000;-0.140137
9248.000000;-0.140488
9247.000000;-0.140868
9246.000000;-0.141216
9245.000000;-0.141508
9244.000000;-0.141774
9243.000000;-0.142051
9242.000000;-0.142332
9241.000000;-0.142566
9240.000000;-0.142718
9239.000000;-0.142813
9238.000000;-0.142927
9237.000000;-0.143113
9236.000000;-0.143361
9235.000000;-0.143625
9234.000000;-0.143886
9233.000000;-0.144174
9232.000000;-0.144523
9231.000000;-0.144911
9230.000000;-0.145258
9229.000000;-0.145495
9228.000000;-0.145649
9227.000000;-0.145822
9226.000000;-0.146089
9225.000000;-0.146403
9224.000000;-0.146651
9223.000000;-0.146796
9222.000000;-0.146918
9221.000000;-0.147106
9220.000000;-0.147349
9219.000000;-0.147586
9218.000000;-0.147811
9217.000000;-0.148067
9216.000000;-0.148347
9215.000000;-0.148581
9214.000000;-0.148736
9213.000000;-0.148883
9212.000000;-0.149121
9211.000000;-0.149468
9210.000000;-0.149846
9209.000000;-0.150154
9208.000000;-0.150341
9207.000000;-0.150433
9206.000000;-0.150505
9205.000000;-0.150629
9204.000000;-0.150838
9203.000000;-0.151118
9202.000000;-0.151435
9201.000000;-0.151740
9200.000000;-0.151972
9199.000000;-0.152105
9198.000000;-0.152194
9197.000000;-0.152337
9196.000000;-0.152584
9195.000000;-0.152892
9194.000000;-0.153190
9193.000000;-0.153436
9192.000000;-0.153611
9191.000000;-0.153723
9190.000000;-0.153834
9189.000000;-0.154031
9188.000000;-0.154329
9187.000000;-0.154642
9186.000000;-0.154874
9185.000000;-0.155030
9184.000000;-0.155188
9183.000000;-0.155405
9182.000000;-0.155683
9181.000000;-0.155999
9180.000000;-0.156316
9179.000000;-0.156581
9178.000000;-0.156772
9177.000000;-0.156942
9176.000000;-0.157165
9175.000000;-0.157457
9174.000000;-0.157766
9173.000000;-0.158024
9172.000000;-0.158190
9171.000000;-0.158258
9170.000000;-0.158290
9169.000000;-0.158406
9168.000000;-0.158681
9167.000000;-0.159043
9166.000000;-0.159335
9165.000000;-0.159489
9164.000000;-0.159583
9163.000000;-0.159730
9162.000000;-0.159965
9161.000000;-0.160258
9160.000000;-0.160571
9159.000000;-0.160869
9158.000000;-0.161108
9157.000000;-0.161272
9156.000000;-0.161404
9155.000000;-0.161546
9154.000000;-0.161690
9153.000000;-0.161804
9152.000000;-0.161905
9151.000000;-0.162050
9150.000000;-0.162277
9149.000000;-0.162570
9148.000000;-0.162884
9147.000000;-0.163182
9146.000000;-0.163439
9145.000000;-0.163653
9144.000000;-0.163833
9143.000000;-0.163994
9142.000000;-0.164145
9141.000000;-0.164305
9140.000000;-0.164509
9139.000000;-0.164768
9138.000000;-0.165044
9137.000000;-0.165281
9136.000000;-0.165465
9135.000000;-0.165635
9134.000000;-0.165837
9133.000000;-0.166076
9132.000000;-0.166321
9131.000000;-0.166531
9130.000000;-0.166680
9129.000000;-0.166778
9128.000000;-0.166870
9127.000000;-0.167007
9126.000000;-0.167197
9125.000000;-0.167402
9124.000000;-0.167586
9123.000000;-0.167757
9122.000000;-0.167952
9121.000000;-0.168190
9120.000000;-0.168454
9119.000000;-0.168720
9118.000000;-0.168975
9117.000000;-0.169205
9116.000000;-0.169386
9115.000000;-0.169502
9114.000000;-0.169575
9113.000000;-0.169661
9112.000000;-0.169791
9111.000000;-0.169948
9110.000000;-0.170086
9109.000000;-0.170207
9108.000000;-0.170369
9107.000000;-0.170636
9106.000000;-0.171002
9105.000000;-0.171390
9104.000000;-0.171704
9103.000000;-0.171896
9102.000000;-0.171989
9101.000000;-0.172060
9100.000000;-0.172187
9099.000000;-0.172403
9098.000000;-0.172677
9097.000000;-0.172942
9096.000000;-0.173143
9095.000000;-0.173284
9094.000000;-0.173405
9093.000000;-0.173537
9092.000000;-0.173680
9091.000000;-0.173821
9090.000000;-0.173960
9089.000000;-0.174105
9088.000000;-0.174261
9087.000000;-0.174428
9086.000000;-0.174614
9085.000000;-0.174825
9084.000000;-0.175041
9083.000000;-0.175233
9082.000000;-0.175410
9081.000000;-0.175616
