Criado como novo conjunto de dados;"e2410_daniel_v2.spp","87306.9 Secs"
cm-1;Abs
10000.000000;0.093641
9999.000000;0.093777
9998.000000;0.094126
9997.000000;0.094483
9996.000000;0.094586
9995.000000;0.094367
9994.000000;0.094049
9993.000000;0.093917
9992.000000;0.094042
9991.000000;0.094250
9990.000000;0.094320
9989.000000;0.094182
9988.000000;0.093926
9987.000000;0.093706
9986.000000;0.093626
9985.000000;0.093691
9984.000000;0.093820
9983.000000;0.093927
9982.000000;0.093976
9981.000000;0.093989
9980.000000;0.094017
9979.000000;0.094105
9978.000000;0.094241
9977.000000;0.094304
9976.000000;0.094116
9975.000000;0.093618
9974.000000;0.093006
9973.000000;0.092630
9972.000000;0.092721
9971.000000;0.093186
9970.000000;0.093671
9969.000000;0.093822
9968.000000;0.093535
9967.000000;0.093024
9966.000000;0.092655
9965.000000;0.092663
9964.000000;0.092980
9963.000000;0.093310
9962.000000;0.093392
9961.000000;0.093189
9960.000000;0.092850
9959.000000;0.092513
9958.000000;0.092217
9957.000000;0.091988
9956.000000;0.091927
9955.000000;0.092113
9954.000000;0.092448
9953.000000;0.092693
9952.000000;0.092716
9951.000000;0.092629
9950.000000;0.092609
9949.000000;0.092672
9948.000000;0.092692
9947.000000;0.092616
9946.000000;0.092519
9945.000000;0.092456
9944.000000;0.092395
9943.000000;0.092339
9942.000000;0.092404
9941.000000;0.092662
9940.000000;0.092990
9939.000000;0.093174
9938.000000;0.093130
9937.000000;0.092945
9936.000000;0.092729
9935.000000;0.092523
9934.000000;0.092344
9933.000000;0.092199
9932.000000;0.092046
9931.000000;0.091808
9930.000000;0.091481
9929.000000;0.091173
9928.000000;0.091008
9927.000000;0.091027
9926.000000;0.091201
9925.000000;0.091488
9924.000000;0.091818
9923.000000;0.092081
9922.000000;0.092176
9921.000000;0.092099
9920.000000;0.091944
9919.000000;0.091833
9918.000000;0.091840
9917.000000;0.091946
9916.000000;0.092040
9915.000000;0.091981
9914.000000;0.091706
9913.000000;0.091308
9912.000000;0.090986
9911.000000;0.090909
9910.000000;0.091090
9909.000000;0.091370
9908.000000;0.091533
9907.000000;0.091452
9906.000000;0.091177
9905.000000;0.090879
9904.000000;0.090685
9903.000000;0.090577
9902.000000;0.090463
9901.000000;0.090337
9900.000000;0.090321
9899.000000;0.090526
9898.000000;0.090915
9897.000000;0.091328
9896.000000;0.091617
9895.000000;0.091723
9894.000000;0.091634
9893.000000;0.091362
9892.000000;0.090985
9891.000000;0.090661
9890.000000;0.090527
9889.000000;0.090554
9888.000000;0.090577
9887.000000;0.090486
9886.000000;0.090357
9885.000000;0.090365
9884.000000;0.090591
9883.000000;0.090924
9882.000000;0.091178
9881.000000;0.091247
9880.000000;0.091163
9879.000000;0.091028
9878.000000;0.090918
9877.000000;0.090832
9876.000000;0.090718
9875.000000;0.090543
9874.000000;0.090344
9873.000000;0.090202
9872.000000;0.090162
9871.000000;0.090197
9870.000000;0.090262
9869.000000;0.090339
9868.000000;0.090399
9867.000000;0.090365
9866.000000;0.090183
9865.000000;0.089932
9864.000000;0.089793
9863.000000;0.089864
9862.000000;0.090045
9861.000000;0.090149
9860.000000;0.090098
9859.000000;0.089964
9858.000000;0.089870
9857.000000;0.089883
9856.000000;0.089998
9855.000000;0.090149
9854.000000;0.090238
9853.000000;0.090197
9852.000000;0.090053
9851.000000;0.089892
9850.000000;0.089780
9849.000000;0.089729
9848.000000;0.089740
9847.000000;0.089805
9846.000000;0.089861
9845.000000;0.089820
9844.000000;0.089692
9843.000000;0.089633
9842.000000;0.089803
9841.000000;0.090178
9840.000000;0.090551
9839.000000;0.090700
9838.000000;0.090560
9837.000000;0.090221
9836.000000;0.089823
9835.000000;0.089455
9834.000000;0.089136
9833.000000;0.088869
9832.000000;0.088703
9831.000000;0.088735
9830.000000;0.089016
9829.000000;0.089467
9828.000000;0.089883
9827.000000;0.090056
9826.000000;0.089904
9825.000000;0.089515
9824.000000;0.089073
9823.000000;0.088727
9822.000000;0.088514
9821.000000;0.088405
9820.000000;0.088392
9819.000000;0.088510
9818.000000;0.088753
9817.000000;0.089000
9816.000000;0.089097
9815.000000;0.089021
9814.000000;0.088939
9813.000000;0.089046
9812.000000;0.089334
9811.000000;0.089575
9810.000000;0.089560
9809.000000;0.089340
9808.000000;0.089149
9807.000000;0.089126
9806.000000;0.089187
9805.000000;0.089193
9804.000000;0.089136
9803.000000;0.089083
9802.000000;0.089038
9801.000000;0.088948
9800.000000;0.088837
9799.000000;0.088795
9798.000000;0.088849
9797.000000;0.088924
9796.000000;0.088955
9795.000000;0.088962
9794.000000;0.088988
9793.000000;0.089028
9792.000000;0.089035
9791.000000;0.088960
9790.000000;0.088763
9789.000000;0.088468
9788.000000;0.088209
9787.000000;0.088132
9786.000000;0.088225
9785.000000;0.088328
9784.000000;0.088342
9783.000000;0.088342
9782.000000;0.088425
9781.000000;0.088538
9780.000000;0.088553
9779.000000;0.088458
9778.000000;0.088363
9777.000000;0.088332
9776.000000;0.088301
9775.000000;0.088183
9774.000000;0.088021
9773.000000;0.087976
9772.000000;0.088174
9771.000000;0.088540
9770.000000;0.088809
9769.000000;0.088743
9768.000000;0.088369
9767.000000;0.087960
9766.000000;0.087783
9765.000000;0.087894
9764.000000;0.088170
9763.000000;0.088432
9762.000000;0.088528
9761.000000;0.088392
9760.000000;0.088127
9759.000000;0.087954
9758.000000;0.087991
9757.000000;0.088111
9756.000000;0.088067
9755.000000;0.087777
9754.000000;0.087403
9753.000000;0.087187
9752.000000;0.087258
9751.000000;0.087556
9750.000000;0.087875
9749.000000;0.087982
9748.000000;0.087777
9747.000000;0.087367
9746.000000;0.086975
9745.000000;0.086801
9744.000000;0.086936
9743.000000;0.087325
9742.000000;0.087767
9741.000000;0.088012
9740.000000;0.087957
9739.000000;0.087723
9738.000000;0.087508
9737.000000;0.087398
9736.000000;0.087348
9735.000000;0.087299
9734.000000;0.087223
9733.000000;0.087127
9732.000000;0.087072
9731.000000;0.087148
9730.000000;0.087354
9729.000000;0.087552
9728.000000;0.087623
9727.000000;0.087613
9726.000000;0.087629
9725.000000;0.087651
9724.000000;0.087572
9723.000000;0.087398
9722.000000;0.087267
9721.000000;0.087283
9720.000000;0.087426
9719.000000;0.087616
9718.000000;0.087743
9717.000000;0.087659
9716.000000;0.087286
9715.000000;0.086778
9714.000000;0.086437
9713.000000;0.086407
9712.000000;0.086546
9711.000000;0.086648
9710.000000;0.086687
9709.000000;0.086763
9708.000000;0.086906
9707.000000;0.087028
9706.000000;0.087043
9705.000000;0.086974
9704.000000;0.086927
9703.000000;0.086986
9702.000000;0.087117
9701.000000;0.087188
9700.000000;0.087096
9699.000000;0.086883
9698.000000;0.086660
9697.000000;0.086475
9696.000000;0.086328
9695.000000;0.086304
9694.000000;0.086522
9693.000000;0.086905
9692.000000;0.087154
9691.000000;0.087044
9690.000000;0.086696
9689.000000;0.086472
9688.000000;0.086604
9687.000000;0.087006
9686.000000;0.087395
9685.000000;0.087550
9684.000000;0.087451
9683.000000;0.087236
9682.000000;0.087040
9681.000000;0.086881
9680.000000;0.086722
9679.000000;0.086576
9678.000000;0.086500
9677.000000;0.086483
9676.000000;0.086460
9675.000000;0.086428
9674.000000;0.086461
9673.000000;0.086544
9672.000000;0.086515
9671.000000;0.086256
9670.000000;0.085886
9669.000000;0.085682
9668.000000;0.085821
9667.000000;0.086234
9666.000000;0.086661
9665.000000;0.086825
9664.000000;0.086636
9663.000000;0.086273
9662.000000;0.086031
9661.000000;0.086035
9660.000000;0.086162
9659.000000;0.086231
9658.000000;0.086203
9657.000000;0.086139
9656.000000;0.086078
9655.000000;0.086050
9654.000000;0.086120
9653.000000;0.086288
9652.000000;0.086434
9651.000000;0.086481
9650.000000;0.086548
9649.000000;0.086803
9648.000000;0.087161
9647.000000;0.087311
9646.000000;0.087080
9645.000000;0.086650
9644.000000;0.086336
9643.000000;0.086262
9642.000000;0.086318
9641.000000;0.086363
9640.000000;0.086349
9639.000000;0.086285
9638.000000;0.086180
9637.000000;0.086045
9636.000000;0.085917
9635.000000;0.085839
9634.000000;0.085821
9633.000000;0.085840
9632.000000;0.085870
9631.000000;0.085909
9630.000000;0.085943
9629.000000;0.085914
9628.000000;0.085772
9627.000000;0.085565
9626.000000;0.085422
9625.000000;0.085409
9624.000000;0.085478
9623.000000;0.085591
9622.000000;0.085830
9621.000000;0.086256
9620.000000;0.086711
9619.000000;0.086917
9618.000000;0.086789
9617.000000;0.086530
9616.000000;0.086356
9615.000000;0.086259
9614.000000;0.086127
9613.000000;0.085971
9612.000000;0.085897
9611.000000;0.085901
9610.000000;0.085860
9609.000000;0.085735
9608.000000;0.085639
9607.000000;0.085688
9606.000000;0.085851
9605.000000;0.086005
9604.000000;0.086047
9603.000000;0.085928
9602.000000;0.085681
9601.000000;0.085474
9600.000000;0.085549
9599.000000;0.085983
9598.000000;0.086552
9597.000000;0.086932
9596.000000;0.087016
9595.000000;0.086947
9594.000000;0.086874
9593.000000;0.086789
9592.000000;0.086621
9591.000000;0.086369
9590.000000;0.086091
9589.000000;0.085874
9588.000000;0.085829
9587.000000;0.086018
9586.000000;0.086302
9585.000000;0.086390
9584.000000;0.086141
9583.000000;0.085763
9582.000000;0.085579
9581.000000;0.085675
9580.000000;0.085875
9579.000000;0.086038
9578.000000;0.086189
9577.000000;0.086362
9576.000000;0.086478
9575.000000;0.086449
9574.000000;0.086310
9573.000000;0.086147
9572.000000;0.085996
9571.000000;0.085874
9570.000000;0.085846
9569.000000;0.085944
9568.000000;0.086063
9567.000000;0.086032
9566.000000;0.085806
9565.000000;0.085528
9564.000000;0.085387
9563.000000;0.085461
9562.000000;0.085685
9561.000000;0.085934
9560.000000;0.086113
9559.000000;0.086207
9558.000000;0.086251
9557.000000;0.086270
9556.000000;0.086238
9555.000000;0.086129
9554.000000;0.085982
9553.000000;0.085887
9552.000000;0.085923
9551.000000;0.086107
9550.000000;0.086378
9549.000000;0.086620
9548.000000;0.086733
9547.000000;0.086708
9546.000000;0.086625
9545.000000;0.086560
9544.000000;0.086503
9543.000000;0.086396
9542.000000;0.086232
9541.000000;0.086079
9540.000000;0.086039
9539.000000;0.086178
9538.000000;0.086482
9537.000000;0.086808
9536.000000;0.086936
9535.000000;0.086746
9534.000000;0.086369
9533.000000;0.086097
9532.000000;0.086094
9531.000000;0.086240
9530.000000;0.086306
9529.000000;0.086244
9528.000000;0.086218
9527.000000;0.086338
9526.000000;0.086460
9525.000000;0.086345
9524.000000;0.085982
9523.000000;0.085646
9522.000000;0.085598
9521.000000;0.085802
9520.000000;0.085986
9519.000000;0.085951
9518.000000;0.085760
9517.000000;0.085619
9516.000000;0.085662
9515.000000;0.085862
9514.000000;0.086101
9513.000000;0.086281
9512.000000;0.086362
9511.000000;0.086352
9510.000000;0.086280
9509.000000;0.086200
9508.000000;0.086185
9507.000000;0.086272
9506.000000;0.086399
9505.000000;0.086446
9504.000000;0.086368
9503.000000;0.086265
9502.000000;0.086248
9501.000000;0.086277
9500.000000;0.086204
9499.000000;0.085970
9498.000000;0.085674
9497.000000;0.085440
9496.000000;0.085298
9495.000000;0.085246
9494.000000;0.085318
9493.000000;0.085533
9492.000000;0.085802
9491.000000;0.085994
9490.000000;0.086051
9489.000000;0.085998
9488.000000;0.085865
9487.000000;0.085690
9486.000000;0.085578
9485.000000;0.085646
9484.000000;0.085885
9483.000000;0.086124
9482.000000;0.086189
9481.000000;0.086063
9480.000000;0.085861
9479.000000;0.085683
9478.000000;0.085569
9477.000000;0.085560
9476.000000;0.085721
9475.000000;0.086053
9474.000000;0.086416
9473.000000;0.086610
9472.000000;0.086556
9471.000000;0.086373
9470.000000;0.086246
9469.000000;0.086245
9468.000000;0.086281
9467.000000;0.086261
9466.000000;0.086212
9465.000000;0.086249
9464.000000;0.086420
9463.000000;0.086634
9462.000000;0.086756
9461.000000;0.086742
9460.000000;0.086664
9459.000000;0.086593
9458.000000;0.086498
9457.000000;0.086309
9456.000000;0.086041
9455.000000;0.085834
9454.000000;0.085837
9453.000000;0.086070
9452.000000;0.086418
9451.000000;0.086721
9450.000000;0.086863
9449.000000;0.086824
9448.000000;0.086690
9447.000000;0.086594
9446.000000;0.086592
9445.000000;0.086612
9444.000000;0.086547
9443.000000;0.086401
9442.000000;0.086297
9441.000000;0.086344
9440.000000;0.086546
9439.000000;0.086816
9438.000000;0.087033
9437.000000;0.087099
9436.000000;0.087004
9435.000000;0.086862
9434.000000;0.086807
9433.000000;0.086836
9432.000000;0.086816
9431.000000;0.086679
9430.000000;0.086545
9429.000000;0.086593
9428.000000;0.086843
9427.000000;0.087119
9426.000000;0.087204
9425.000000;0.087005
9424.000000;0.086623
9423.000000;0.086316
9422.000000;0.086353
9421.000000;0.086791
9420.000000;0.087376
9419.000000;0.087709
9418.000000;0.087585
9417.000000;0.087165
9416.000000;0.086808
9415.000000;0.086748
9414.000000;0.086923
9413.000000;0.087081
9412.000000;0.087049
9411.000000;0.086870
9410.000000;0.086715
9409.000000;0.086681
9408.000000;0.086738
9407.000000;0.086816
9406.000000;0.086881
9405.000000;0.086899
9404.000000;0.086820
9403.000000;0.086668
9402.000000;0.086589
9401.000000;0.086714
9400.000000;0.087002
9399.000000;0.087261
9398.000000;0.087356
9397.000000;0.087330
9396.000000;0.087315
9395.000000;0.087381
9394.000000;0.087496
9393.000000;0.087606
9392.000000;0.087699
9391.000000;0.087794
9390.000000;0.087874
9389.000000;0.087872
9388.000000;0.087745
9387.000000;0.087550
9386.000000;0.087399
9385.000000;0.087318
9384.000000;0.087218
9383.000000;0.087044
9382.000000;0.086892
9381.000000;0.086902
9380.000000;0.087083
9379.000000;0.087315
9378.000000;0.087511
9377.000000;0.087666
9376.000000;0.087755
9375.000000;0.087716
9374.000000;0.087567
9373.000000;0.087437
9372.000000;0.087409
9371.000000;0.087410
9370.000000;0.087341
9369.000000;0.087268
9368.000000;0.087356
9367.000000;0.087651
9366.000000;0.088014
9365.000000;0.088275
9364.000000;0.088376
9363.000000;0.088345
9362.000000;0.088221
9361.000000;0.088050
9360.000000;0.087880
9359.000000;0.087711
9358.000000;0.087496
9357.000000;0.087232
9356.000000;0.087043
9355.000000;0.087084
9354.000000;0.087352
9353.000000;0.087651
9352.000000;0.087769
9351.000000;0.087679
9350.000000;0.087525
9349.000000;0.087447
9348.000000;0.087461
9347.000000;0.087522
9346.000000;0.087634
9345.000000;0.087841
9344.000000;0.088096
9343.000000;0.088234
9342.000000;0.088125
9341.000000;0.087861
9340.000000;0.087696
9339.000000;0.087808
9338.000000;0.088131
9337.000000;0.088458
9336.000000;0.088654
9335.000000;0.088723
9334.000000;0.088699
9333.000000;0.088568
9332.000000;0.088324
9331.000000;0.088048
9330.000000;0.087878
9329.000000;0.087884
9328.000000;0.088014
9327.000000;0.088171
9326.000000;0.088303
9325.000000;0.088430
9324.000000;0.088588
9323.000000;0.088775
9322.000000;0.088960
9321.000000;0.089105
9320.000000;0.089184
9319.000000;0.089194
9318.000000;0.089155
9317.000000;0.089093
9316.000000;0.088992
9315.000000;0.088801
9314.000000;0.088520
9313.000000;0.088263
9312.000000;0.088188
9311.000000;0.088333
9310.000000;0.088554
9309.000000;0.088659
9308.000000;0.088587
9307.000000;0.088428
9306.000000;0.088278
9305.000000;0.088148
9304.000000;0.088002
9303.000000;0.087849
9302.000000;0.087748
9301.000000;0.087750
9300.000000;0.087852
9299.000000;0.088011
9298.000000;0.088196
9297.000000;0.088409
9296.000000;0.088667
9295.000000;0.088953
9294.000000;0.089205
9293.000000;0.089376
9292.000000;0.089479
9291.000000;0.089547
9290.000000;0.089544
9289.000000;0.089411
9288.000000;0.089181
9287.000000;0.089010
9286.000000;0.089018
9285.000000;0.089150
9284.000000;0.089247
9283.000000;0.089224
9282.000000;0.089128
9281.000000;0.089017
9280.000000;0.088891
9279.000000;0.088752
9278.000000;0.088675
9277.000000;0.088752
9276.000000;0.088998
9275.000000;0.089338
9274.000000;0.089683
9273.000000;0.089962
9272.000000;0.090095
9271.000000;0.089982
9270.000000;0.089585
9269.000000;0.089035
9268.000000;0.088606
9267.000000;0.088540
9266.000000;0.088849
9265.000000;0.089316
9264.000000;0.089698
9263.000000;0.089907
9262.000000;0.089980
9261.000000;0.089939
9260.000000;0.089775
9259.000000;0.089558
9258.000000;0.089439
9257.000000;0.089498
9256.000000;0.089643
9255.000000;0.089734
9254.000000;0.089752
9253.000000;0.089781
9252.000000;0.089848
9251.000000;0.089883
9250.000000;0.089847
9249.000000;0.089791
9248.000000;0.089783
9247.000000;0.089842
9246.000000;0.089969
9245.000000;0.090177
9244.000000;0.090421
9243.000000;0.090583
9242.000000;0.090606
9241.000000;0.090588
9240.000000;0.090659
9239.000000;0.090802
9238.000000;0.090882
9237.000000;0.090856
9236.000000;0.090817
9235.000000;0.090812
9234.000000;0.090746
9233.000000;0.090554
9232.000000;0.090381
9231.000000;0.090450
9230.000000;0.090761
9229.000000;0.091054
9228.000000;0.091074
9227.000000;0.090823
9226.000000;0.090500
9225.000000;0.090281
9224.000000;0.090213
9223.000000;0.090261
9222.000000;0.090389
9221.000000;0.090579
9220.000000;0.090807
9219.000000;0.091027
9218.000000;0.091171
9217.000000;0.091181
9216.000000;0.091072
9215.000000;0.090950
9214.000000;0.090956
9213.000000;0.091174
9212.000000;0.091553
9211.000000;0.091902
9210.000000;0.091993
9209.000000;0.091731
9208.000000;0.091248
9207.000000;0.090811
9206.000000;0.090604
9205.000000;0.090603
9204.000000;0.090675
9203.000000;0.090756
9202.000000;0.090884
9201.000000;0.091087
9200.000000;0.091291
9199.000000;0.091370
9198.000000;0.091270
9197.000000;0.091072
9196.000000;0.090930
9195.000000;0.090943
9194.000000;0.091066
9193.000000;0.091145
9192.000000;0.091072
9191.000000;0.090908
9190.000000;0.090848
9189.000000;0.091045
9188.000000;0.091453
9187.000000;0.091852
9186.000000;0.092038
9185.000000;0.092006
9184.000000;0.091935
9183.000000;0.091977
9182.000000;0.092082
9181.000000;0.092075
9180.000000;0.091893
9179.000000;0.091694
9178.000000;0.091673
9177.000000;0.091840
9176.000000;0.092024
9175.000000;0.092089
9174.000000;0.092049
9173.000000;0.091990
9172.000000;0.091958
9171.000000;0.091951
9170.000000;0.091976
9169.000000;0.092050
9168.000000;0.092180
9167.000000;0.092371
9166.000000;0.092616
9165.000000;0.092844
9164.000000;0.092921
9163.000000;0.092770
9162.000000;0.092478
9161.000000;0.092245
9160.000000;0.092198
9159.000000;0.092292
9158.000000;0.092386
9157.000000;0.092383
9156.000000;0.092309
9155.000000;0.092289
9154.000000;0.092426
9153.000000;0.092676
9152.000000;0.092852
9151.000000;0.092822
9150.000000;0.092677
9149.000000;0.092637
9148.000000;0.092798
9147.000000;0.093043
9146.000000;0.093232
9145.000000;0.093355
9144.000000;0.093443
9143.000000;0.093438
9142.000000;0.093288
9141.000000;0.093113
9140.000000;0.093115
9139.000000;0.093317
9138.000000;0.093514
9137.000000;0.093532
9136.000000;0.093430
9135.000000;0.093378
9134.000000;0.093427
9133.000000;0.093498
9132.000000;0.093541
9131.000000;0.093610
9130.000000;0.093792
9129.000000;0.094102
9128.000000;0.094460
9127.000000;0.094728
9126.000000;0.094802
9125.000000;0.094681
9124.000000;0.094465
9123.000000;0.094265
9122.000000;0.094133
9121.000000;0.094071
9120.000000;0.094069
9119.000000;0.094109
9118.000000;0.094177
9117.000000;0.094287
9116.000000;0.094453
9115.000000;0.094606
9114.000000;0.094608
9113.000000;0.094398
9112.000000;0.094088
9111.000000;0.093872
9110.000000;0.093856
9109.000000;0.094011
9108.000000;0.094240
9107.000000;0.094434
9106.000000;0.094517
9105.000000;0.094508
9104.000000;0.094519
9103.000000;0.094618
9102.000000;0.094738
9101.000000;0.094787
9100.000000;0.094825
9099.000000;0.095004
9098.000000;0.095329
9097.000000;0.095593
9096.000000;0.095607
9095.000000;0.095417
9094.000000;0.095219
9093.000000;0.095131
9092.000000;0.095110
9091.000000;0.095082
9090.000000;0.095065
9089.000000;0.095123
9088.000000;0.095250
9087.000000;0.095351
9086.000000;0.095355
9085.000000;0.095315
9084.000000;0.095325
9083.000000;0.095365
9082.000000;0.095307
9081.000000;0.095134
9080.000000;0.095043
9079.000000;0.095244
9078.000000;0.095688
9077.000000;0.096106
9076.000000;0.096296
9075.000000;0.096289
9074.000000;0.096225
9073.000000;0.096159
9072.000000;0.096044
9071.000000;0.095839
9070.000000;0.095599
9069.000000;0.095458
9068.000000;0.095518
9067.000000;0.095731
9066.000000;0.095919
9065.000000;0.095965
9064.000000;0.095944
9063.000000;0.096014
9062.000000;0.096197
9061.000000;0.096375
9060.000000;0.096456
9059.000000;0.096435
9058.000000;0.096287
9057.000000;0.095979
9056.000000;0.095612
9055.000000;0.095432
9054.000000;0.095614
9053.000000;0.096090
