Criado como novo conjunto de dados;"e2410_daniel_v2.spp","80466.5 Secs"
cm-1;Abs
10000.000000;1.050017
9999.000000;1.049758
9998.000000;1.049491
9997.000000;1.049244
9996.000000;1.048865
9995.000000;1.048208
9994.000000;1.047541
9993.000000;1.047224
9992.000000;1.047189
9991.000000;1.046989
9990.000000;1.046361
9989.000000;1.045401
9988.000000;1.044246
9987.000000;1.042971
9986.000000;1.041849
9985.000000;1.041269
9984.000000;1.041232
9983.000000;1.041256
9982.000000;1.040988
9981.000000;1.040621
9980.000000;1.040492
9979.000000;1.040552
9978.000000;1.040495
9977.000000;1.040183
9976.000000;1.039713
9975.000000;1.039201
9974.000000;1.038708
9973.000000;1.038243
9972.000000;1.037717
9971.000000;1.036998
9970.000000;1.036121
9969.000000;1.035276
9968.000000;1.034521
9967.000000;1.033741
9966.000000;1.032986
9965.000000;1.032581
9964.000000;1.032711
9963.000000;1.033081
9962.000000;1.033165
9961.000000;1.032647
9960.000000;1.031541
9959.000000;1.030105
9958.000000;1.028741
9957.000000;1.027770
9956.000000;1.027125
9955.000000;1.026447
9954.000000;1.025630
9953.000000;1.025000
9952.000000;1.024801
9951.000000;1.024787
9950.000000;1.024584
9949.000000;1.024213
9948.000000;1.023959
9947.000000;1.023870
9946.000000;1.023713
9945.000000;1.023323
9944.000000;1.022733
9943.000000;1.022027
9942.000000;1.021299
9941.000000;1.020721
9940.000000;1.020419
9939.000000;1.020287
9938.000000;1.020051
9937.000000;1.019526
9936.000000;1.018743
9935.000000;1.017873
9934.000000;1.017094
9933.000000;1.016444
9932.000000;1.015783
9931.000000;1.015000
9930.000000;1.014277
9929.000000;1.013915
9928.000000;1.013852
9927.000000;1.013607
9926.000000;1.012876
9925.000000;1.011974
9924.000000;1.011472
9923.000000;1.011518
9922.000000;1.011695
9921.000000;1.011474
9920.000000;1.010683
9919.000000;1.009623
9918.000000;1.008811
9917.000000;1.008547
9916.000000;1.008666
9915.000000;1.008786
9914.000000;1.008753
9913.000000;1.008661
9912.000000;1.008451
9911.000000;1.007827
9910.000000;1.006693
9909.000000;1.005380
9908.000000;1.004255
9907.000000;1.003360
9906.000000;1.002610
9905.000000;1.002084
9904.000000;1.001882
9903.000000;1.001844
9902.000000;1.001698
9901.000000;1.001383
9900.000000;1.001035
9899.000000;1.000707
9898.000000;1.000277
9897.000000;0.999573
9896.000000;0.998489
9895.000000;0.997111
9894.000000;0.995811
9893.000000;0.995042
9892.000000;0.994872
9891.000000;0.994868
9890.000000;0.994561
9889.000000;0.993895
9888.000000;0.993070
9887.000000;0.992175
9886.000000;0.991212
9885.000000;0.990341
9884.000000;0.989831
9883.000000;0.989772
9882.000000;0.989966
9881.000000;0.990081
9880.000000;0.989847
9879.000000;0.989222
9878.000000;0.988446
9877.000000;0.987811
9876.000000;0.987309
9875.000000;0.986678
9874.000000;0.985874
9873.000000;0.985231
9872.000000;0.985021
9871.000000;0.985064
9870.000000;0.985013
9869.000000;0.984822
9868.000000;0.984677
9867.000000;0.984601
9866.000000;0.984400
9865.000000;0.983963
9864.000000;0.983422
9863.000000;0.983024
9862.000000;0.982946
9861.000000;0.983128
9860.000000;0.983179
9859.000000;0.982626
9858.000000;0.981460
9857.000000;0.980264
9856.000000;0.979608
9855.000000;0.979426
9854.000000;0.979191
9853.000000;0.978556
9852.000000;0.977581
9851.000000;0.976450
9850.000000;0.975283
9849.000000;0.974247
9848.000000;0.973553
9847.000000;0.973248
9846.000000;0.973107
9845.000000;0.972792
9844.000000;0.972095
9843.000000;0.971084
9842.000000;0.970124
9841.000000;0.969622
9840.000000;0.969613
9839.000000;0.969623
9838.000000;0.969122
9837.000000;0.968099
9836.000000;0.967070
9835.000000;0.966517
9834.000000;0.966456
9833.000000;0.966519
9832.000000;0.966353
9831.000000;0.965896
9830.000000;0.965333
9829.000000;0.964810
9828.000000;0.964247
9827.000000;0.963468
9826.000000;0.962485
9825.000000;0.961527
9824.000000;0.960784
9823.000000;0.960291
9822.000000;0.960024
9821.000000;0.959907
9820.000000;0.959701
9819.000000;0.959149
9818.000000;0.958343
9817.000000;0.957710
9816.000000;0.957477
9815.000000;0.957376
9814.000000;0.957070
9813.000000;0.956585
9812.000000;0.956085
9811.000000;0.955461
9810.000000;0.954527
9809.000000;0.953493
9808.000000;0.952843
9807.000000;0.952736
9806.000000;0.952853
9805.000000;0.952891
9804.000000;0.952912
9803.000000;0.953076
9802.000000;0.953248
9801.000000;0.953060
9800.000000;0.952296
9799.000000;0.951105
9798.000000;0.949854
9797.000000;0.948838
9796.000000;0.948083
9795.000000;0.947426
9794.000000;0.946767
9793.000000;0.946202
9792.000000;0.945832
9791.000000;0.945528
9790.000000;0.945012
9789.000000;0.944183
9788.000000;0.943252
9787.000000;0.942509
9786.000000;0.942029
9785.000000;0.941644
9784.000000;0.941177
9783.000000;0.940650
9782.000000;0.940245
9781.000000;0.940061
9780.000000;0.939944
9779.000000;0.939596
9778.000000;0.938869
9777.000000;0.937954
9776.000000;0.937236
9775.000000;0.936966
9774.000000;0.937002
9773.000000;0.936877
9772.000000;0.936236
9771.000000;0.935263
9770.000000;0.934540
9769.000000;0.934403
9768.000000;0.934549
9767.000000;0.934432
9766.000000;0.933895
9765.000000;0.933161
9764.000000;0.932354
9763.000000;0.931382
9762.000000;0.930328
9761.000000;0.929566
9760.000000;0.929346
9759.000000;0.929503
9758.000000;0.929699
9757.000000;0.929710
9756.000000;0.929371
9755.000000;0.928566
9754.000000;0.927482
9753.000000;0.926631
9752.000000;0.926337
9751.000000;0.926363
9750.000000;0.926245
9749.000000;0.925850
9748.000000;0.925403
9747.000000;0.925094
9746.000000;0.924915
9745.000000;0.924758
9744.000000;0.924417
9743.000000;0.923612
9742.000000;0.922318
9741.000000;0.921023
9740.000000;0.920345
9739.000000;0.920357
9738.000000;0.920504
9737.000000;0.920239
9736.000000;0.919545
9735.000000;0.918757
9734.000000;0.918096
9733.000000;0.917528
9732.000000;0.916968
9731.000000;0.916443
9730.000000;0.916055
9729.000000;0.915861
9728.000000;0.915827
9727.000000;0.915828
9726.000000;0.915660
9725.000000;0.915084
9724.000000;0.913964
9723.000000;0.912478
9722.000000;0.911139
9721.000000;0.910421
9720.000000;0.910304
9719.000000;0.910287
9718.000000;0.909913
9717.000000;0.909213
9716.000000;0.908572
9715.000000;0.908253
9714.000000;0.908172
9713.000000;0.908068
9712.000000;0.907778
9711.000000;0.907336
9710.000000;0.906872
9709.000000;0.906455
9708.000000;0.906028
9707.000000;0.905511
9706.000000;0.904936
9705.000000;0.904397
9704.000000;0.903928
9703.000000;0.903540
9702.000000;0.903370
9701.000000;0.903582
9700.000000;0.904069
9699.000000;0.904406
9698.000000;0.904239
9697.000000;0.903590
9696.000000;0.902689
9695.000000;0.901654
9694.000000;0.900499
9693.000000;0.899327
9692.000000;0.898304
9691.000000;0.897472
9690.000000;0.896715
9689.000000;0.895939
9688.000000;0.895187
9687.000000;0.894589
9686.000000;0.894270
9685.000000;0.894263
9684.000000;0.894431
9683.000000;0.894494
9682.000000;0.894265
9681.000000;0.893860
9680.000000;0.893561
9679.000000;0.893447
9678.000000;0.893255
9677.000000;0.892650
9676.000000;0.891581
9675.000000;0.890326
9674.000000;0.889226
9673.000000;0.888412
9672.000000;0.887798
9671.000000;0.887276
9670.000000;0.886858
9669.000000;0.886626
9668.000000;0.886606
9667.000000;0.886692
9666.000000;0.886669
9665.000000;0.886336
9664.000000;0.885681
9663.000000;0.884933
9662.000000;0.884355
9661.000000;0.883948
9660.000000;0.883475
9659.000000;0.882819
9658.000000;0.882176
9657.000000;0.881805
9656.000000;0.881702
9655.000000;0.881641
9654.000000;0.881415
9653.000000;0.880911
9652.000000;0.880103
9651.000000;0.879170
9650.000000;0.878505
9649.000000;0.878347
9648.000000;0.878453
9647.000000;0.878358
9646.000000;0.877957
9645.000000;0.877571
9644.000000;0.877451
9643.000000;0.877489
9642.000000;0.877445
9641.000000;0.877203
9640.000000;0.876746
9639.000000;0.876096
9638.000000;0.875397
9637.000000;0.874820
9636.000000;0.874309
9635.000000;0.873589
9634.000000;0.872551
9633.000000;0.871422
9632.000000;0.870490
9631.000000;0.869854
9630.000000;0.869546
9629.000000;0.869619
9628.000000;0.869924
9627.000000;0.869986
9626.000000;0.869394
9625.000000;0.868254
9624.000000;0.867076
9623.000000;0.866272
9622.000000;0.865896
9621.000000;0.865761
9620.000000;0.865639
9619.000000;0.865358
9618.000000;0.864866
9617.000000;0.864257
9616.000000;0.863690
9615.000000;0.863287
9614.000000;0.863102
9613.000000;0.863075
9612.000000;0.862975
9611.000000;0.862532
9610.000000;0.861753
9609.000000;0.861014
9608.000000;0.860706
9607.000000;0.860817
9606.000000;0.860940
9605.000000;0.860666
9604.000000;0.859897
9603.000000;0.858836
9602.000000;0.857788
9601.000000;0.856982
9600.000000;0.856501
9599.000000;0.856319
9598.000000;0.856346
9597.000000;0.856402
9596.000000;0.856221
9595.000000;0.855587
9594.000000;0.854553
9593.000000;0.853437
9592.000000;0.852593
9591.000000;0.852200
9590.000000;0.852231
9589.000000;0.852487
9588.000000;0.852643
9587.000000;0.852377
9586.000000;0.851596
9585.000000;0.850535
9584.000000;0.849621
9583.000000;0.849188
9582.000000;0.849266
9581.000000;0.849543
9580.000000;0.849563
9579.000000;0.849056
9578.000000;0.848104
9577.000000;0.847003
9576.000000;0.846053
9575.000000;0.845498
9574.000000;0.845462
9573.000000;0.845791
9572.000000;0.846091
9571.000000;0.846094
9570.000000;0.845901
9569.000000;0.845674
9568.000000;0.845262
9567.000000;0.844428
9566.000000;0.843345
9565.000000;0.842484
9564.000000;0.841995
9563.000000;0.841525
9562.000000;0.840764
9561.000000;0.839885
9560.000000;0.839291
9559.000000;0.839154
9558.000000;0.839324
9557.000000;0.839529
9556.000000;0.839503
9555.000000;0.839083
9554.000000;0.838318
9553.000000;0.837408
9552.000000;0.836520
9551.000000;0.835786
9550.000000;0.835432
9549.000000;0.835636
9548.000000;0.836205
9547.000000;0.836640
9546.000000;0.836637
9545.000000;0.836300
9544.000000;0.835767
9543.000000;0.834912
9542.000000;0.833646
9541.000000;0.832261
9540.000000;0.831228
9539.000000;0.830735
9538.000000;0.830609
9537.000000;0.830570
9536.000000;0.830417
9535.000000;0.830064
9534.000000;0.829573
9533.000000;0.829103
9532.000000;0.828718
9531.000000;0.828334
9530.000000;0.827924
9529.000000;0.827624
9528.000000;0.827501
9527.000000;0.827360
9526.000000;0.826939
9525.000000;0.826229
9524.000000;0.825474
9523.000000;0.824903
9522.000000;0.824593
9521.000000;0.824505
9520.000000;0.824520
9519.000000;0.824483
9518.000000;0.824287
9517.000000;0.823914
9516.000000;0.823387
9515.000000;0.822777
9514.000000;0.822232
9513.000000;0.821828
9512.000000;0.821407
9511.000000;0.820734
9510.000000;0.819865
9509.000000;0.819121
9508.000000;0.818658
9507.000000;0.818288
9506.000000;0.817847
9505.000000;0.817425
9504.000000;0.817071
9503.000000;0.816597
9502.000000;0.815926
9501.000000;0.815406
9500.000000;0.815400
9499.000000;0.815722
9498.000000;0.815832
9497.000000;0.815508
9496.000000;0.814995
9495.000000;0.814552
9494.000000;0.814169
9493.000000;0.813745
9492.000000;0.813221
9491.000000;0.812494
9490.000000;0.811499
9489.000000;0.810461
9488.000000;0.809831
9487.000000;0.809814
9486.000000;0.810145
9485.000000;0.810398
9484.000000;0.810347
9483.000000;0.809943
9482.000000;0.809174
9481.000000;0.808149
9480.000000;0.807195
9479.000000;0.806613
9478.000000;0.806353
9477.000000;0.806060
9476.000000;0.805466
9475.000000;0.804629
9474.000000;0.803788
9473.000000;0.803110
9472.000000;0.802615
9471.000000;0.802268
9470.000000;0.802033
9469.000000;0.801884
9468.000000;0.801828
9467.000000;0.801918
9466.000000;0.802150
9465.000000;0.802335
9464.000000;0.802191
9463.000000;0.801621
9462.000000;0.800853
9461.000000;0.800211
9460.000000;0.799796
9459.000000;0.799497
9458.000000;0.799249
9457.000000;0.799108
9456.000000;0.799051
9455.000000;0.798857
9454.000000;0.798312
9453.000000;0.797494
9452.000000;0.796742
9451.000000;0.796375
9450.000000;0.796421
9449.000000;0.796598
9448.000000;0.796508
9447.000000;0.795911
9446.000000;0.794887
9445.000000;0.793755
9444.000000;0.792853
9443.000000;0.792376
9442.000000;0.792325
9441.000000;0.792502
9440.000000;0.792610
9439.000000;0.792477
9438.000000;0.792182
9437.000000;0.791874
9436.000000;0.791530
9435.000000;0.791016
9434.000000;0.790357
9433.000000;0.789769
9432.000000;0.789396
9431.000000;0.789170
9430.000000;0.788952
9429.000000;0.788694
9428.000000;0.788382
9427.000000;0.787990
9426.000000;0.787545
9425.000000;0.787151
9424.000000;0.786868
9423.000000;0.786660
9422.000000;0.786499
9421.000000;0.786387
9420.000000;0.786237
9419.000000;0.785871
9418.000000;0.785239
9417.000000;0.784519
9416.000000;0.783910
9415.000000;0.783421
9414.000000;0.782976
9413.000000;0.782599
9412.000000;0.782361
9411.000000;0.782197
9410.000000;0.781907
9409.000000;0.781362
9408.000000;0.780628
9407.000000;0.779897
9406.000000;0.779360
9405.000000;0.779115
9404.000000;0.779127
9403.000000;0.779252
9402.000000;0.779307
9401.000000;0.779126
9400.000000;0.778599
9399.000000;0.777747
9398.000000;0.776788
9397.000000;0.776022
9396.000000;0.775623
9395.000000;0.775552
9394.000000;0.775662
9393.000000;0.775801
9392.000000;0.775845
9391.000000;0.775746
9390.000000;0.775559
9389.000000;0.775329
9388.000000;0.774965
9387.000000;0.774355
9386.000000;0.773607
9385.000000;0.773018
9384.000000;0.772715
9383.000000;0.772482
9382.000000;0.772022
9381.000000;0.771301
9380.000000;0.770524
9379.000000;0.769863
9378.000000;0.769337
9377.000000;0.768907
9376.000000;0.768590
9375.000000;0.768442
9374.000000;0.768466
9373.000000;0.768534
9372.000000;0.768457
9371.000000;0.768175
9370.000000;0.767868
9369.000000;0.767748
9368.000000;0.767762
9367.000000;0.767600
9366.000000;0.767039
9365.000000;0.766185
9364.000000;0.765328
9363.000000;0.764663
9362.000000;0.764186
9361.000000;0.763773
9360.000000;0.763323
9359.000000;0.762860
9358.000000;0.762520
9357.000000;0.762366
9356.000000;0.762245
9355.000000;0.761949
9354.000000;0.761498
9353.000000;0.761109
9352.000000;0.760888
9351.000000;0.760704
9350.000000;0.760439
9349.000000;0.760198
9348.000000;0.760133
9347.000000;0.760181
9346.000000;0.760098
9345.000000;0.759724
9344.000000;0.759143
9343.000000;0.758587
9342.000000;0.758228
9341.000000;0.758017
9340.000000;0.757727
9339.000000;0.757191
9338.000000;0.756507
9337.000000;0.755928
9336.000000;0.755581
9335.000000;0.755395
9334.000000;0.755261
9333.000000;0.755116
9332.000000;0.754862
9331.000000;0.754359
9330.000000;0.753619
9329.000000;0.752872
9328.000000;0.752400
9327.000000;0.752317
9326.000000;0.752525
9325.000000;0.752773
9324.000000;0.752757
9323.000000;0.752333
9322.000000;0.751679
9321.000000;0.751146
9320.000000;0.750894
9319.000000;0.750766
9318.000000;0.750519
9317.000000;0.750069
9316.000000;0.749485
9315.000000;0.748871
9314.000000;0.748324
9313.000000;0.747885
9312.000000;0.747508
9311.000000;0.747156
9310.000000;0.746917
9309.000000;0.746883
9308.000000;0.746935
9307.000000;0.746815
9306.000000;0.746431
9305.000000;0.745932
9304.000000;0.745464
9303.000000;0.745043
9302.000000;0.744697
9301.000000;0.744523
9300.000000;0.744526
9299.000000;0.744576
9298.000000;0.744576
9297.000000;0.744499
9296.000000;0.744230
9295.000000;0.743612
9294.000000;0.742753
9293.000000;0.742036
9292.000000;0.741664
9291.000000;0.741404
9290.000000;0.740948
9289.000000;0.740337
9288.000000;0.739836
9287.000000;0.739556
9286.000000;0.739408
9285.000000;0.739298
9284.000000;0.739202
9283.000000;0.739106
9282.000000;0.739022
9281.000000;0.738984
9280.000000;0.738911
9279.000000;0.738601
9278.000000;0.737976
9277.000000;0.737239
9276.000000;0.736631
9275.000000;0.736182
9274.000000;0.735818
9273.000000;0.735569
9272.000000;0.735478
9271.000000;0.735434
9270.000000;0.735301
9269.000000;0.735137
9268.000000;0.735093
9267.000000;0.735120
9266.000000;0.734990
9265.000000;0.734554
9264.000000;0.733859
9263.000000;0.733038
9262.000000;0.732263
9261.000000;0.731746
9260.000000;0.731608
9259.000000;0.731740
9258.000000;0.731903
9257.000000;0.731964
9256.000000;0.731939
9255.000000;0.731839
9254.000000;0.731617
9253.000000;0.731230
9252.000000;0.730655
9251.000000;0.729910
9250.000000;0.729151
9249.000000;0.728650
9248.000000;0.728509
9247.000000;0.728465
9246.000000;0.728171
9245.000000;0.727632
9244.000000;0.727186
9243.000000;0.727056
9242.000000;0.727127
9241.000000;0.727163
9240.000000;0.727039
9239.000000;0.726709
9238.000000;0.726171
9237.000000;0.725581
9236.000000;0.725227
9235.000000;0.725228
9234.000000;0.725325
9233.000000;0.725129
9232.000000;0.724575
9231.000000;0.723982
9230.000000;0.723651
9229.000000;0.723529
9228.000000;0.723351
9227.000000;0.723035
9226.000000;0.722801
9225.000000;0.722850
9224.000000;0.723051
9223.000000;0.723059
9222.000000;0.722721
9221.000000;0.722225
9220.000000;0.721815
9219.000000;0.721499
9218.000000;0.721080
9217.000000;0.720422
9216.000000;0.719616
9215.000000;0.718927
9214.000000;0.718605
9213.000000;0.718658
9212.000000;0.718789
9211.000000;0.718619
9210.000000;0.718018
9209.000000;0.717205
9208.000000;0.716507
9207.000000;0.716107
9206.000000;0.716003
9205.000000;0.716051
9204.000000;0.715999
9203.000000;0.715651
9202.000000;0.715095
9201.000000;0.714656
9200.000000;0.714526
9199.000000;0.714544
9198.000000;0.714466
9197.000000;0.714313
9196.000000;0.714306
9195.000000;0.714524
9194.000000;0.714794
9193.000000;0.714882
9192.000000;0.714652
9191.000000;0.714092
9190.000000;0.713333
9189.000000;0.712622
9188.000000;0.712159
9187.000000;0.711917
9186.000000;0.711707
9185.000000;0.711387
9184.000000;0.710943
9183.000000;0.710428
9182.000000;0.709939
9181.000000;0.709626
9180.000000;0.709586
9179.000000;0.709715
9178.000000;0.709767
9177.000000;0.709587
9176.000000;0.709222
9175.000000;0.708811
9174.000000;0.708448
9173.000000;0.708153
9172.000000;0.707899
9171.000000;0.707640
9170.000000;0.707371
9169.000000;0.707161
9168.000000;0.707072
9167.000000;0.707052
9166.000000;0.706962
9165.000000;0.706714
9164.000000;0.706313
9163.000000;0.705813
9162.000000;0.705275
9161.000000;0.704789
9160.000000;0.704452
9159.000000;0.704299
9158.000000;0.704277
9157.000000;0.704296
9156.000000;0.704275
9155.000000;0.704143
9154.000000;0.703839
9153.000000;0.703350
9152.000000;0.702750
9151.000000;0.702214
9150.000000;0.701947
9149.000000;0.702043
9148.000000;0.702390
9147.000000;0.702744
9146.000000;0.702916
9145.000000;0.702832
9144.000000;0.702464
9143.000000;0.701827
9142.000000;0.701055
9141.000000;0.700343
9140.000000;0.699765
9139.000000;0.699253
9138.000000;0.698826
9137.000000;0.698666
9136.000000;0.698831
9135.000000;0.699005
9134.000000;0.698756
9133.000000;0.698024
9132.000000;0.697185
9131.000000;0.696636
9130.000000;0.696457
9129.000000;0.696493
9128.000000;0.696588
9127.000000;0.696673
9126.000000;0.696728
9125.000000;0.696761
9124.000000;0.696788
9123.000000;0.696760
9122.000000;0.696566
9121.000000;0.696151
9120.000000;0.695594
9119.000000;0.695020
9118.000000;0.694470
9117.000000;0.693910
9116.000000;0.693341
9115.000000;0.692842
9114.000000;0.692502
9113.000000;0.692342
9112.000000;0.692304
9111.000000;0.692283
9110.000000;0.692178
9109.000000;0.691949
9108.000000;0.691662
9107.000000;0.691447
9106.000000;0.691358
9105.000000;0.691298
9104.000000;0.691129
9103.000000;0.690856
9102.000000;0.690631
9101.000000;0.690557
9100.000000;0.690565
9099.000000;0.690530
9098.000000;0.690423
9097.000000;0.690280
9096.000000;0.690083
9095.000000;0.689784
9094.000000;0.689388
9093.000000;0.688924
9092.000000;0.688370
9091.000000;0.687729
9090.000000;0.687165
9089.000000;0.686894
9088.000000;0.686928
9087.000000;0.687050
9086.000000;0.687075
9085.000000;0.687021
9084.000000;0.686983
9083.000000;0.686970
9082.000000;0.686942
9081.000000;0.686864
9080.000000;0.686672
9079.000000;0.686285
9078.000000;0.685774
9077.000000;0.685389
9076.000000;0.685300
9075.000000;0.685350
9074.000000;0.685217
9073.000000;0.684771
9072.000000;0.684185
9071.000000;0.683691
9070.000000;0.683355
9069.000000;0.683091
9068.000000;0.682825
9067.000000;0.682599
9066.000000;0.682520
9065.000000;0.682625
9064.000000;0.682792
9063.000000;0.682831
9062.000000;0.682659
9061.000000;0.682339
9060.000000;0.681956
9059.000000;0.681555
9058.000000;0.681215
9057.000000;0.681064
9056.000000;0.681109
9055.000000;0.681149
9054.000000;0.680964
9053.000000;0.680560
