Criado como novo conjunto de dados;"e2410_daniel_v2.spp","37083.7 Secs"
cm-1;Abs
10000.000000;0.535607
9999.000000;0.534766
9998.000000;0.533927
9997.000000;0.533089
9996.000000;0.532254
9995.000000;0.531419
9994.000000;0.530587
9993.000000;0.529755
9992.000000;0.528927
9991.000000;0.528075
9990.000000;0.527482
9989.000000;0.527304
9988.000000;0.527439
9987.000000;0.527596
9986.000000;0.527468
9985.000000;0.526927
9984.000000;0.526079
9983.000000;0.525138
9982.000000;0.524259
9981.000000;0.523497
9980.000000;0.522874
9979.000000;0.522401
9978.000000;0.522065
9977.000000;0.521827
9976.000000;0.521643
9975.000000;0.521415
9974.000000;0.520990
9973.000000;0.520307
9972.000000;0.519539
9971.000000;0.518946
9970.000000;0.518570
9969.000000;0.518188
9968.000000;0.517628
9967.000000;0.516983
9966.000000;0.516442
9965.000000;0.516026
9964.000000;0.515629
9963.000000;0.515225
9962.000000;0.514895
9961.000000;0.514655
9960.000000;0.514407
9959.000000;0.514066
9958.000000;0.513652
9957.000000;0.513236
9956.000000;0.512841
9955.000000;0.512396
9954.000000;0.511768
9953.000000;0.510874
9952.000000;0.509808
9951.000000;0.508822
9950.000000;0.508126
9949.000000;0.507719
9948.000000;0.507432
9947.000000;0.507113
9946.000000;0.506697
9945.000000;0.506177
9944.000000;0.505587
9943.000000;0.505015
9942.000000;0.504557
9941.000000;0.504212
9940.000000;0.503868
9939.000000;0.503397
9938.000000;0.502753
9937.000000;0.502008
9936.000000;0.501308
9935.000000;0.500782
9934.000000;0.500475
9933.000000;0.500332
9932.000000;0.500216
9931.000000;0.499937
9930.000000;0.499341
9929.000000;0.498466
9928.000000;0.497565
9927.000000;0.496862
9926.000000;0.496295
9925.000000;0.495623
9924.000000;0.494787
9923.000000;0.494018
9922.000000;0.493549
9921.000000;0.493366
9920.000000;0.493309
9919.000000;0.493249
9918.000000;0.493089
9917.000000;0.492718
9916.000000;0.492145
9915.000000;0.491558
9914.000000;0.491107
9913.000000;0.490695
9912.000000;0.490146
9911.000000;0.489493
9910.000000;0.488925
9909.000000;0.488476
9908.000000;0.487967
9907.000000;0.487292
9906.000000;0.486574
9905.000000;0.485996
9904.000000;0.485566
9903.000000;0.485144
9902.000000;0.484626
9901.000000;0.484063
9900.000000;0.483612
9899.000000;0.483398
9898.000000;0.483358
9897.000000;0.483242
9896.000000;0.482830
9895.000000;0.482137
9894.000000;0.481368
9893.000000;0.480692
9892.000000;0.480131
9891.000000;0.479655
9890.000000;0.479264
9889.000000;0.478944
9888.000000;0.478635
9887.000000;0.478272
9886.000000;0.477815
9885.000000;0.477215
9884.000000;0.476431
9883.000000;0.475520
9882.000000;0.474653
9881.000000;0.473965
9880.000000;0.473441
9879.000000;0.472982
9878.000000;0.472558
9877.000000;0.472236
9876.000000;0.472050
9875.000000;0.471906
9874.000000;0.471632
9873.000000;0.471106
9872.000000;0.470349
9871.000000;0.469511
9870.000000;0.468800
9869.000000;0.468356
9868.000000;0.468148
9867.000000;0.467972
9866.000000;0.467606
9865.000000;0.467005
9864.000000;0.466316
9863.000000;0.465710
9862.000000;0.465239
9861.000000;0.464854
9860.000000;0.464492
9859.000000;0.464093
9858.000000;0.463604
9857.000000;0.463043
9856.000000;0.462522
9855.000000;0.462126
9854.000000;0.461795
9853.000000;0.461404
9852.000000;0.460922
9851.000000;0.460415
9850.000000;0.459925
9849.000000;0.459434
9848.000000;0.458945
9847.000000;0.458473
9846.000000;0.457979
9845.000000;0.457416
9844.000000;0.456842
9843.000000;0.456391
9842.000000;0.456110
9841.000000;0.455913
9840.000000;0.455688
9839.000000;0.455340
9838.000000;0.454748
9837.000000;0.453868
9836.000000;0.452890
9835.000000;0.452140
9834.000000;0.451724
9833.000000;0.451402
9832.000000;0.450893
9831.000000;0.450193
9830.000000;0.449499
9829.000000;0.448960
9828.000000;0.448590
9827.000000;0.448344
9826.000000;0.448138
9825.000000;0.447864
9824.000000;0.447487
9823.000000;0.447088
9822.000000;0.446737
9821.000000;0.446392
9820.000000;0.445996
9819.000000;0.445583
9818.000000;0.445192
9817.000000;0.444767
9816.000000;0.444252
9815.000000;0.443723
9814.000000;0.443311
9813.000000;0.443022
9812.000000;0.442746
9811.000000;0.442389
9810.000000;0.441915
9809.000000;0.441303
9808.000000;0.440577
9807.000000;0.439851
9806.000000;0.439223
9805.000000;0.438656
9804.000000;0.438057
9803.000000;0.437464
9802.000000;0.437019
9801.000000;0.436745
9800.000000;0.436462
9799.000000;0.435992
9798.000000;0.435382
9797.000000;0.434858
9796.000000;0.434568
9795.000000;0.434411
9794.000000;0.434138
9793.000000;0.433599
9792.000000;0.432860
9791.000000;0.432085
9790.000000;0.431356
9789.000000;0.430667
9788.000000;0.430043
9787.000000;0.429556
9786.000000;0.429222
9785.000000;0.428982
9784.000000;0.428773
9783.000000;0.428548
9782.000000;0.428207
9781.000000;0.427633
9780.000000;0.426847
9779.000000;0.426033
9778.000000;0.425363
9777.000000;0.424874
9776.000000;0.424525
9775.000000;0.424258
9774.000000;0.423956
9773.000000;0.423470
9772.000000;0.422774
9771.000000;0.422024
9770.000000;0.421405
9769.000000;0.420983
9768.000000;0.420727
9767.000000;0.420553
9766.000000;0.420310
9765.000000;0.419862
9764.000000;0.419259
9763.000000;0.418714
9762.000000;0.418315
9761.000000;0.417900
9760.000000;0.417321
9759.000000;0.416703
9758.000000;0.416280
9757.000000;0.416070
9756.000000;0.415858
9755.000000;0.415465
9754.000000;0.414895
9753.000000;0.414253
9752.000000;0.413637
9751.000000;0.413084
9750.000000;0.412534
9749.000000;0.411888
9748.000000;0.411179
9747.000000;0.410628
9746.000000;0.410426
9745.000000;0.410502
9744.000000;0.410595
9743.000000;0.410490
9742.000000;0.410121
9741.000000;0.409520
9740.000000;0.408788
9739.000000;0.408059
9738.000000;0.407409
9737.000000;0.406823
9736.000000;0.406326
9735.000000;0.406022
9734.000000;0.405910
9733.000000;0.405757
9732.000000;0.405309
9731.000000;0.404571
9730.000000;0.403759
9729.000000;0.403042
9728.000000;0.402455
9727.000000;0.401981
9726.000000;0.401581
9725.000000;0.401165
9724.000000;0.400692
9723.000000;0.400255
9722.000000;0.399933
9721.000000;0.399642
9720.000000;0.399262
9719.000000;0.398848
9718.000000;0.398534
9717.000000;0.398264
9716.000000;0.397836
9715.000000;0.397222
9714.000000;0.396649
9713.000000;0.396326
9712.000000;0.396239
9711.000000;0.396244
9710.000000;0.396193
9709.000000;0.395945
9708.000000;0.395378
9707.000000;0.394504
9706.000000;0.393511
9705.000000;0.392645
9704.000000;0.392079
9703.000000;0.391845
9702.000000;0.391783
9701.000000;0.391595
9700.000000;0.391077
9699.000000;0.390312
9698.000000;0.389573
9697.000000;0.389035
9696.000000;0.388692
9695.000000;0.388485
9694.000000;0.388348
9693.000000;0.388163
9692.000000;0.387831
9691.000000;0.387401
9690.000000;0.387009
9689.000000;0.386660
9688.000000;0.386225
9687.000000;0.385661
9686.000000;0.385085
9685.000000;0.384598
9684.000000;0.384178
9683.000000;0.383781
9682.000000;0.383393
9681.000000;0.382952
9680.000000;0.382346
9679.000000;0.381573
9678.000000;0.380779
9677.000000;0.380085
9676.000000;0.379488
9675.000000;0.378983
9674.000000;0.378646
9673.000000;0.378500
9672.000000;0.378412
9671.000000;0.378210
9670.000000;0.377837
9669.000000;0.377339
9668.000000;0.376784
9667.000000;0.376246
9666.000000;0.375783
9665.000000;0.375354
9664.000000;0.374848
9663.000000;0.374257
9662.000000;0.373712
9661.000000;0.373297
9660.000000;0.372948
9659.000000;0.372594
9658.000000;0.372285
9657.000000;0.372049
9656.000000;0.371750
9655.000000;0.371235
9654.000000;0.370558
9653.000000;0.369893
9652.000000;0.369299
9651.000000;0.368728
9650.000000;0.368233
9649.000000;0.367966
9648.000000;0.367935
9647.000000;0.367913
9646.000000;0.367653
9645.000000;0.367112
9644.000000;0.366413
9643.000000;0.365682
9642.000000;0.365018
9641.000000;0.364537
9640.000000;0.364315
9639.000000;0.364277
9638.000000;0.364195
9637.000000;0.363833
9636.000000;0.363117
9635.000000;0.362203
9634.000000;0.361398
9633.000000;0.360978
9632.000000;0.361007
9631.000000;0.361285
9630.000000;0.361486
9629.000000;0.361364
9628.000000;0.360873
9627.000000;0.360154
9626.000000;0.359411
9625.000000;0.358786
9624.000000;0.358285
9623.000000;0.357802
9622.000000;0.357247
9621.000000;0.356659
9620.000000;0.356180
9619.000000;0.355914
9618.000000;0.355801
9617.000000;0.355663
9616.000000;0.355347
9615.000000;0.354831
9614.000000;0.354196
9613.000000;0.353563
9612.000000;0.353026
9611.000000;0.352597
9610.000000;0.352204
9609.000000;0.351762
9608.000000;0.351266
9607.000000;0.350762
9606.000000;0.350261
9605.000000;0.349737
9604.000000;0.349241
9603.000000;0.348919
9602.000000;0.348848
9601.000000;0.348900
9600.000000;0.348849
9599.000000;0.348584
9598.000000;0.348173
9597.000000;0.347707
9596.000000;0.347189
9595.000000;0.346593
9594.000000;0.345966
9593.000000;0.345415
9592.000000;0.345006
9591.000000;0.344712
9590.000000;0.344461
9589.000000;0.344194
9588.000000;0.343893
9587.000000;0.343554
9586.000000;0.343180
9585.000000;0.342794
9584.000000;0.342420
9583.000000;0.342020
9582.000000;0.341487
9581.000000;0.340778
9580.000000;0.340034
9579.000000;0.339500
9578.000000;0.339268
9577.000000;0.339192
9576.000000;0.339062
9575.000000;0.338814
9574.000000;0.338487
9573.000000;0.338074
9572.000000;0.337520
9571.000000;0.336875
9570.000000;0.336320
9569.000000;0.335979
9568.000000;0.335756
9567.000000;0.335422
9566.000000;0.334843
9565.000000;0.334109
9564.000000;0.333427
9563.000000;0.332906
9562.000000;0.332467
9561.000000;0.331976
9560.000000;0.331420
9559.000000;0.330919
9558.000000;0.330564
9557.000000;0.330303
9556.000000;0.330022
9555.000000;0.329662
9554.000000;0.329250
9553.000000;0.328854
9552.000000;0.328553
9551.000000;0.328402
9550.000000;0.328356
9549.000000;0.328265
9548.000000;0.327995
9547.000000;0.327549
9546.000000;0.327017
9545.000000;0.326447
9544.000000;0.325831
9543.000000;0.325200
9542.000000;0.324659
9541.000000;0.324293
9540.000000;0.324072
9539.000000;0.323877
9538.000000;0.323595
9537.000000;0.323204
9536.000000;0.322765
9535.000000;0.322361
9534.000000;0.322008
9533.000000;0.321656
9532.000000;0.321268
9531.000000;0.320871
9530.000000;0.320498
9529.000000;0.320124
9528.000000;0.319698
9527.000000;0.319229
9526.000000;0.318796
9525.000000;0.318450
9524.000000;0.318144
9523.000000;0.317780
9522.000000;0.317341
9521.000000;0.316945
9520.000000;0.316727
9519.000000;0.316650
9518.000000;0.316486
9517.000000;0.316048
9516.000000;0.315425
9515.000000;0.314891
9514.000000;0.314580
9513.000000;0.314362
9512.000000;0.314051
9511.000000;0.313635
9510.000000;0.313208
9509.000000;0.312776
9508.000000;0.312262
9507.000000;0.311662
9506.000000;0.311077
9505.000000;0.310585
9504.000000;0.310153
9503.000000;0.309725
9502.000000;0.309306
9501.000000;0.308947
9500.000000;0.308683
9499.000000;0.308500
9498.000000;0.308332
9497.000000;0.308075
9496.000000;0.307647
9495.000000;0.307073
9494.000000;0.306498
9493.000000;0.306084
9492.000000;0.305874
9491.000000;0.305748
9490.000000;0.305522
9489.000000;0.305124
9488.000000;0.304665
9487.000000;0.304314
9486.000000;0.304121
9485.000000;0.303980
9484.000000;0.303749
9483.000000;0.303367
9482.000000;0.302848
9481.000000;0.302252
9480.000000;0.301673
9479.000000;0.301195
9478.000000;0.300813
9477.000000;0.300438
9476.000000;0.300018
9475.000000;0.299590
9474.000000;0.299210
9473.000000;0.298884
9472.000000;0.298589
9471.000000;0.298310
9470.000000;0.298020
9469.000000;0.297692
9468.000000;0.297375
9467.000000;0.297169
9466.000000;0.297053
9465.000000;0.296835
9464.000000;0.296330
9463.000000;0.295576
9462.000000;0.294786
9461.000000;0.294158
9460.000000;0.293792
9459.000000;0.293695
9458.000000;0.293765
9457.000000;0.293777
9456.000000;0.293536
9455.000000;0.293047
9454.000000;0.292483
9453.000000;0.291989
9452.000000;0.291579
9451.000000;0.291215
9450.000000;0.290885
9449.000000;0.290593
9448.000000;0.290319
9447.000000;0.290036
9446.000000;0.289712
9445.000000;0.289327
9444.000000;0.288905
9443.000000;0.288521
9442.000000;0.288210
9441.000000;0.287907
9440.000000;0.287522
9439.000000;0.287068
9438.000000;0.286629
9437.000000;0.286238
9436.000000;0.285846
9435.000000;0.285426
9434.000000;0.285033
9433.000000;0.284739
9432.000000;0.284550
9431.000000;0.284394
9430.000000;0.284155
9429.000000;0.283734
9428.000000;0.283128
9427.000000;0.282464
9426.000000;0.281905
9425.000000;0.281508
9424.000000;0.281217
9423.000000;0.280968
9422.000000;0.280756
9421.000000;0.280581
9420.000000;0.280404
9419.000000;0.280167
9418.000000;0.279863
9417.000000;0.279531
9416.000000;0.279213
9415.000000;0.278901
9414.000000;0.278543
9413.000000;0.278097
9412.000000;0.277602
9411.000000;0.277159
9410.000000;0.276818
9409.000000;0.276526
9408.000000;0.276185
9407.000000;0.275758
9406.000000;0.275296
9405.000000;0.274887
9404.000000;0.274610
9403.000000;0.274480
9402.000000;0.274397
9401.000000;0.274214
9400.000000;0.273884
9399.000000;0.273521
9398.000000;0.273247
9397.000000;0.273038
9396.000000;0.272765
9395.000000;0.272373
9394.000000;0.271934
9393.000000;0.271560
9392.000000;0.271298
9391.000000;0.271122
9390.000000;0.270932
9389.000000;0.270614
9388.000000;0.270148
9387.000000;0.269666
9386.000000;0.269302
9385.000000;0.268999
9384.000000;0.268570
9383.000000;0.267970
9382.000000;0.267421
9381.000000;0.267173
9380.000000;0.267208
9379.000000;0.267252
9378.000000;0.267071
9377.000000;0.266675
9376.000000;0.266225
9375.000000;0.265827
9374.000000;0.265462
9373.000000;0.265092
9372.000000;0.264733
9371.000000;0.264414
9370.000000;0.264114
9369.000000;0.263796
9368.000000;0.263477
9367.000000;0.263187
9366.000000;0.262890
9365.000000;0.262515
9364.000000;0.262080
9363.000000;0.261700
9362.000000;0.261440
9361.000000;0.261247
9360.000000;0.261058
9359.000000;0.260890
9358.000000;0.260757
9357.000000;0.260572
9356.000000;0.260248
9355.000000;0.259845
9354.000000;0.259520
9353.000000;0.259301
9352.000000;0.259031
9351.000000;0.258573
9350.000000;0.257985
9349.000000;0.257451
9348.000000;0.257050
9347.000000;0.256691
9346.000000;0.256258
9345.000000;0.255800
9344.000000;0.255500
9343.000000;0.255469
9342.000000;0.255582
9341.000000;0.255575
9340.000000;0.255301
9339.000000;0.254856
9338.000000;0.254440
9337.000000;0.254153
9336.000000;0.253951
9335.000000;0.253739
9334.000000;0.253468
9333.000000;0.253142
9332.000000;0.252795
9331.000000;0.252454
9330.000000;0.252105
9329.000000;0.251702
9328.000000;0.251212
9327.000000;0.250652
9326.000000;0.250081
9325.000000;0.249592
9324.000000;0.249284
9323.000000;0.249184
9322.000000;0.249174
9321.000000;0.249063
9320.000000;0.248773
9319.000000;0.248416
9318.000000;0.248145
9317.000000;0.247982
9316.000000;0.247830
9315.000000;0.247613
9314.000000;0.247344
9313.000000;0.247077
9312.000000;0.246833
9311.000000;0.246561
9310.000000;0.246156
9309.000000;0.245570
9308.000000;0.244918
9307.000000;0.244409
9306.000000;0.244133
9305.000000;0.243943
9304.000000;0.243636
9303.000000;0.243180
9302.000000;0.242728
9301.000000;0.242435
9300.000000;0.242317
9299.000000;0.242277
9298.000000;0.242188
9297.000000;0.241967
9296.000000;0.241629
9295.000000;0.241272
9294.000000;0.240967
9293.000000;0.240696
9292.000000;0.240410
9291.000000;0.240116
9290.000000;0.239842
9289.000000;0.239556
9288.000000;0.239210
9287.000000;0.238844
9286.000000;0.238573
9285.000000;0.238456
9284.000000;0.238416
9283.000000;0.238320
9282.000000;0.238100
9281.000000;0.237778
9280.000000;0.237403
9279.000000;0.236992
9278.000000;0.236548
9277.000000;0.236125
9276.000000;0.235837
9275.000000;0.235730
9274.000000;0.235679
9273.000000;0.235468
9272.000000;0.235019
9271.000000;0.234471
9270.000000;0.234013
9269.000000;0.233705
9268.000000;0.233500
9267.000000;0.233356
9266.000000;0.233240
9265.000000;0.233077
9264.000000;0.232798
9263.000000;0.232431
9262.000000;0.232069
9261.000000;0.231756
9260.000000;0.231471
9259.000000;0.231213
9258.000000;0.231025
9257.000000;0.230916
9256.000000;0.230820
9255.000000;0.230655
9254.000000;0.230406
9253.000000;0.230118
9252.000000;0.229827
9251.000000;0.229507
9250.000000;0.229115
9249.000000;0.228686
9248.000000;0.228357
9247.000000;0.228220
9246.000000;0.228190
9245.000000;0.228083
9244.000000;0.227843
9243.000000;0.227599
9242.000000;0.227451
9241.000000;0.227301
9240.000000;0.226990
9239.000000;0.226508
9238.000000;0.226007
9237.000000;0.225618
9236.000000;0.225353
9235.000000;0.225143
9234.000000;0.224896
9233.000000;0.224537
9232.000000;0.224086
9231.000000;0.223675
9230.000000;0.223425
9229.000000;0.223286
9228.000000;0.223088
9227.000000;0.222736
9226.000000;0.222309
9225.000000;0.221938
9224.000000;0.221654
9223.000000;0.221376
9222.000000;0.221046
9221.000000;0.220719
9220.000000;0.220513
9219.000000;0.220460
9218.000000;0.220450
9217.000000;0.220357
9216.000000;0.220184
9215.000000;0.220027
9214.000000;0.219907
9213.000000;0.219737
9212.000000;0.219471
9211.000000;0.219171
9210.000000;0.218890
9209.000000;0.218577
9208.000000;0.218185
9207.000000;0.217789
9206.000000;0.217502
9205.000000;0.217327
9204.000000;0.217179
9203.000000;0.217005
9202.000000;0.216811
9201.000000;0.216596
9200.000000;0.216352
9199.000000;0.216087
9198.000000;0.215805
9197.000000;0.215490
9196.000000;0.215164
9195.000000;0.214910
9194.000000;0.214755
9193.000000;0.214596
9192.000000;0.214315
9191.000000;0.213952
9190.000000;0.213649
9189.000000;0.213471
9188.000000;0.213346
9187.000000;0.213175
9186.000000;0.212906
9185.000000;0.212541
9184.000000;0.212146
9183.000000;0.211839
9182.000000;0.211685
9181.000000;0.211614
9180.000000;0.211498
9179.000000;0.211298
9178.000000;0.211057
9177.000000;0.210807
9176.000000;0.210550
9175.000000;0.210318
9174.000000;0.210124
9173.000000;0.209901
9172.000000;0.209564
9171.000000;0.209125
9170.000000;0.208666
9169.000000;0.208236
9168.000000;0.207863
9167.000000;0.207640
9166.000000;0.207643
9165.000000;0.207758
9164.000000;0.207734
9163.000000;0.207448
9162.000000;0.207023
9161.000000;0.206654
9160.000000;0.206403
9159.000000;0.206217
9158.000000;0.206046
9157.000000;0.205874
9156.000000;0.205682
9155.000000;0.205446
9154.000000;0.205155
9153.000000;0.204809
9152.000000;0.204432
9151.000000;0.204085
9150.000000;0.203832
9149.000000;0.203672
9148.000000;0.203568
9147.000000;0.203496
9146.000000;0.203424
9145.000000;0.203256
9144.000000;0.202897
9143.000000;0.202383
9142.000000;0.201874
9141.000000;0.201497
9140.000000;0.201265
9139.000000;0.201147
9138.000000;0.201137
9137.000000;0.201188
9136.000000;0.201179
9135.000000;0.200999
9134.000000;0.200656
9133.000000;0.200260
9132.000000;0.199941
9131.000000;0.199775
9130.000000;0.199740
9129.000000;0.199718
9128.000000;0.199588
9127.000000;0.199347
9126.000000;0.199095
9125.000000;0.198880
9124.000000;0.198642
9123.000000;0.198324
9122.000000;0.197957
9121.000000;0.197604
9120.000000;0.197275
9119.000000;0.196955
9118.000000;0.196685
9117.000000;0.196520
9116.000000;0.196456
9115.000000;0.196434
9114.000000;0.196414
9113.000000;0.196382
9112.000000;0.196306
9111.000000;0.196139
9110.000000;0.195863
9109.000000;0.195509
9108.000000;0.195136
9107.000000;0.194800
9106.000000;0.194539
9105.000000;0.194356
9104.000000;0.194227
9103.000000;0.194124
9102.000000;0.194025
9101.000000;0.193897
9100.000000;0.193685
9099.000000;0.193367
9098.000000;0.192993
9097.000000;0.192661
9096.000000;0.192448
9095.000000;0.192359
9094.000000;0.192327
9093.000000;0.192256
9092.000000;0.192071
9091.000000;0.191777
9090.000000;0.191450
9089.000000;0.191169
9088.000000;0.190957
9087.000000;0.190784
9086.000000;0.190627
9085.000000;0.190503
9084.000000;0.190413
9083.000000;0.190280
9082.000000;0.190002
9081.000000;0.189581
9080.000000;0.189174
9079.000000;0.188952
9078.000000;0.188899
9077.000000;0.188832
9076.000000;0.188616
9075.000000;0.188322
9074.000000;0.188108
9073.000000;0.188012
9072.000000;0.187911
9071.000000;0.187679
9070.000000;0.187322
9069.000000;0.186962
9068.000000;0.186725
9067.000000;0.186638
9066.000000;0.186618
9065.000000;0.186547
9064.000000;0.186385
9063.000000;0.186197
9062.000000;0.186047
9061.000000;0.185910
9060.000000;0.185716
9059.000000;0.185453
9058.000000;0.185166
9057.000000;0.184884
9056.000000;0.184603
9055.000000;0.184330
9054.000000;0.184090
9053.000000;0.183884
