Criado como novo conjunto de dados;"e2410_daniel_v2.spp","74705.9 Secs"
cm-1;Abs
10000.000000;1.331233
9999.000000;1.332020
9998.000000;1.332712
9997.000000;1.333619
9996.000000;1.333342
9995.000000;1.331165
9994.000000;1.328498
9993.000000;1.326630
9992.000000;1.326052
9991.000000;1.326099
9990.000000;1.325874
9989.000000;1.325059
9988.000000;1.324114
9987.000000;1.323644
9986.000000;1.323641
9985.000000;1.323520
9984.000000;1.322897
9983.000000;1.322025
9982.000000;1.321348
9981.000000;1.320954
9980.000000;1.320685
9979.000000;1.320468
9978.000000;1.320291
9977.000000;1.320088
9976.000000;1.319902
9975.000000;1.319904
9974.000000;1.320059
9973.000000;1.320029
9972.000000;1.319616
9971.000000;1.319069
9970.000000;1.318729
9969.000000;1.318549
9968.000000;1.318155
9967.000000;1.317224
9966.000000;1.315719
9965.000000;1.313972
9964.000000;1.312593
9963.000000;1.311964
9962.000000;1.311717
9961.000000;1.311053
9960.000000;1.309710
9959.000000;1.308292
9958.000000;1.307536
9957.000000;1.307567
9956.000000;1.307980
9955.000000;1.308309
9954.000000;1.308278
9953.000000;1.307905
9952.000000;1.307476
9951.000000;1.307231
9950.000000;1.307087
9949.000000;1.306932
9948.000000;1.307003
9947.000000;1.307505
9946.000000;1.307962
9945.000000;1.307554
9944.000000;1.306113
9943.000000;1.304217
9942.000000;1.302355
9941.000000;1.300711
9940.000000;1.299676
9939.000000;1.299627
9938.000000;1.300077
9937.000000;1.299946
9936.000000;1.299019
9935.000000;1.298291
9934.000000;1.298484
9933.000000;1.299050
9932.000000;1.299092
9931.000000;1.298502
9930.000000;1.297619
9929.000000;1.296470
9928.000000;1.295042
9927.000000;1.293795
9926.000000;1.293255
9925.000000;1.293437
9924.000000;1.294039
9923.000000;1.294765
9922.000000;1.295126
9921.000000;1.294535
9920.000000;1.293111
9919.000000;1.291810
9918.000000;1.291270
9917.000000;1.291070
9916.000000;1.290583
9915.000000;1.289948
9914.000000;1.289545
9913.000000;1.289116
9912.000000;1.288184
9911.000000;1.286914
9910.000000;1.285801
9909.000000;1.284770
9908.000000;1.283380
9907.000000;1.281817
9906.000000;1.280977
9905.000000;1.281476
9904.000000;1.282974
9903.000000;1.284414
9902.000000;1.284667
9901.000000;1.283199
9900.000000;1.280525
9899.000000;1.277944
9898.000000;1.276530
9897.000000;1.276395
9896.000000;1.276975
9895.000000;1.277687
9894.000000;1.278135
9893.000000;1.278050
9892.000000;1.277461
9891.000000;1.276679
9890.000000;1.275848
9889.000000;1.274776
9888.000000;1.273425
9887.000000;1.272221
9886.000000;1.271568
9885.000000;1.271370
9884.000000;1.271353
9883.000000;1.271544
9882.000000;1.272079
9881.000000;1.272763
9880.000000;1.273148
9879.000000;1.272913
9878.000000;1.272003
9877.000000;1.270627
9876.000000;1.269293
9875.000000;1.268519
9874.000000;1.268313
9873.000000;1.268180
9872.000000;1.267773
9871.000000;1.267257
9870.000000;1.266962
9869.000000;1.267007
9868.000000;1.267316
9867.000000;1.267599
9866.000000;1.267262
9865.000000;1.265924
9864.000000;1.264152
9863.000000;1.263074
9862.000000;1.263053
9861.000000;1.263286
9860.000000;1.262899
9859.000000;1.261873
9858.000000;1.260660
9857.000000;1.259570
9856.000000;1.258869
9855.000000;1.258885
9854.000000;1.259516
9853.000000;1.260085
9852.000000;1.260010
9851.000000;1.259237
9850.000000;1.257879
9849.000000;1.256089
9848.000000;1.254526
9847.000000;1.254095
9846.000000;1.254728
9845.000000;1.255113
9844.000000;1.254203
9843.000000;1.252462
9842.000000;1.251071
9841.000000;1.250513
9840.000000;1.250563
9839.000000;1.251016
9838.000000;1.251657
9837.000000;1.251910
9836.000000;1.251288
9835.000000;1.249999
9834.000000;1.248628
9833.000000;1.247486
9832.000000;1.246656
9831.000000;1.246210
9830.000000;1.245935
9829.000000;1.245321
9828.000000;1.244314
9827.000000;1.243639
9826.000000;1.243793
9825.000000;1.244218
9824.000000;1.244072
9823.000000;1.243415
9822.000000;1.242927
9821.000000;1.242839
9820.000000;1.242837
9819.000000;1.242692
9818.000000;1.242261
9817.000000;1.241173
9816.000000;1.239276
9815.000000;1.237208
9814.000000;1.235849
9813.000000;1.235310
9812.000000;1.235043
9811.000000;1.234754
9810.000000;1.234588
9809.000000;1.234573
9808.000000;1.234556
9807.000000;1.234618
9806.000000;1.234965
9805.000000;1.235426
9804.000000;1.235556
9803.000000;1.235212
9802.000000;1.234572
9801.000000;1.233689
9800.000000;1.232497
9799.000000;1.231239
9798.000000;1.230379
9797.000000;1.230053
9796.000000;1.229975
9795.000000;1.229873
9794.000000;1.229737
9793.000000;1.229632
9792.000000;1.229508
9791.000000;1.229158
9790.000000;1.228263
9789.000000;1.226696
9788.000000;1.224964
9787.000000;1.223973
9786.000000;1.224032
9785.000000;1.224373
9784.000000;1.223996
9783.000000;1.222762
9782.000000;1.221336
9781.000000;1.220329
9780.000000;1.219920
9779.000000;1.220042
9778.000000;1.220451
9777.000000;1.220786
9776.000000;1.220903
9775.000000;1.221009
9774.000000;1.221173
9773.000000;1.220993
9772.000000;1.220156
9771.000000;1.219029
9770.000000;1.218213
9769.000000;1.217756
9768.000000;1.217244
9767.000000;1.216471
9766.000000;1.215576
9765.000000;1.214684
9764.000000;1.213863
9763.000000;1.213295
9762.000000;1.213082
9761.000000;1.213008
9760.000000;1.212820
9759.000000;1.212567
9758.000000;1.212315
9757.000000;1.211822
9756.000000;1.210905
9755.000000;1.209875
9754.000000;1.209142
9753.000000;1.208610
9752.000000;1.207960
9751.000000;1.207308
9750.000000;1.207027
9749.000000;1.207039
9748.000000;1.206887
9747.000000;1.206472
9746.000000;1.206169
9745.000000;1.206151
9744.000000;1.206081
9743.000000;1.205587
9742.000000;1.204699
9741.000000;1.203734
9740.000000;1.203014
9739.000000;1.202728
9738.000000;1.202771
9737.000000;1.202747
9736.000000;1.202364
9735.000000;1.201787
9734.000000;1.201305
9733.000000;1.200786
9732.000000;1.199820
9731.000000;1.198376
9730.000000;1.196953
9729.000000;1.196063
9728.000000;1.195845
9727.000000;1.196148
9726.000000;1.196676
9725.000000;1.197055
9724.000000;1.197059
9723.000000;1.196798
9722.000000;1.196481
9721.000000;1.196017
9720.000000;1.195128
9719.000000;1.193884
9718.000000;1.192814
9717.000000;1.192368
9716.000000;1.192452
9715.000000;1.192543
9714.000000;1.192155
9713.000000;1.191180
9712.000000;1.189889
9711.000000;1.188651
9710.000000;1.187635
9709.000000;1.186785
9708.000000;1.186046
9707.000000;1.185435
9706.000000;1.184915
9705.000000;1.184447
9704.000000;1.184211
9703.000000;1.184485
9702.000000;1.185130
9701.000000;1.185466
9700.000000;1.184911
9699.000000;1.183579
9698.000000;1.182085
9697.000000;1.180978
9696.000000;1.180561
9695.000000;1.180963
9694.000000;1.181992
9693.000000;1.183012
9692.000000;1.183279
9691.000000;1.182494
9690.000000;1.180957
9689.000000;1.179283
9688.000000;1.178005
9687.000000;1.177249
9686.000000;1.176688
9685.000000;1.176000
9684.000000;1.175443
9683.000000;1.175663
9682.000000;1.176769
9681.000000;1.177919
9680.000000;1.178122
9679.000000;1.177263
9678.000000;1.176053
9677.000000;1.175115
9676.000000;1.174445
9675.000000;1.173652
9674.000000;1.172507
9673.000000;1.171307
9672.000000;1.170744
9671.000000;1.171226
9670.000000;1.172240
9669.000000;1.172637
9668.000000;1.171773
9667.000000;1.170153
9666.000000;1.168818
9665.000000;1.168378
9664.000000;1.168775
9663.000000;1.169572
9662.000000;1.170135
9661.000000;1.169864
9660.000000;1.168641
9659.000000;1.166990
9658.000000;1.165551
9657.000000;1.164569
9656.000000;1.164020
9655.000000;1.163913
9654.000000;1.164137
9653.000000;1.164255
9652.000000;1.163869
9651.000000;1.163125
9650.000000;1.162561
9649.000000;1.162508
9648.000000;1.162813
9647.000000;1.163061
9646.000000;1.162897
9645.000000;1.162258
9644.000000;1.161418
9643.000000;1.160717
9642.000000;1.160139
9641.000000;1.159367
9640.000000;1.158303
9639.000000;1.157204
9638.000000;1.156184
9637.000000;1.155017
9636.000000;1.153713
9635.000000;1.152822
9634.000000;1.152724
9633.000000;1.152931
9632.000000;1.152668
9631.000000;1.151981
9630.000000;1.151692
9629.000000;1.152231
9628.000000;1.153041
9627.000000;1.153261
9626.000000;1.152613
9625.000000;1.151449
9624.000000;1.150217
9623.000000;1.149134
9622.000000;1.148230
9621.000000;1.147518
9620.000000;1.147115
9619.000000;1.147209
9618.000000;1.147821
9617.000000;1.148627
9616.000000;1.149085
9615.000000;1.148818
9614.000000;1.147857
9613.000000;1.146568
9612.000000;1.145372
9611.000000;1.144453
9610.000000;1.143683
9609.000000;1.142860
9608.000000;1.142037
9607.000000;1.141533
9606.000000;1.141562
9605.000000;1.141967
9604.000000;1.142326
9603.000000;1.142263
9602.000000;1.141668
9601.000000;1.140779
9600.000000;1.140060
9599.000000;1.139811
9598.000000;1.139854
9597.000000;1.139705
9596.000000;1.139068
9595.000000;1.138004
9594.000000;1.136713
9593.000000;1.135440
9592.000000;1.134594
9591.000000;1.134578
9590.000000;1.135282
9589.000000;1.136026
9588.000000;1.136197
9587.000000;1.135814
9586.000000;1.135284
9585.000000;1.134825
9584.000000;1.134326
9583.000000;1.133637
9582.000000;1.132797
9581.000000;1.132008
9580.000000;1.131496
9579.000000;1.131305
9578.000000;1.131156
9577.000000;1.130640
9576.000000;1.129644
9575.000000;1.128481
9574.000000;1.127558
9573.000000;1.127017
9572.000000;1.126718
9571.000000;1.126430
9570.000000;1.126028
9569.000000;1.125630
9568.000000;1.125524
9567.000000;1.125763
9566.000000;1.125880
9565.000000;1.125309
9564.000000;1.124158
9563.000000;1.123254
9562.000000;1.123299
9561.000000;1.124168
9560.000000;1.125127
9559.000000;1.125513
9558.000000;1.125116
9557.000000;1.124131
9556.000000;1.122925
9555.000000;1.121799
9554.000000;1.120866
9553.000000;1.120154
9552.000000;1.119721
9551.000000;1.119510
9550.000000;1.119233
9549.000000;1.118642
9548.000000;1.117902
9547.000000;1.117414
9546.000000;1.117313
9545.000000;1.117369
9544.000000;1.117345
9543.000000;1.117142
9542.000000;1.116682
9541.000000;1.115989
9540.000000;1.115392
9539.000000;1.115249
9538.000000;1.115419
9537.000000;1.115323
9536.000000;1.114609
9535.000000;1.113452
9534.000000;1.112217
9533.000000;1.111182
9532.000000;1.110626
9531.000000;1.110703
9530.000000;1.111078
9529.000000;1.111080
9528.000000;1.110439
9527.000000;1.109581
9526.000000;1.109017
9525.000000;1.108781
9524.000000;1.108632
9523.000000;1.108493
9522.000000;1.108432
9521.000000;1.108403
9520.000000;1.108234
9519.000000;1.107784
9518.000000;1.107046
9517.000000;1.106216
9516.000000;1.105602
9515.000000;1.105274
9514.000000;1.104889
9513.000000;1.104162
9512.000000;1.103426
9511.000000;1.103260
9510.000000;1.103594
9509.000000;1.103681
9508.000000;1.103073
9507.000000;1.102153
9506.000000;1.101512
9505.000000;1.101241
9504.000000;1.101118
9503.000000;1.101028
9502.000000;1.100898
9501.000000;1.100521
9500.000000;1.099812
9499.000000;1.099048
9498.000000;1.098554
9497.000000;1.098302
9496.000000;1.098036
9495.000000;1.097642
9494.000000;1.097198
9493.000000;1.096805
9492.000000;1.096540
9491.000000;1.096469
9490.000000;1.096593
9489.000000;1.096832
9488.000000;1.097070
9487.000000;1.097136
9486.000000;1.096828
9485.000000;1.096174
9484.000000;1.095542
9483.000000;1.095223
9482.000000;1.095030
9481.000000;1.094637
9480.000000;1.094172
9479.000000;1.093980
9478.000000;1.093849
9477.000000;1.093103
9476.000000;1.091615
9475.000000;1.090190
9474.000000;1.089673
9473.000000;1.090068
9472.000000;1.090725
9471.000000;1.091036
9470.000000;1.090765
9469.000000;1.090026
9468.000000;1.089197
9467.000000;1.088601
9466.000000;1.088139
9465.000000;1.087469
9464.000000;1.086594
9463.000000;1.085887
9462.000000;1.085460
9461.000000;1.084959
9460.000000;1.084127
9459.000000;1.083211
9458.000000;1.082592
9457.000000;1.082393
9456.000000;1.082583
9455.000000;1.083064
9454.000000;1.083445
9453.000000;1.083157
9452.000000;1.082107
9451.000000;1.080910
9450.000000;1.080214
9449.000000;1.080111
9448.000000;1.080371
9447.000000;1.080832
9446.000000;1.081298
9445.000000;1.081401
9444.000000;1.080930
9443.000000;1.080066
9442.000000;1.079090
9441.000000;1.078112
9440.000000;1.077241
9439.000000;1.076677
9438.000000;1.076371
9437.000000;1.075907
9436.000000;1.075037
9435.000000;1.074084
9434.000000;1.073568
9433.000000;1.073616
9432.000000;1.073962
9431.000000;1.074288
9430.000000;1.074377
9429.000000;1.074150
9428.000000;1.073789
9427.000000;1.073624
9426.000000;1.073710
9425.000000;1.073701
9424.000000;1.073276
9423.000000;1.072492
9422.000000;1.071606
9421.000000;1.070797
9420.000000;1.070177
9419.000000;1.069798
9418.000000;1.069512
9417.000000;1.069110
9416.000000;1.068679
9415.000000;1.068508
9414.000000;1.068535
9413.000000;1.068280
9412.000000;1.067522
9411.000000;1.066675
9410.000000;1.066216
9409.000000;1.066080
9408.000000;1.065876
9407.000000;1.065423
9406.000000;1.064834
9405.000000;1.064287
9404.000000;1.063953
9403.000000;1.063935
9402.000000;1.064090
9401.000000;1.064056
9400.000000;1.063624
9399.000000;1.062948
9398.000000;1.062310
9397.000000;1.061861
9396.000000;1.061617
9395.000000;1.061452
9394.000000;1.061122
9393.000000;1.060602
9392.000000;1.060313
9391.000000;1.060589
9390.000000;1.060980
9389.000000;1.060640
9388.000000;1.059501
9387.000000;1.058427
9386.000000;1.058046
9385.000000;1.058028
9384.000000;1.057794
9383.000000;1.057352
9382.000000;1.057059
9381.000000;1.057039
9380.000000;1.057256
9379.000000;1.057712
9378.000000;1.058150
9377.000000;1.057961
9376.000000;1.056870
9375.000000;1.055425
9374.000000;1.054378
9373.000000;1.053850
9372.000000;1.053480
9371.000000;1.053098
9370.000000;1.052809
9369.000000;1.052625
9368.000000;1.052432
9367.000000;1.052204
9366.000000;1.051942
9365.000000;1.051528
9364.000000;1.050918
9363.000000;1.050313
9362.000000;1.049881
9361.000000;1.049468
9360.000000;1.048850
9359.000000;1.048084
9358.000000;1.047398
9357.000000;1.046901
9356.000000;1.046617
9355.000000;1.046600
9354.000000;1.046809
9353.000000;1.047065
9352.000000;1.047269
9351.000000;1.047419
9350.000000;1.047335
9349.000000;1.046703
9348.000000;1.045591
9347.000000;1.044565
9346.000000;1.044040
9345.000000;1.043840
9344.000000;1.043604
9343.000000;1.043262
9342.000000;1.042835
9341.000000;1.042165
9340.000000;1.041206
9339.000000;1.040325
9338.000000;1.039933
9337.000000;1.040037
9336.000000;1.040387
9335.000000;1.040792
9334.000000;1.041039
9333.000000;1.040843
9332.000000;1.040210
9331.000000;1.039553
9330.000000;1.039112
9329.000000;1.038593
9328.000000;1.037767
9327.000000;1.037085
9326.000000;1.037196
9325.000000;1.038042
9324.000000;1.038915
9323.000000;1.039273
9322.000000;1.039112
9321.000000;1.038652
9320.000000;1.038076
9319.000000;1.037531
9318.000000;1.037037
9317.000000;1.036399
9316.000000;1.035453
9315.000000;1.034352
9314.000000;1.033398
9313.000000;1.032748
9312.000000;1.032454
9311.000000;1.032579
9310.000000;1.033004
9309.000000;1.033330
9308.000000;1.033288
9307.000000;1.033061
9306.000000;1.032916
9305.000000;1.032757
9304.000000;1.032386
9303.000000;1.031972
9302.000000;1.031818
9301.000000;1.031774
9300.000000;1.031362
9299.000000;1.030470
9298.000000;1.029531
9297.000000;1.028981
9296.000000;1.028837
9295.000000;1.028859
9294.000000;1.028845
9293.000000;1.028695
9292.000000;1.028427
9291.000000;1.028204
9290.000000;1.028165
9289.000000;1.028164
9288.000000;1.027843
9287.000000;1.027041
9286.000000;1.026047
9285.000000;1.025393
9284.000000;1.025392
9283.000000;1.025820
9282.000000;1.026053
9281.000000;1.025648
9280.000000;1.024795
9279.000000;1.024016
9278.000000;1.023472
9277.000000;1.022888
9276.000000;1.022155
9275.000000;1.021607
9274.000000;1.021477
9273.000000;1.021497
9272.000000;1.021328
9271.000000;1.021093
9270.000000;1.021080
9269.000000;1.021132
9268.000000;1.020770
9267.000000;1.019873
9266.000000;1.018874
9265.000000;1.018236
9264.000000;1.017989
9263.000000;1.017813
9262.000000;1.017408
9261.000000;1.016747
9260.000000;1.016080
9259.000000;1.015714
9258.000000;1.015751
9257.000000;1.016085
9256.000000;1.016608
9255.000000;1.017229
9254.000000;1.017692
9253.000000;1.017662
9252.000000;1.017125
9251.000000;1.016464
9250.000000;1.016003
9249.000000;1.015659
9248.000000;1.015193
9247.000000;1.014550
9246.000000;1.013788
9245.000000;1.012929
9244.000000;1.012110
9243.000000;1.011686
9242.000000;1.011889
9241.000000;1.012514
9240.000000;1.013122
9239.000000;1.013448
9238.000000;1.013461
9237.000000;1.013185
9236.000000;1.012706
9235.000000;1.012224
9234.000000;1.011867
9233.000000;1.011548
9232.000000;1.011134
9231.000000;1.010676
9230.000000;1.010304
9229.000000;1.010041
9228.000000;1.009832
9227.000000;1.009636
9226.000000;1.009373
9225.000000;1.008935
9224.000000;1.008371
9223.000000;1.007905
9222.000000;1.007686
9221.000000;1.007663
9220.000000;1.007753
9219.000000;1.007861
9218.000000;1.007701
9217.000000;1.006982
9216.000000;1.005950
9215.000000;1.005351
9214.000000;1.005563
9213.000000;1.006046
9212.000000;1.005991
9211.000000;1.005274
9210.000000;1.004393
9209.000000;1.003679
9208.000000;1.003035
9207.000000;1.002363
9206.000000;1.001836
9205.000000;1.001653
9204.000000;1.001804
9203.000000;1.002129
9202.000000;1.002419
9201.000000;1.002482
9200.000000;1.002267
9199.000000;1.001936
9198.000000;1.001702
9197.000000;1.001634
9196.000000;1.001674
9195.000000;1.001729
9194.000000;1.001633
9193.000000;1.001182
9192.000000;1.000388
9191.000000;0.999586
9190.000000;0.999088
9189.000000;0.998832
9188.000000;0.998534
9187.000000;0.998098
9186.000000;0.997694
9185.000000;0.997463
9184.000000;0.997319
9183.000000;0.997016
9182.000000;0.996369
9181.000000;0.995464
9180.000000;0.994697
9179.000000;0.994482
9178.000000;0.994839
9177.000000;0.995373
9176.000000;0.995711
9175.000000;0.995816
9174.000000;0.995773
9173.000000;0.995510
9172.000000;0.994912
9171.000000;0.994112
9170.000000;0.993457
9169.000000;0.993225
9168.000000;0.993453
9167.000000;0.993931
9166.000000;0.994269
9165.000000;0.994108
9164.000000;0.993412
9163.000000;0.992519
9162.000000;0.991827
9161.000000;0.991493
9160.000000;0.991420
9159.000000;0.991433
9158.000000;0.991403
9157.000000;0.991311
9156.000000;0.991248
9155.000000;0.991238
9154.000000;0.991132
9153.000000;0.990812
9152.000000;0.990443
9151.000000;0.990262
9150.000000;0.990168
9149.000000;0.989836
9148.000000;0.989256
9147.000000;0.988772
9146.000000;0.988491
9145.000000;0.988033
9144.000000;0.987107
9143.000000;0.986036
9142.000000;0.985445
9141.000000;0.985613
9140.000000;0.986320
9139.000000;0.987104
9138.000000;0.987523
9137.000000;0.987368
9136.000000;0.986860
9135.000000;0.986476
9134.000000;0.986385
9133.000000;0.986225
9132.000000;0.985602
9131.000000;0.984642
9130.000000;0.983860
9129.000000;0.983628
9128.000000;0.983944
9127.000000;0.984530
9126.000000;0.984957
9125.000000;0.984856
9124.000000;0.984223
9123.000000;0.983464
9122.000000;0.982981
9121.000000;0.982803
9120.000000;0.982709
9119.000000;0.982527
9118.000000;0.982185
9117.000000;0.981664
9116.000000;0.981085
9115.000000;0.980699
9114.000000;0.980623
9113.000000;0.980681
9112.000000;0.980627
9111.000000;0.980397
9110.000000;0.980062
9109.000000;0.979695
9108.000000;0.979406
9107.000000;0.979326
9106.000000;0.979366
9105.000000;0.979149
9104.000000;0.978384
9103.000000;0.977246
9102.000000;0.976269
9101.000000;0.975917
9100.000000;0.976296
9099.000000;0.977118
9098.000000;0.977849
9097.000000;0.978052
9096.000000;0.977720
9095.000000;0.977158
9094.000000;0.976564
9093.000000;0.975932
9092.000000;0.975359
9091.000000;0.975112
9090.000000;0.975234
9089.000000;0.975383
9088.000000;0.975249
9087.000000;0.974904
9086.000000;0.974525
9085.000000;0.974039
9084.000000;0.973319
9083.000000;0.972537
9082.000000;0.972039
9081.000000;0.971930
9080.000000;0.971993
9079.000000;0.971966
9078.000000;0.971729
9077.000000;0.971312
9076.000000;0.970867
9075.000000;0.970594
9074.000000;0.970542
9073.000000;0.970545
9072.000000;0.970451
9071.000000;0.970311
9070.000000;0.970267
9069.000000;0.970344
9068.000000;0.970444
9067.000000;0.970436
9066.000000;0.970215
9065.000000;0.969823
9064.000000;0.969520
9063.000000;0.969567
9062.000000;0.969874
9061.000000;0.970037
9060.000000;0.969798
9059.000000;0.969276
9058.000000;0.968697
9057.000000;0.968115
9056.000000;0.967522
9055.000000;0.967002
9054.000000;0.966634
9053.000000;0.966384
