Criado como novo conjunto de dados;"e2410_daniel_v2.spp","3061.9 Secs"
cm-1;Abs
10000.000000;0.127515
9999.000000;0.126968
9998.000000;0.126580
9997.000000;0.126222
9996.000000;0.125774
9995.000000;0.125261
9994.000000;0.124790
9993.000000;0.124405
9992.000000;0.124045
9991.000000;0.123629
9990.000000;0.123131
9989.000000;0.122586
9988.000000;0.122049
9987.000000;0.121561
9986.000000;0.121135
9985.000000;0.120760
9984.000000;0.120420
9983.000000;0.120082
9982.000000;0.119677
9981.000000;0.119132
9980.000000;0.118450
9979.000000;0.117740
9978.000000;0.117130
9977.000000;0.116674
9976.000000;0.116324
9975.000000;0.115993
9974.000000;0.115606
9973.000000;0.115138
9972.000000;0.114635
9971.000000;0.114180
9970.000000;0.113801
9969.000000;0.113412
9968.000000;0.112888
9967.000000;0.112203
9966.000000;0.111457
9965.000000;0.110766
9964.000000;0.110166
9963.000000;0.109637
9962.000000;0.109176
9961.000000;0.108799
9960.000000;0.108488
9959.000000;0.108179
9958.000000;0.107820
9957.000000;0.107403
9956.000000;0.106938
9955.000000;0.106436
9954.000000;0.105926
9953.000000;0.105444
9952.000000;0.104980
9951.000000;0.104465
9950.000000;0.103855
9949.000000;0.103199
9948.000000;0.102585
9947.000000;0.102038
9946.000000;0.101523
9945.000000;0.101047
9944.000000;0.100669
9943.000000;0.100394
9942.000000;0.100116
9941.000000;0.099726
9940.000000;0.099245
9939.000000;0.098778
9938.000000;0.098373
9937.000000;0.097978
9936.000000;0.097523
9935.000000;0.096975
9934.000000;0.096336
9933.000000;0.095646
9932.000000;0.095006
9931.000000;0.094515
9930.000000;0.094160
9929.000000;0.093816
9928.000000;0.093365
9927.000000;0.092782
9926.000000;0.092120
9925.000000;0.091449
9924.000000;0.090851
9923.000000;0.090389
9922.000000;0.090058
9921.000000;0.089776
9920.000000;0.089465
9919.000000;0.089095
9918.000000;0.088656
9917.000000;0.088119
9916.000000;0.087463
9915.000000;0.086715
9914.000000;0.085940
9913.000000;0.085219
9912.000000;0.084648
9911.000000;0.084281
9910.000000;0.084034
9909.000000;0.083736
9908.000000;0.083317
9907.000000;0.082898
9906.000000;0.082609
9905.000000;0.082404
9904.000000;0.082120
9903.000000;0.081687
9902.000000;0.081167
9901.000000;0.080601
9900.000000;0.079972
9899.000000;0.079314
9898.000000;0.078754
9897.000000;0.078373
9896.000000;0.078104
9895.000000;0.077809
9894.000000;0.077412
9893.000000;0.076905
9892.000000;0.076298
9891.000000;0.075635
9890.000000;0.075003
9889.000000;0.074487
9888.000000;0.074081
9887.000000;0.073698
9886.000000;0.073246
9885.000000;0.072694
9884.000000;0.072096
9883.000000;0.071557
9882.000000;0.071155
9881.000000;0.070869
9880.000000;0.070593
9879.000000;0.070232
9878.000000;0.069756
9877.000000;0.069172
9876.000000;0.068519
9875.000000;0.067885
9874.000000;0.067376
9873.000000;0.067007
9872.000000;0.066684
9871.000000;0.066319
9870.000000;0.065924
9869.000000;0.065535
9868.000000;0.065111
9867.000000;0.064582
9866.000000;0.063980
9865.000000;0.063430
9864.000000;0.063008
9863.000000;0.062662
9862.000000;0.062294
9861.000000;0.061863
9860.000000;0.061401
9859.000000;0.060954
9858.000000;0.060544
9857.000000;0.060161
9856.000000;0.059769
9855.000000;0.059335
9854.000000;0.058852
9853.000000;0.058330
9852.000000;0.057792
9851.000000;0.057284
9850.000000;0.056863
9849.000000;0.056528
9848.000000;0.056179
9847.000000;0.055700
9846.000000;0.055093
9845.000000;0.054479
9844.000000;0.053969
9843.000000;0.053566
9842.000000;0.053186
9841.000000;0.052735
9840.000000;0.052166
9839.000000;0.051508
9838.000000;0.050868
9837.000000;0.050354
9836.000000;0.049968
9835.000000;0.049621
9834.000000;0.049237
9833.000000;0.048814
9832.000000;0.048367
9831.000000;0.047894
9830.000000;0.047428
9829.000000;0.047040
9828.000000;0.046722
9827.000000;0.046330
9826.000000;0.045741
9825.000000;0.045041
9824.000000;0.044468
9823.000000;0.044132
9822.000000;0.043888
9821.000000;0.043513
9820.000000;0.042967
9819.000000;0.042410
9818.000000;0.042006
9817.000000;0.041764
9816.000000;0.041559
9815.000000;0.041274
9814.000000;0.040876
9813.000000;0.040397
9812.000000;0.039864
9811.000000;0.039284
9810.000000;0.038675
9809.000000;0.038101
9808.000000;0.037632
9807.000000;0.037275
9806.000000;0.036956
9805.000000;0.036573
9804.000000;0.036073
9803.000000;0.035485
9802.000000;0.034900
9801.000000;0.034394
9800.000000;0.033974
9799.000000;0.033592
9798.000000;0.033210
9797.000000;0.032823
9796.000000;0.032414
9795.000000;0.031920
9794.000000;0.031316
9793.000000;0.030691
9792.000000;0.030186
9791.000000;0.029819
9790.000000;0.029457
9789.000000;0.028970
9788.000000;0.028381
9787.000000;0.027807
9786.000000;0.027312
9785.000000;0.026875
9784.000000;0.026469
9783.000000;0.026083
9782.000000;0.025679
9781.000000;0.025190
9780.000000;0.024619
9779.000000;0.024061
9778.000000;0.023604
9777.000000;0.023224
9776.000000;0.022825
9775.000000;0.022356
9774.000000;0.021850
9773.000000;0.021362
9772.000000;0.020911
9771.000000;0.020499
9770.000000;0.020138
9769.000000;0.019834
9768.000000;0.019550
9767.000000;0.019204
9766.000000;0.018746
9765.000000;0.018205
9764.000000;0.017665
9763.000000;0.017184
9762.000000;0.016748
9761.000000;0.016303
9760.000000;0.015809
9759.000000;0.015254
9758.000000;0.014654
9757.000000;0.014063
9756.000000;0.013587
9755.000000;0.013307
9754.000000;0.013191
9753.000000;0.013093
9752.000000;0.012884
9751.000000;0.012545
9750.000000;0.012131
9749.000000;0.011677
9748.000000;0.011186
9747.000000;0.010670
9746.000000;0.010161
9745.000000;0.009664
9744.000000;0.009151
9743.000000;0.008603
9742.000000;0.008041
9741.000000;0.007505
9740.000000;0.007023
9739.000000;0.006601
9738.000000;0.006224
9737.000000;0.005866
9736.000000;0.005511
9735.000000;0.005167
9734.000000;0.004825
9733.000000;0.004430
9732.000000;0.003936
9731.000000;0.003385
9730.000000;0.002892
9729.000000;0.002518
9728.000000;0.002192
9727.000000;0.001789
9726.000000;0.001263
9725.000000;0.000685
9724.000000;0.000161
9723.000000;-0.000248
9722.000000;-0.000555
9721.000000;-0.000830
9720.000000;-0.001166
9719.000000;-0.001626
9718.000000;-0.002205
9717.000000;-0.002846
9716.000000;-0.003470
9715.000000;-0.003998
9714.000000;-0.004372
9713.000000;-0.004613
9712.000000;-0.004850
9711.000000;-0.005245
9710.000000;-0.005851
9709.000000;-0.006553
9708.000000;-0.007156
9707.000000;-0.007543
9706.000000;-0.007752
9705.000000;-0.007928
9704.000000;-0.008211
9703.000000;-0.008634
9702.000000;-0.009109
9701.000000;-0.009522
9700.000000;-0.009849
9699.000000;-0.010172
9698.000000;-0.010568
9697.000000;-0.011005
9696.000000;-0.011392
9695.000000;-0.011707
9694.000000;-0.012040
9693.000000;-0.012482
9692.000000;-0.013022
9691.000000;-0.013584
9690.000000;-0.014133
9689.000000;-0.014696
9688.000000;-0.015285
9687.000000;-0.015854
9686.000000;-0.016344
9685.000000;-0.016740
9684.000000;-0.017051
9683.000000;-0.017284
9682.000000;-0.017466
9681.000000;-0.017677
9680.000000;-0.018001
9679.000000;-0.018453
9678.000000;-0.018970
9677.000000;-0.019487
9676.000000;-0.019992
9675.000000;-0.020498
9674.000000;-0.021007
9673.000000;-0.021508
9672.000000;-0.021981
9671.000000;-0.022396
9670.000000;-0.022746
9669.000000;-0.023074
9668.000000;-0.023440
9667.000000;-0.023839
9666.000000;-0.024205
9665.000000;-0.024529
9664.000000;-0.024918
9663.000000;-0.025460
9662.000000;-0.026094
9661.000000;-0.026658
9660.000000;-0.027053
9659.000000;-0.027311
9658.000000;-0.027514
9657.000000;-0.027740
9656.000000;-0.028075
9655.000000;-0.028574
9654.000000;-0.029180
9653.000000;-0.029746
9652.000000;-0.030187
9651.000000;-0.030556
9650.000000;-0.030941
9649.000000;-0.031353
9648.000000;-0.031760
9647.000000;-0.032169
9646.000000;-0.032600
9645.000000;-0.033017
9644.000000;-0.033370
9643.000000;-0.033689
9642.000000;-0.034062
9641.000000;-0.034518
9640.000000;-0.035007
9639.000000;-0.035479
9638.000000;-0.035924
9637.000000;-0.036337
9636.000000;-0.036709
9635.000000;-0.037078
9634.000000;-0.037504
9633.000000;-0.037972
9632.000000;-0.038381
9631.000000;-0.038673
9630.000000;-0.038924
9629.000000;-0.039258
9628.000000;-0.039701
9627.000000;-0.040191
9626.000000;-0.040685
9625.000000;-0.041181
9624.000000;-0.041654
9623.000000;-0.042037
9622.000000;-0.042306
9621.000000;-0.042546
9620.000000;-0.042879
9619.000000;-0.043352
9618.000000;-0.043898
9617.000000;-0.044406
9616.000000;-0.044821
9615.000000;-0.045172
9614.000000;-0.045532
9613.000000;-0.045937
9612.000000;-0.046375
9611.000000;-0.046826
9610.000000;-0.047294
9609.000000;-0.047784
9608.000000;-0.048253
9607.000000;-0.048625
9606.000000;-0.048879
9605.000000;-0.049091
9604.000000;-0.049376
9603.000000;-0.049788
9602.000000;-0.050276
9601.000000;-0.050746
9600.000000;-0.051156
9599.000000;-0.051543
9598.000000;-0.051957
9597.000000;-0.052390
9596.000000;-0.052778
9595.000000;-0.053101
9594.000000;-0.053427
9593.000000;-0.053847
9592.000000;-0.054379
9591.000000;-0.054945
9590.000000;-0.055445
9589.000000;-0.055831
9588.000000;-0.056121
9587.000000;-0.056387
9586.000000;-0.056720
9585.000000;-0.057181
9584.000000;-0.057745
9583.000000;-0.058312
9582.000000;-0.058774
9581.000000;-0.059069
9580.000000;-0.059200
9579.000000;-0.059233
9578.000000;-0.059304
9577.000000;-0.059570
9576.000000;-0.060087
9575.000000;-0.060746
9574.000000;-0.061352
9573.000000;-0.061778
9572.000000;-0.062039
9571.000000;-0.062238
9570.000000;-0.062478
9569.000000;-0.062812
9568.000000;-0.063237
9567.000000;-0.063703
9566.000000;-0.064149
9565.000000;-0.064545
9564.000000;-0.064921
9563.000000;-0.065324
9562.000000;-0.065766
9561.000000;-0.066207
9560.000000;-0.066598
9559.000000;-0.066924
9558.000000;-0.067224
9557.000000;-0.067561
9556.000000;-0.067973
9555.000000;-0.068430
9554.000000;-0.068849
9553.000000;-0.069167
9552.000000;-0.069403
9551.000000;-0.069641
9550.000000;-0.069947
9549.000000;-0.070314
9548.000000;-0.070702
9547.000000;-0.071112
9546.000000;-0.071588
9545.000000;-0.072130
9544.000000;-0.072647
9543.000000;-0.073038
9542.000000;-0.073321
9541.000000;-0.073617
9540.000000;-0.074013
9539.000000;-0.074447
9538.000000;-0.074798
9537.000000;-0.075050
9536.000000;-0.075327
9535.000000;-0.075743
9534.000000;-0.076260
9533.000000;-0.076731
9532.000000;-0.077071
9531.000000;-0.077335
9530.000000;-0.077628
9529.000000;-0.077984
9528.000000;-0.078342
9527.000000;-0.078641
9526.000000;-0.078885
9525.000000;-0.079117
9524.000000;-0.079372
9523.000000;-0.079665
9522.000000;-0.080018
9521.000000;-0.080460
9520.000000;-0.080979
9519.000000;-0.081497
9518.000000;-0.081912
9517.000000;-0.082189
9516.000000;-0.082418
9515.000000;-0.082739
9514.000000;-0.083219
9513.000000;-0.083788
9512.000000;-0.084307
9511.000000;-0.084696
9510.000000;-0.084994
9509.000000;-0.085304
9508.000000;-0.085689
9507.000000;-0.086121
9506.000000;-0.086513
9505.000000;-0.086806
9504.000000;-0.087023
9503.000000;-0.087247
9502.000000;-0.087533
9501.000000;-0.087876
9500.000000;-0.088251
9499.000000;-0.088664
9498.000000;-0.089126
9497.000000;-0.089591
9496.000000;-0.089982
9495.000000;-0.090280
9494.000000;-0.090553
9493.000000;-0.090865
9492.000000;-0.091201
9491.000000;-0.091509
9490.000000;-0.091789
9489.000000;-0.092085
9488.000000;-0.092418
9487.000000;-0.092757
9486.000000;-0.093077
9485.000000;-0.093393
9484.000000;-0.093735
9483.000000;-0.094131
9482.000000;-0.094603
9481.000000;-0.095159
9480.000000;-0.095741
9479.000000;-0.096230
9478.000000;-0.096526
9477.000000;-0.096646
9476.000000;-0.096720
9475.000000;-0.096897
9474.000000;-0.097236
9473.000000;-0.097690
9472.000000;-0.098148
9471.000000;-0.098524
9470.000000;-0.098809
9469.000000;-0.099075
9468.000000;-0.099404
9467.000000;-0.099813
9466.000000;-0.100234
9465.000000;-0.100579
9464.000000;-0.100829
9463.000000;-0.101053
9462.000000;-0.101336
9461.000000;-0.101708
9460.000000;-0.102139
9459.000000;-0.102594
9458.000000;-0.103053
9457.000000;-0.103485
9456.000000;-0.103849
9455.000000;-0.104136
9454.000000;-0.104389
9453.000000;-0.104657
9452.000000;-0.104954
9451.000000;-0.105271
9450.000000;-0.105617
9449.000000;-0.106014
9448.000000;-0.106464
9447.000000;-0.106941
9446.000000;-0.107409
9445.000000;-0.107832
9444.000000;-0.108175
9443.000000;-0.108434
9442.000000;-0.108650
9441.000000;-0.108877
9440.000000;-0.109115
9439.000000;-0.109335
9438.000000;-0.109555
9437.000000;-0.109848
9436.000000;-0.110259
9435.000000;-0.110731
9434.000000;-0.111148
9433.000000;-0.111442
9432.000000;-0.111636
9431.000000;-0.111811
9430.000000;-0.112054
9429.000000;-0.112400
9428.000000;-0.112828
9427.000000;-0.113286
9426.000000;-0.113739
9425.000000;-0.114170
9424.000000;-0.114555
9423.000000;-0.114884
9422.000000;-0.115206
9421.000000;-0.115603
9420.000000;-0.116080
9419.000000;-0.116524
9418.000000;-0.116813
9417.000000;-0.116955
9416.000000;-0.117065
9415.000000;-0.117241
9414.000000;-0.117497
9413.000000;-0.117804
9412.000000;-0.118135
9411.000000;-0.118450
9410.000000;-0.118718
9409.000000;-0.118961
9408.000000;-0.119254
9407.000000;-0.119647
9406.000000;-0.120103
9405.000000;-0.120543
9404.000000;-0.120928
9403.000000;-0.121274
9402.000000;-0.121598
9401.000000;-0.121896
9400.000000;-0.122164
9399.000000;-0.122417
9398.000000;-0.122671
9397.000000;-0.122930
9396.000000;-0.123205
9395.000000;-0.123532
9394.000000;-0.123940
9393.000000;-0.124405
9392.000000;-0.124842
9391.000000;-0.125170
9390.000000;-0.125376
9389.000000;-0.125514
9388.000000;-0.125654
9387.000000;-0.125845
9386.000000;-0.126112
9385.000000;-0.126468
9384.000000;-0.126884
9383.000000;-0.127281
9382.000000;-0.127584
9381.000000;-0.127805
9380.000000;-0.128042
9379.000000;-0.128368
9378.000000;-0.128753
9377.000000;-0.129114
9376.000000;-0.129416
9375.000000;-0.129696
9374.000000;-0.129986
9373.000000;-0.130273
9372.000000;-0.130543
9371.000000;-0.130822
9370.000000;-0.131156
9369.000000;-0.131554
9368.000000;-0.131974
9367.000000;-0.132363
9366.000000;-0.132684
9365.000000;-0.132943
9364.000000;-0.133188
9363.000000;-0.133489
9362.000000;-0.133856
9361.000000;-0.134219
9360.000000;-0.134511
9359.000000;-0.134752
9358.000000;-0.135020
9357.000000;-0.135323
9356.000000;-0.135599
9355.000000;-0.135825
9354.000000;-0.136074
9353.000000;-0.136411
9352.000000;-0.136774
9351.000000;-0.137053
9350.000000;-0.137241
9349.000000;-0.137442
9348.000000;-0.137730
9347.000000;-0.138063
9346.000000;-0.138365
9345.000000;-0.138626
9344.000000;-0.138886
9343.000000;-0.139155
9342.000000;-0.139422
9341.000000;-0.139713
9340.000000;-0.140087
9339.000000;-0.140559
9338.000000;-0.141048
9337.000000;-0.141436
9336.000000;-0.141679
9335.000000;-0.141842
9334.000000;-0.142016
9333.000000;-0.142225
9332.000000;-0.142420
9331.000000;-0.142571
9330.000000;-0.142712
9329.000000;-0.142904
9328.000000;-0.143173
9327.000000;-0.143518
9326.000000;-0.143934
9325.000000;-0.144399
9324.000000;-0.144836
9323.000000;-0.145159
9322.000000;-0.145359
9321.000000;-0.145526
9320.000000;-0.145755
9319.000000;-0.146073
9318.000000;-0.146436
9317.000000;-0.146792
9316.000000;-0.147113
9315.000000;-0.147397
9314.000000;-0.147670
9313.000000;-0.147959
9312.000000;-0.148266
9311.000000;-0.148565
9310.000000;-0.148845
9309.000000;-0.149125
9308.000000;-0.149417
9307.000000;-0.149699
9306.000000;-0.149944
9305.000000;-0.150172
9304.000000;-0.150441
9303.000000;-0.150768
9302.000000;-0.151093
9301.000000;-0.151329
9300.000000;-0.151457
9299.000000;-0.151559
9298.000000;-0.151733
9297.000000;-0.151998
9296.000000;-0.152291
9295.000000;-0.152558
9294.000000;-0.152811
9293.000000;-0.153095
9292.000000;-0.153416
9291.000000;-0.153748
9290.000000;-0.154068
9289.000000;-0.154367
9288.000000;-0.154633
9287.000000;-0.154865
9286.000000;-0.155087
9285.000000;-0.155316
9284.000000;-0.155541
9283.000000;-0.155752
9282.000000;-0.155991
9281.000000;-0.156309
9280.000000;-0.156683
9279.000000;-0.157035
9278.000000;-0.157333
9277.000000;-0.157619
9276.000000;-0.157923
9275.000000;-0.158218
9274.000000;-0.158493
9273.000000;-0.158786
9272.000000;-0.159117
9271.000000;-0.159424
9270.000000;-0.159636
9269.000000;-0.159774
9268.000000;-0.159920
9267.000000;-0.160113
9266.000000;-0.160325
9265.000000;-0.160538
9264.000000;-0.160790
9263.000000;-0.161113
9262.000000;-0.161494
9261.000000;-0.161889
9260.000000;-0.162271
9259.000000;-0.162631
9258.000000;-0.162955
9257.000000;-0.163210
9256.000000;-0.163365
9255.000000;-0.163422
9254.000000;-0.163442
9253.000000;-0.163518
9252.000000;-0.163705
9251.000000;-0.163989
9250.000000;-0.164325
9249.000000;-0.164688
9248.000000;-0.165057
9247.000000;-0.165383
9246.000000;-0.165626
9245.000000;-0.165811
9244.000000;-0.166013
9243.000000;-0.166275
9242.000000;-0.166564
9241.000000;-0.166816
9240.000000;-0.167023
9239.000000;-0.167239
9238.000000;-0.167524
9237.000000;-0.167868
9236.000000;-0.168186
9235.000000;-0.168401
9234.000000;-0.168532
9233.000000;-0.168683
9232.000000;-0.168933
9231.000000;-0.169255
9230.000000;-0.169562
9229.000000;-0.169811
9228.000000;-0.170037
9227.000000;-0.170287
9226.000000;-0.170561
9225.000000;-0.170817
9224.000000;-0.171019
9223.000000;-0.171168
9222.000000;-0.171298
9221.000000;-0.171458
9220.000000;-0.171666
9219.000000;-0.171906
9218.000000;-0.172161
9217.000000;-0.172432
9216.000000;-0.172715
9215.000000;-0.172968
9214.000000;-0.173139
9213.000000;-0.173225
9212.000000;-0.173295
9211.000000;-0.173437
9210.000000;-0.173698
9209.000000;-0.174063
9208.000000;-0.174473
9207.000000;-0.174864
9206.000000;-0.175186
9205.000000;-0.175422
9204.000000;-0.175585
9203.000000;-0.175714
9202.000000;-0.175850
9201.000000;-0.176022
9200.000000;-0.176235
9199.000000;-0.176488
9198.000000;-0.176775
9197.000000;-0.177073
9196.000000;-0.177341
9195.000000;-0.177570
9194.000000;-0.177821
9193.000000;-0.178159
9192.000000;-0.178553
9191.000000;-0.178894
9190.000000;-0.179118
9189.000000;-0.179282
9188.000000;-0.179478
9187.000000;-0.179724
9186.000000;-0.179971
9185.000000;-0.180179
9184.000000;-0.180351
9183.000000;-0.180503
9182.000000;-0.180653
9181.000000;-0.180826
9180.000000;-0.181022
9179.000000;-0.181214
9178.000000;-0.181388
9177.000000;-0.181591
9176.000000;-0.181871
9175.000000;-0.182202
9174.000000;-0.182509
9173.000000;-0.182762
9172.000000;-0.182993
9171.000000;-0.183214
9170.000000;-0.183398
9169.000000;-0.183549
9168.000000;-0.183726
9167.000000;-0.183958
9166.000000;-0.184194
9165.000000;-0.184366
9164.000000;-0.184500
9163.000000;-0.184694
9162.000000;-0.185001
9161.000000;-0.185365
9160.000000;-0.185688
9159.000000;-0.185929
9158.000000;-0.186124
9157.000000;-0.186314
9156.000000;-0.186483
9155.000000;-0.186582
9154.000000;-0.186613
9153.000000;-0.186659
9152.000000;-0.186817
9151.000000;-0.187107
9150.000000;-0.187465
9149.000000;-0.187806
9148.000000;-0.188071
9147.000000;-0.188244
9146.000000;-0.188357
9145.000000;-0.188490
9144.000000;-0.188715
9143.000000;-0.189021
9142.000000;-0.189317
9141.000000;-0.189525
9140.000000;-0.189648
9139.000000;-0.189769
9138.000000;-0.189976
9137.000000;-0.190304
9136.000000;-0.190709
9135.000000;-0.191084
9134.000000;-0.191339
9133.000000;-0.191459
9132.000000;-0.191504
9131.000000;-0.191542
9130.000000;-0.191627
9129.000000;-0.191802
9128.000000;-0.192080
9127.000000;-0.192405
9126.000000;-0.192676
9125.000000;-0.192855
9124.000000;-0.193005
9123.000000;-0.193200
9122.000000;-0.193430
9121.000000;-0.193621
9120.000000;-0.193748
9119.000000;-0.193867
9118.000000;-0.194044
9117.000000;-0.194277
9116.000000;-0.194506
9115.000000;-0.194688
9114.000000;-0.194846
9113.000000;-0.195037
9112.000000;-0.195280
9111.000000;-0.195529
9110.000000;-0.195719
9109.000000;-0.195852
9108.000000;-0.195990
9107.000000;-0.196188
9106.000000;-0.196440
9105.000000;-0.196716
9104.000000;-0.196998
9103.000000;-0.197273
9102.000000;-0.197503
9101.000000;-0.197654
9100.000000;-0.197745
9099.000000;-0.197847
9098.000000;-0.198020
9097.000000;-0.198258
9096.000000;-0.198500
9095.000000;-0.198681
9094.000000;-0.198787
9093.000000;-0.198861
9092.000000;-0.198971
9091.000000;-0.199151
9090.000000;-0.199378
9089.000000;-0.199610
9088.000000;-0.199837
9087.000000;-0.200080
9086.000000;-0.200351
9085.000000;-0.200617
9084.000000;-0.200823
9083.000000;-0.200943
