Criado como novo conjunto de dados;"e2410_daniel_v2.spp","92706.9 Secs"
cm-1;Abs
10000.000000;0.110979
9999.000000;0.111426
9998.000000;0.111982
9997.000000;0.112654
9996.000000;0.113359
9995.000000;0.114055
9994.000000;0.114720
9993.000000;0.115312
9992.000000;0.115806
9991.000000;0.116264
9990.000000;0.116797
9989.000000;0.117460
9988.000000;0.118222
9987.000000;0.119034
9986.000000;0.119873
9985.000000;0.120701
9984.000000;0.121445
9983.000000;0.122044
9982.000000;0.122527
9981.000000;0.122995
9980.000000;0.123538
9979.000000;0.124154
9978.000000;0.124765
9977.000000;0.125304
9976.000000;0.125789
9975.000000;0.126283
9974.000000;0.126811
9973.000000;0.127342
9972.000000;0.127856
9971.000000;0.128375
9970.000000;0.128923
9969.000000;0.129506
9968.000000;0.130152
9967.000000;0.130926
9966.000000;0.131832
9965.000000;0.132744
9964.000000;0.133495
9963.000000;0.134047
9962.000000;0.134511
9961.000000;0.135016
9960.000000;0.135609
9959.000000;0.136253
9958.000000;0.136871
9957.000000;0.137387
9956.000000;0.137794
9955.000000;0.138206
9954.000000;0.138772
9953.000000;0.139525
9952.000000;0.140352
9951.000000;0.141142
9950.000000;0.141905
9949.000000;0.142691
9948.000000;0.143440
9947.000000;0.143999
9946.000000;0.144285
9945.000000;0.144415
9944.000000;0.144649
9943.000000;0.145186
9942.000000;0.146019
9941.000000;0.146964
9940.000000;0.147836
9939.000000;0.148576
9938.000000;0.149229
9937.000000;0.149846
9936.000000;0.150455
9935.000000;0.151093
9934.000000;0.151765
9933.000000;0.152372
9932.000000;0.152779
9931.000000;0.153012
9930.000000;0.153315
9929.000000;0.153931
9928.000000;0.154855
9927.000000;0.155859
9926.000000;0.156748
9925.000000;0.157507
9924.000000;0.158218
9923.000000;0.158916
9922.000000;0.159589
9921.000000;0.160249
9920.000000;0.160950
9919.000000;0.161722
9918.000000;0.162532
9917.000000;0.163324
9916.000000;0.164077
9915.000000;0.164807
9914.000000;0.165527
9913.000000;0.166227
9912.000000;0.166900
9911.000000;0.167549
9910.000000;0.168169
9909.000000;0.168719
9908.000000;0.169151
9907.000000;0.169464
9906.000000;0.169733
9905.000000;0.170077
9904.000000;0.170612
9903.000000;0.171384
9902.000000;0.172340
9901.000000;0.173345
9900.000000;0.174271
9899.000000;0.175069
9898.000000;0.175759
9897.000000;0.176355
9896.000000;0.176843
9895.000000;0.177234
9894.000000;0.177631
9893.000000;0.178213
9892.000000;0.179118
9891.000000;0.180316
9890.000000;0.181570
9889.000000;0.182584
9888.000000;0.183233
9887.000000;0.183662
9886.000000;0.184128
9885.000000;0.184777
9884.000000;0.185584
9883.000000;0.186451
9882.000000;0.187308
9881.000000;0.188106
9880.000000;0.188814
9879.000000;0.189423
9878.000000;0.189937
9877.000000;0.190358
9876.000000;0.190738
9875.000000;0.191243
9874.000000;0.192048
9873.000000;0.193135
9872.000000;0.194252
9871.000000;0.195158
9870.000000;0.195859
9869.000000;0.196549
9868.000000;0.197341
9867.000000;0.198149
9866.000000;0.198841
9865.000000;0.199422
9864.000000;0.200018
9863.000000;0.200717
9862.000000;0.201463
9861.000000;0.202120
9860.000000;0.202638
9859.000000;0.203153
9858.000000;0.203881
9857.000000;0.204881
9856.000000;0.205939
9855.000000;0.206751
9854.000000;0.207238
9853.000000;0.207634
9852.000000;0.208226
9851.000000;0.209076
9850.000000;0.210025
9849.000000;0.210916
9848.000000;0.211733
9847.000000;0.212525
9846.000000;0.213287
9845.000000;0.213961
9844.000000;0.214521
9843.000000;0.215027
9842.000000;0.215576
9841.000000;0.216234
9840.000000;0.217000
9839.000000;0.217841
9838.000000;0.218742
9837.000000;0.219697
9836.000000;0.220644
9835.000000;0.221451
9834.000000;0.222057
9833.000000;0.222581
9832.000000;0.223208
9831.000000;0.223946
9830.000000;0.224614
9829.000000;0.225119
9828.000000;0.225634
9827.000000;0.226389
9826.000000;0.227351
9825.000000;0.228274
9824.000000;0.229035
9823.000000;0.229742
9822.000000;0.230483
9821.000000;0.231147
9820.000000;0.231615
9819.000000;0.232003
9818.000000;0.232585
9817.000000;0.233503
9816.000000;0.234636
9815.000000;0.235732
9814.000000;0.236584
9813.000000;0.237124
9812.000000;0.237435
9811.000000;0.237680
9810.000000;0.237971
9809.000000;0.238329
9808.000000;0.238815
9807.000000;0.239622
9806.000000;0.240909
9805.000000;0.242555
9804.000000;0.244189
9803.000000;0.245483
9802.000000;0.246352
9801.000000;0.246886
9800.000000;0.247222
9799.000000;0.247549
9798.000000;0.248082
9797.000000;0.248934
9796.000000;0.250021
9795.000000;0.251145
9794.000000;0.252159
9793.000000;0.253004
9792.000000;0.253669
9791.000000;0.254205
9790.000000;0.254748
9789.000000;0.255430
9788.000000;0.256248
9787.000000;0.257082
9786.000000;0.257831
9785.000000;0.258500
9784.000000;0.259117
9783.000000;0.259649
9782.000000;0.260046
9781.000000;0.260384
9780.000000;0.260913
9779.000000;0.261906
9778.000000;0.263411
9777.000000;0.265132
9776.000000;0.266613
9775.000000;0.267587
9774.000000;0.268169
9773.000000;0.268696
9772.000000;0.269411
9771.000000;0.270317
9770.000000;0.271256
9769.000000;0.272039
9768.000000;0.272517
9767.000000;0.272680
9766.000000;0.272752
9765.000000;0.273064
9764.000000;0.273772
9763.000000;0.274749
9762.000000;0.275795
9761.000000;0.276869
9760.000000;0.278014
9759.000000;0.279168
9758.000000;0.280188
9757.000000;0.281050
9756.000000;0.281864
9755.000000;0.282682
9754.000000;0.283442
9753.000000;0.284121
9752.000000;0.284795
9751.000000;0.285483
9750.000000;0.286072
9749.000000;0.286496
9748.000000;0.286903
9747.000000;0.287522
9746.000000;0.288411
9745.000000;0.289431
9744.000000;0.290432
9743.000000;0.291393
9742.000000;0.292399
9741.000000;0.293544
9740.000000;0.294780
9739.000000;0.295841
9738.000000;0.296445
9737.000000;0.296670
9736.000000;0.297013
9735.000000;0.297901
9734.000000;0.299220
9733.000000;0.300496
9732.000000;0.301449
9731.000000;0.302170
9730.000000;0.302800
9729.000000;0.303337
9728.000000;0.303827
9727.000000;0.304466
9726.000000;0.305326
9725.000000;0.306196
9724.000000;0.306863
9723.000000;0.307439
9722.000000;0.308197
9721.000000;0.309150
9720.000000;0.310027
9719.000000;0.310646
9718.000000;0.311141
9717.000000;0.311768
9716.000000;0.312601
9715.000000;0.313503
9714.000000;0.314341
9713.000000;0.315153
9712.000000;0.316087
9711.000000;0.317188
9710.000000;0.318309
9709.000000;0.319247
9708.000000;0.319976
9707.000000;0.320651
9706.000000;0.321394
9705.000000;0.322160
9704.000000;0.322865
9703.000000;0.323566
9702.000000;0.324411
9701.000000;0.325434
9700.000000;0.326439
9699.000000;0.327130
9698.000000;0.327367
9697.000000;0.327377
9696.000000;0.327659
9695.000000;0.328589
9694.000000;0.330048
9693.000000;0.331499
9692.000000;0.332489
9691.000000;0.333001
9690.000000;0.333320
9689.000000;0.333718
9688.000000;0.334329
9687.000000;0.335166
9686.000000;0.336095
9685.000000;0.336887
9684.000000;0.337491
9683.000000;0.338190
9682.000000;0.339328
9681.000000;0.340886
9680.000000;0.342458
9679.000000;0.343627
9678.000000;0.344231
9677.000000;0.344312
9676.000000;0.344042
9675.000000;0.343785
9674.000000;0.344007
9673.000000;0.344947
9672.000000;0.346412
9671.000000;0.347970
9670.000000;0.349280
9669.000000;0.350214
9668.000000;0.350794
9667.000000;0.351180
9666.000000;0.351646
9665.000000;0.352389
9664.000000;0.353346
9663.000000;0.354306
9662.000000;0.355199
9661.000000;0.356140
9660.000000;0.357151
9659.000000;0.358020
9658.000000;0.358565
9657.000000;0.358925
9656.000000;0.359414
9655.000000;0.360136
9654.000000;0.360931
9653.000000;0.361696
9652.000000;0.362552
9651.000000;0.363588
9650.000000;0.364624
9649.000000;0.365399
9648.000000;0.365903
9647.000000;0.366338
9646.000000;0.366817
9645.000000;0.367278
9644.000000;0.367712
9643.000000;0.368248
9642.000000;0.368970
9641.000000;0.369780
9640.000000;0.370538
9639.000000;0.371219
9638.000000;0.371863
9637.000000;0.372488
9636.000000;0.373154
9635.000000;0.373992
9634.000000;0.375016
9633.000000;0.375971
9632.000000;0.376540
9631.000000;0.376728
9630.000000;0.376921
9629.000000;0.377517
9628.000000;0.378565
9627.000000;0.379811
9626.000000;0.381026
9625.000000;0.382192
9624.000000;0.383346
9623.000000;0.384340
9622.000000;0.384905
9621.000000;0.384995
9620.000000;0.384947
9619.000000;0.385171
9618.000000;0.385742
9617.000000;0.386407
9616.000000;0.386981
9615.000000;0.387557
9614.000000;0.388317
9613.000000;0.389289
9612.000000;0.390372
9611.000000;0.391452
9610.000000;0.392391
9609.000000;0.393015
9608.000000;0.393277
9607.000000;0.393377
9606.000000;0.393580
9605.000000;0.393969
9604.000000;0.394488
9603.000000;0.395182
9602.000000;0.396186
9601.000000;0.397417
9600.000000;0.398449
9599.000000;0.398867
9598.000000;0.398744
9597.000000;0.398650
9596.000000;0.399120
9595.000000;0.400164
9594.000000;0.401314
9593.000000;0.402100
9592.000000;0.402454
9591.000000;0.402651
9590.000000;0.402989
9589.000000;0.403574
9588.000000;0.404300
9587.000000;0.404942
9586.000000;0.405358
9585.000000;0.405714
9584.000000;0.406434
9583.000000;0.407751
9582.000000;0.409329
9581.000000;0.410513
9580.000000;0.411007
9579.000000;0.411123
9578.000000;0.411339
9577.000000;0.411818
9576.000000;0.412471
9575.000000;0.413181
9574.000000;0.413778
9573.000000;0.413976
9572.000000;0.413682
9571.000000;0.413336
9570.000000;0.413650
9569.000000;0.414892
9568.000000;0.416548
9567.000000;0.417807
9566.000000;0.418337
9565.000000;0.418501
9564.000000;0.418847
9563.000000;0.419512
9562.000000;0.420170
9561.000000;0.420482
9560.000000;0.420470
9559.000000;0.420418
9558.000000;0.420542
9557.000000;0.420869
9556.000000;0.421347
9555.000000;0.421875
9554.000000;0.422244
9553.000000;0.422279
9552.000000;0.422090
9551.000000;0.422049
9550.000000;0.422465
9549.000000;0.423361
9548.000000;0.424583
9547.000000;0.425955
9546.000000;0.427258
9545.000000;0.428265
9544.000000;0.428909
9543.000000;0.429331
9542.000000;0.429652
9541.000000;0.429855
9540.000000;0.429954
9539.000000;0.430092
9538.000000;0.430338
9537.000000;0.430582
9536.000000;0.430756
9535.000000;0.431014
9534.000000;0.431505
9533.000000;0.432130
9532.000000;0.432697
9531.000000;0.433171
9530.000000;0.433591
9529.000000;0.433876
9528.000000;0.433983
9527.000000;0.434143
9526.000000;0.434656
9525.000000;0.435486
9524.000000;0.436312
9523.000000;0.436923
9522.000000;0.437325
9521.000000;0.437515
9520.000000;0.437448
9519.000000;0.437260
9518.000000;0.437232
9517.000000;0.437424
9516.000000;0.437580
9515.000000;0.437505
9514.000000;0.437345
9513.000000;0.437404
9512.000000;0.437801
9511.000000;0.438400
9510.000000;0.438930
9509.000000;0.439123
9508.000000;0.438906
9507.000000;0.438546
9506.000000;0.438471
9505.000000;0.438874
9504.000000;0.439572
9503.000000;0.440275
9502.000000;0.440816
9501.000000;0.441099
9500.000000;0.441073
9499.000000;0.440886
9498.000000;0.440888
9497.000000;0.441255
9496.000000;0.441733
9495.000000;0.441924
9494.000000;0.441759
9493.000000;0.441529
9492.000000;0.441524
9491.000000;0.441799
9490.000000;0.442250
9489.000000;0.442747
9488.000000;0.443167
9487.000000;0.443438
9486.000000;0.443614
9485.000000;0.443825
9484.000000;0.444130
9483.000000;0.444462
9482.000000;0.444743
9481.000000;0.444970
9480.000000;0.445160
9479.000000;0.445277
9478.000000;0.445286
9477.000000;0.445266
9476.000000;0.445385
9475.000000;0.445710
9474.000000;0.446070
9473.000000;0.446172
9472.000000;0.445875
9471.000000;0.445346
9470.000000;0.444929
9469.000000;0.444934
9468.000000;0.445498
9467.000000;0.446488
9466.000000;0.447426
9465.000000;0.447698
9464.000000;0.447090
9463.000000;0.446115
9462.000000;0.445590
9461.000000;0.445833
9460.000000;0.446389
9459.000000;0.446568
9458.000000;0.446126
9457.000000;0.445390
9456.000000;0.444900
9455.000000;0.445064
9454.000000;0.445966
9453.000000;0.447276
9452.000000;0.448370
9451.000000;0.448723
9450.000000;0.448256
9449.000000;0.447295
9448.000000;0.446245
9447.000000;0.445369
9446.000000;0.444791
9445.000000;0.444509
9444.000000;0.444405
9443.000000;0.444312
9442.000000;0.444137
9441.000000;0.443918
9440.000000;0.443755
9439.000000;0.443732
9438.000000;0.443842
9437.000000;0.443968
9436.000000;0.444014
9435.000000;0.444088
9434.000000;0.444457
9433.000000;0.445156
9432.000000;0.445718
9431.000000;0.445514
9430.000000;0.444440
9429.000000;0.443111
9428.000000;0.442304
9427.000000;0.442287
9426.000000;0.442726
9425.000000;0.443114
9424.000000;0.443176
9423.000000;0.442948
9422.000000;0.442636
9421.000000;0.442431
9420.000000;0.442351
9419.000000;0.442227
9418.000000;0.441867
9417.000000;0.441262
9416.000000;0.440598
9415.000000;0.440080
9414.000000;0.439769
9413.000000;0.439579
9412.000000;0.439408
9411.000000;0.439256
9410.000000;0.439210
9409.000000;0.439286
9408.000000;0.439328
9407.000000;0.439128
9406.000000;0.438708
9405.000000;0.438341
9404.000000;0.438184
9403.000000;0.438032
9402.000000;0.437636
9401.000000;0.437183
9400.000000;0.437166
9399.000000;0.437696
9398.000000;0.438217
9397.000000;0.438101
9396.000000;0.437378
9395.000000;0.436632
9394.000000;0.436287
9393.000000;0.436263
9392.000000;0.436257
9391.000000;0.436090
9390.000000;0.435703
9389.000000;0.435092
9388.000000;0.434370
9387.000000;0.433751
9386.000000;0.433328
9385.000000;0.432963
9384.000000;0.432506
9383.000000;0.432000
9382.000000;0.431572
9381.000000;0.431215
9380.000000;0.430815
9379.000000;0.430296
9378.000000;0.429665
9377.000000;0.428983
9376.000000;0.428415
9375.000000;0.428202
9374.000000;0.428406
9373.000000;0.428737
9372.000000;0.428792
9371.000000;0.428474
9370.000000;0.428040
9369.000000;0.427733
9368.000000;0.427515
9367.000000;0.427174
9366.000000;0.426559
9365.000000;0.425673
9364.000000;0.424661
9363.000000;0.423784
9362.000000;0.423308
9361.000000;0.423304
9360.000000;0.423565
9359.000000;0.423725
9358.000000;0.423489
9357.000000;0.422820
9356.000000;0.422006
9355.000000;0.421495
9354.000000;0.421487
9353.000000;0.421663
9352.000000;0.421495
9351.000000;0.420866
9350.000000;0.420218
9349.000000;0.419987
9348.000000;0.420052
9347.000000;0.419921
9346.000000;0.419340
9345.000000;0.418522
9344.000000;0.417815
9343.000000;0.417341
9342.000000;0.416998
9341.000000;0.416640
9340.000000;0.416185
9339.000000;0.415668
9338.000000;0.415248
9337.000000;0.415055
9336.000000;0.414977
9335.000000;0.414685
9334.000000;0.413989
9333.000000;0.413115
9332.000000;0.412492
9331.000000;0.412291
9330.000000;0.412235
9329.000000;0.411894
9328.000000;0.411126
9327.000000;0.410189
9326.000000;0.409464
9325.000000;0.409101
9324.000000;0.408952
9323.000000;0.408805
9322.000000;0.408600
9321.000000;0.408339
9320.000000;0.407890
9319.000000;0.407045
9318.000000;0.405826
9317.000000;0.404605
9316.000000;0.403779
9315.000000;0.403405
9314.000000;0.403237
9313.000000;0.403066
9312.000000;0.402877
9311.000000;0.402686
9310.000000;0.402395
9309.000000;0.401923
9308.000000;0.401369
9307.000000;0.400915
9306.000000;0.400613
9305.000000;0.400344
9304.000000;0.399987
9303.000000;0.399511
9302.000000;0.398934
9301.000000;0.398255
9300.000000;0.397507
9299.000000;0.396809
9298.000000;0.396293
9297.000000;0.395954
9296.000000;0.395610
9295.000000;0.395060
9294.000000;0.394325
9293.000000;0.393698
9292.000000;0.393478
9291.000000;0.393618
9290.000000;0.393724
9289.000000;0.393462
9288.000000;0.392914
9287.000000;0.392409
9286.000000;0.392027
9285.000000;0.391450
9284.000000;0.390375
9283.000000;0.388970
9282.000000;0.387763
9281.000000;0.387085
9280.000000;0.386735
9279.000000;0.386241
9278.000000;0.385406
9277.000000;0.384546
9276.000000;0.384198
9275.000000;0.384613
9274.000000;0.385500
9273.000000;0.386180
9272.000000;0.386039
9271.000000;0.384950
9270.000000;0.383372
9269.000000;0.382027
9268.000000;0.381379
9267.000000;0.381324
9266.000000;0.381369
9265.000000;0.381090
9264.000000;0.380429
9263.000000;0.379576
9262.000000;0.378674
9261.000000;0.377718
9260.000000;0.376708
9259.000000;0.375764
9258.000000;0.375043
9257.000000;0.374549
9256.000000;0.374113
9255.000000;0.373585
9254.000000;0.373042
9253.000000;0.372744
9252.000000;0.372833
9251.000000;0.373071
9250.000000;0.372965
9249.000000;0.372215
9248.000000;0.371010
9247.000000;0.369844
9246.000000;0.369065
9245.000000;0.368669
9244.000000;0.368464
9243.000000;0.368278
9242.000000;0.367963
9241.000000;0.367336
9240.000000;0.366307
9239.000000;0.365082
9238.000000;0.364111
9237.000000;0.363712
9236.000000;0.363749
9235.000000;0.363747
9234.000000;0.363353
9233.000000;0.362625
9232.000000;0.361864
9231.000000;0.361248
9230.000000;0.360740
9229.000000;0.360281
9228.000000;0.359894
9227.000000;0.359566
9226.000000;0.359164
9225.000000;0.358604
9224.000000;0.358017
9223.000000;0.357604
9222.000000;0.357360
9221.000000;0.357053
9220.000000;0.356475
9219.000000;0.355628
9218.000000;0.354650
9217.000000;0.353679
9216.000000;0.352815
9215.000000;0.352116
9214.000000;0.351587
9213.000000;0.351196
9212.000000;0.350923
9211.000000;0.350731
9210.000000;0.350492
9209.000000;0.350020
9208.000000;0.349266
9207.000000;0.348428
9206.000000;0.347799
9205.000000;0.347493
9204.000000;0.347347
9203.000000;0.347057
9202.000000;0.346444
9201.000000;0.345608
9200.000000;0.344834
9199.000000;0.344357
9198.000000;0.344179
9197.000000;0.344135
9196.000000;0.344054
9195.000000;0.343825
9194.000000;0.343389
9193.000000;0.342763
9192.000000;0.342063
9191.000000;0.341381
9190.000000;0.340670
9189.000000;0.339848
9188.000000;0.339006
9187.000000;0.338348
9186.000000;0.337901
9185.000000;0.337461
9184.000000;0.336901
9183.000000;0.336354
9182.000000;0.335958
9181.000000;0.335600
9180.000000;0.335085
9179.000000;0.334425
9178.000000;0.333741
9177.000000;0.333001
9176.000000;0.332113
9175.000000;0.331266
9174.000000;0.330839
9173.000000;0.330889
9172.000000;0.330962
9171.000000;0.330608
9170.000000;0.329916
9169.000000;0.329339
9168.000000;0.329070
9167.000000;0.328820
9166.000000;0.328227
9165.000000;0.327291
9164.000000;0.326347
9163.000000;0.325695
9162.000000;0.325364
9161.000000;0.325172
9160.000000;0.324925
9159.000000;0.324546
9158.000000;0.324069
9157.000000;0.323548
9156.000000;0.323013
9155.000000;0.322467
9154.000000;0.321892
9153.000000;0.321267
9152.000000;0.320647
9151.000000;0.320193
9150.000000;0.320001
9149.000000;0.319872
9148.000000;0.319398
9147.000000;0.318430
9146.000000;0.317353
9145.000000;0.316725
9144.000000;0.316649
9143.000000;0.316691
9142.000000;0.316436
9141.000000;0.315931
9140.000000;0.315476
9139.000000;0.315184
9138.000000;0.314929
9137.000000;0.314615
9136.000000;0.314258
9135.000000;0.313849
9134.000000;0.313341
9133.000000;0.312819
9132.000000;0.312454
9131.000000;0.312228
9130.000000;0.311863
9129.000000;0.311155
9128.000000;0.310258
9127.000000;0.309507
9126.000000;0.309046
9125.000000;0.308768
9124.000000;0.308530
9123.000000;0.308268
9122.000000;0.307936
9121.000000;0.307463
9120.000000;0.306798
9119.000000;0.305933
9118.000000;0.304912
9117.000000;0.303913
9116.000000;0.303240
9115.000000;0.303061
9114.000000;0.303146
9113.000000;0.303013
9112.000000;0.302388
9111.000000;0.301433
9110.000000;0.300480
9109.000000;0.299704
9108.000000;0.299101
9107.000000;0.298647
9106.000000;0.298341
9105.000000;0.298136
9104.000000;0.297962
9103.000000;0.297795
9102.000000;0.297625
9101.000000;0.297395
9100.000000;0.297057
9099.000000;0.296697
9098.000000;0.296486
9097.000000;0.296440
9096.000000;0.296301
9095.000000;0.295775
9094.000000;0.294895
9093.000000;0.294078
9092.000000;0.293713
9091.000000;0.293719
9090.000000;0.293596
9089.000000;0.292945
9088.000000;0.291854
9087.000000;0.290737
9086.000000;0.289903
9085.000000;0.289373
9084.000000;0.289009
9083.000000;0.288671
9082.000000;0.288266
9081.000000;0.287794
9080.000000;0.287369
9079.000000;0.287089
9078.000000;0.286889
9077.000000;0.286607
9076.000000;0.286208
9075.000000;0.285812
9074.000000;0.285493
9073.000000;0.285179
9072.000000;0.284799
9071.000000;0.284391
9070.000000;0.284010
9069.000000;0.283648
9068.000000;0.283309
9067.000000;0.283043
9066.000000;0.282812
9065.000000;0.282441
9064.000000;0.281822
9063.000000;0.281089
9062.000000;0.280463
9061.000000;0.279994
9060.000000;0.279570
9059.000000;0.279129
9058.000000;0.278706
9057.000000;0.278326
9056.000000;0.277952
9055.000000;0.277544
9054.000000;0.277087
9053.000000;0.276566
