Criado como novo conjunto de dados;"e2410_daniel_v2.spp","10082.2 Secs"
cm-1;Abs
10000.000000;0.354990
9999.000000;0.354656
9998.000000;0.354433
9997.000000;0.354094
9996.000000;0.353460
9995.000000;0.352621
9994.000000;0.351844
9993.000000;0.351393
9992.000000;0.351223
9991.000000;0.351069
9990.000000;0.350743
9989.000000;0.350302
9988.000000;0.349859
9987.000000;0.349373
9986.000000;0.348735
9985.000000;0.347990
9984.000000;0.347341
9983.000000;0.346913
9982.000000;0.346600
9981.000000;0.346193
9980.000000;0.345623
9979.000000;0.345022
9978.000000;0.344550
9977.000000;0.344193
9976.000000;0.343801
9975.000000;0.343307
9974.000000;0.342821
9973.000000;0.342473
9972.000000;0.342192
9971.000000;0.341737
9970.000000;0.340964
9969.000000;0.340022
9968.000000;0.339240
9967.000000;0.338832
9966.000000;0.338711
9965.000000;0.338583
9964.000000;0.338214
9963.000000;0.337604
9962.000000;0.336922
9961.000000;0.336309
9960.000000;0.335799
9959.000000;0.335389
9958.000000;0.335069
9957.000000;0.334772
9956.000000;0.334389
9955.000000;0.333899
9954.000000;0.333409
9953.000000;0.333014
9952.000000;0.332652
9951.000000;0.332204
9950.000000;0.331659
9949.000000;0.331105
9948.000000;0.330579
9947.000000;0.330032
9946.000000;0.329421
9945.000000;0.328751
9944.000000;0.328046
9943.000000;0.327356
9942.000000;0.326779
9941.000000;0.326381
9940.000000;0.326076
9939.000000;0.325704
9938.000000;0.325219
9937.000000;0.324718
9936.000000;0.324263
9935.000000;0.323793
9934.000000;0.323274
9933.000000;0.322813
9932.000000;0.322515
9931.000000;0.322300
9930.000000;0.321960
9929.000000;0.321407
9928.000000;0.320758
9927.000000;0.320176
9926.000000;0.319696
9925.000000;0.319256
9924.000000;0.318826
9923.000000;0.318454
9922.000000;0.318163
9921.000000;0.317879
9920.000000;0.317490
9919.000000;0.316951
9918.000000;0.316300
9917.000000;0.315581
9916.000000;0.314820
9915.000000;0.314067
9914.000000;0.313420
9913.000000;0.312942
9912.000000;0.312615
9911.000000;0.312363
9910.000000;0.312114
9909.000000;0.311794
9908.000000;0.311317
9907.000000;0.310640
9906.000000;0.309837
9905.000000;0.309076
9904.000000;0.308523
9903.000000;0.308240
9902.000000;0.308125
9901.000000;0.307934
9900.000000;0.307435
9899.000000;0.306629
9898.000000;0.305777
9897.000000;0.305166
9896.000000;0.304849
9895.000000;0.304657
9894.000000;0.304423
9893.000000;0.304122
9892.000000;0.303812
9891.000000;0.303519
9890.000000;0.303191
9889.000000;0.302738
9888.000000;0.302126
9887.000000;0.301453
9886.000000;0.300875
9885.000000;0.300436
9884.000000;0.300009
9883.000000;0.299473
9882.000000;0.298890
9881.000000;0.298418
9880.000000;0.298094
9879.000000;0.297819
9878.000000;0.297516
9877.000000;0.297173
9876.000000;0.296748
9875.000000;0.296158
9874.000000;0.295416
9873.000000;0.294650
9872.000000;0.293943
9871.000000;0.293251
9870.000000;0.292549
9869.000000;0.291955
9868.000000;0.291626
9867.000000;0.291553
9866.000000;0.291570
9865.000000;0.291524
9864.000000;0.291367
9863.000000;0.291090
9862.000000;0.290661
9861.000000;0.290064
9860.000000;0.289362
9859.000000;0.288671
9858.000000;0.288070
9857.000000;0.287543
9856.000000;0.287016
9855.000000;0.286450
9854.000000;0.285871
9853.000000;0.285317
9852.000000;0.284792
9851.000000;0.284307
9850.000000;0.283911
9849.000000;0.283636
9848.000000;0.283398
9847.000000;0.283052
9846.000000;0.282542
9845.000000;0.281940
9844.000000;0.281321
9843.000000;0.280684
9842.000000;0.280030
9841.000000;0.279440
9840.000000;0.279011
9839.000000;0.278731
9838.000000;0.278485
9837.000000;0.278169
9836.000000;0.277748
9835.000000;0.277229
9834.000000;0.276652
9833.000000;0.276094
9832.000000;0.275639
9831.000000;0.275292
9830.000000;0.274957
9829.000000;0.274515
9828.000000;0.273944
9827.000000;0.273336
9826.000000;0.272802
9825.000000;0.272374
9824.000000;0.271984
9823.000000;0.271532
9822.000000;0.270987
9821.000000;0.270403
9820.000000;0.269861
9819.000000;0.269395
9818.000000;0.268985
9817.000000;0.268597
9816.000000;0.268219
9815.000000;0.267850
9814.000000;0.267470
9813.000000;0.267055
9812.000000;0.266617
9811.000000;0.266205
9810.000000;0.265851
9809.000000;0.265526
9808.000000;0.265180
9807.000000;0.264804
9806.000000;0.264405
9805.000000;0.263950
9804.000000;0.263384
9803.000000;0.262727
9802.000000;0.262092
9801.000000;0.261559
9800.000000;0.261081
9799.000000;0.260556
9798.000000;0.259963
9797.000000;0.259380
9796.000000;0.258880
9795.000000;0.258456
9794.000000;0.258061
9793.000000;0.257675
9792.000000;0.257321
9791.000000;0.257039
9790.000000;0.256820
9789.000000;0.256586
9788.000000;0.256223
9787.000000;0.255686
9786.000000;0.255042
9785.000000;0.254410
9784.000000;0.253861
9783.000000;0.253373
9782.000000;0.252873
9781.000000;0.252317
9780.000000;0.251742
9779.000000;0.251225
9778.000000;0.250787
9777.000000;0.250353
9776.000000;0.249849
9775.000000;0.249311
9774.000000;0.248832
9773.000000;0.248410
9772.000000;0.247940
9771.000000;0.247392
9770.000000;0.246880
9769.000000;0.246490
9768.000000;0.246150
9767.000000;0.245756
9766.000000;0.245344
9765.000000;0.245014
9764.000000;0.244725
9763.000000;0.244321
9762.000000;0.243737
9761.000000;0.243085
9760.000000;0.242485
9759.000000;0.241958
9758.000000;0.241492
9757.000000;0.241119
9756.000000;0.240854
9755.000000;0.240629
9754.000000;0.240351
9753.000000;0.239993
9752.000000;0.239598
9751.000000;0.239227
9750.000000;0.238929
9749.000000;0.238696
9748.000000;0.238426
9747.000000;0.237969
9746.000000;0.237281
9745.000000;0.236511
9744.000000;0.235872
9743.000000;0.235425
9742.000000;0.235025
9741.000000;0.234498
9740.000000;0.233850
9739.000000;0.233271
9738.000000;0.232926
9737.000000;0.232771
9736.000000;0.232612
9735.000000;0.232320
9734.000000;0.231934
9733.000000;0.231536
9732.000000;0.231107
9731.000000;0.230572
9730.000000;0.229942
9729.000000;0.229319
9728.000000;0.228772
9727.000000;0.228303
9726.000000;0.227892
9725.000000;0.227515
9724.000000;0.227105
9723.000000;0.226596
9722.000000;0.226016
9721.000000;0.225471
9720.000000;0.225009
9719.000000;0.224587
9718.000000;0.224164
9717.000000;0.223778
9716.000000;0.223455
9715.000000;0.223155
9714.000000;0.222842
9713.000000;0.222551
9712.000000;0.222300
9711.000000;0.221997
9710.000000;0.221518
9709.000000;0.220881
9708.000000;0.220257
9707.000000;0.219797
9706.000000;0.219483
9705.000000;0.219167
9704.000000;0.218721
9703.000000;0.218150
9702.000000;0.217573
9701.000000;0.217113
9700.000000;0.216788
9699.000000;0.216516
9698.000000;0.216211
9697.000000;0.215854
9696.000000;0.215472
9695.000000;0.215085
9694.000000;0.214693
9693.000000;0.214294
9692.000000;0.213868
9691.000000;0.213380
9690.000000;0.212826
9689.000000;0.212281
9688.000000;0.211863
9687.000000;0.211607
9686.000000;0.211406
9685.000000;0.211099
9684.000000;0.210626
9683.000000;0.210064
9682.000000;0.209520
9681.000000;0.209004
9680.000000;0.208465
9679.000000;0.207906
9678.000000;0.207403
9677.000000;0.206991
9676.000000;0.206591
9675.000000;0.206103
9674.000000;0.205539
9673.000000;0.205022
9672.000000;0.204658
9671.000000;0.204454
9670.000000;0.204335
9669.000000;0.204173
9668.000000;0.203833
9667.000000;0.203269
9666.000000;0.202603
9665.000000;0.202034
9664.000000;0.201636
9663.000000;0.201301
9662.000000;0.200902
9661.000000;0.200463
9660.000000;0.200095
9659.000000;0.199807
9658.000000;0.199466
9657.000000;0.198970
9656.000000;0.198390
9655.000000;0.197904
9654.000000;0.197615
9653.000000;0.197469
9652.000000;0.197322
9651.000000;0.197057
9650.000000;0.196629
9649.000000;0.196055
9648.000000;0.195415
9647.000000;0.194840
9646.000000;0.194430
9645.000000;0.194158
9644.000000;0.193874
9643.000000;0.193444
9642.000000;0.192872
9641.000000;0.192269
9640.000000;0.191738
9639.000000;0.191303
9638.000000;0.190929
9637.000000;0.190573
9636.000000;0.190210
9635.000000;0.189834
9634.000000;0.189453
9633.000000;0.189062
9632.000000;0.188651
9631.000000;0.188216
9630.000000;0.187761
9629.000000;0.187269
9628.000000;0.186729
9627.000000;0.186185
9626.000000;0.185723
9625.000000;0.185365
9624.000000;0.185050
9623.000000;0.184742
9622.000000;0.184502
9621.000000;0.184366
9620.000000;0.184197
9619.000000;0.183794
9618.000000;0.183140
9617.000000;0.182446
9616.000000;0.181926
9615.000000;0.181602
9614.000000;0.181349
9613.000000;0.181066
9612.000000;0.180736
9611.000000;0.180372
9610.000000;0.179970
9609.000000;0.179519
9608.000000;0.179028
9607.000000;0.178546
9606.000000;0.178140
9605.000000;0.177834
9604.000000;0.177562
9603.000000;0.177226
9602.000000;0.176787
9601.000000;0.176287
9600.000000;0.175791
9599.000000;0.175342
9598.000000;0.174981
9597.000000;0.174720
9596.000000;0.174494
9595.000000;0.174200
9594.000000;0.173798
9593.000000;0.173326
9592.000000;0.172804
9591.000000;0.172217
9590.000000;0.171619
9589.000000;0.171149
9588.000000;0.170889
9587.000000;0.170744
9586.000000;0.170554
9585.000000;0.170262
9584.000000;0.169893
9583.000000;0.169432
9582.000000;0.168842
9581.000000;0.168191
9580.000000;0.167646
9579.000000;0.167300
9578.000000;0.167074
9577.000000;0.166828
9576.000000;0.166511
9575.000000;0.166145
9574.000000;0.165741
9573.000000;0.165291
9572.000000;0.164838
9571.000000;0.164463
9570.000000;0.164200
9569.000000;0.163971
9568.000000;0.163653
9567.000000;0.163196
9566.000000;0.162660
9565.000000;0.162154
9564.000000;0.161716
9563.000000;0.161294
9562.000000;0.160832
9561.000000;0.160362
9560.000000;0.159980
9559.000000;0.159735
9558.000000;0.159548
9557.000000;0.159281
9556.000000;0.158873
9555.000000;0.158390
9554.000000;0.157954
9553.000000;0.157629
9552.000000;0.157377
9551.000000;0.157112
9550.000000;0.156772
9549.000000;0.156364
9548.000000;0.155947
9547.000000;0.155570
9546.000000;0.155219
9545.000000;0.154826
9544.000000;0.154356
9543.000000;0.153867
9542.000000;0.153459
9541.000000;0.153143
9540.000000;0.152818
9539.000000;0.152397
9538.000000;0.151925
9537.000000;0.151521
9536.000000;0.151217
9535.000000;0.150909
9534.000000;0.150497
9533.000000;0.150004
9532.000000;0.149541
9531.000000;0.149176
9530.000000;0.148899
9529.000000;0.148677
9528.000000;0.148483
9527.000000;0.148243
9526.000000;0.147849
9525.000000;0.147274
9524.000000;0.146638
9523.000000;0.146118
9522.000000;0.145768
9521.000000;0.145498
9520.000000;0.145201
9519.000000;0.144871
9518.000000;0.144546
9517.000000;0.144216
9516.000000;0.143834
9515.000000;0.143403
9514.000000;0.142986
9513.000000;0.142625
9512.000000;0.142302
9511.000000;0.141990
9510.000000;0.141695
9509.000000;0.141426
9508.000000;0.141151
9507.000000;0.140805
9506.000000;0.140329
9505.000000;0.139721
9504.000000;0.139064
9503.000000;0.138508
9502.000000;0.138159
9501.000000;0.137972
9500.000000;0.137778
9499.000000;0.137469
9498.000000;0.137110
9497.000000;0.136822
9496.000000;0.136604
9495.000000;0.136326
9494.000000;0.135889
9493.000000;0.135347
9492.000000;0.134851
9491.000000;0.134508
9490.000000;0.134291
9489.000000;0.134083
9488.000000;0.133779
9487.000000;0.133366
9486.000000;0.132899
9485.000000;0.132429
9484.000000;0.131986
9483.000000;0.131615
9482.000000;0.131354
9481.000000;0.131155
9480.000000;0.130888
9479.000000;0.130481
9478.000000;0.130029
9477.000000;0.129680
9476.000000;0.129458
9475.000000;0.129246
9474.000000;0.128935
9473.000000;0.128521
9472.000000;0.128054
9471.000000;0.127568
9470.000000;0.127076
9469.000000;0.126611
9468.000000;0.126221
9467.000000;0.125944
9466.000000;0.125774
9465.000000;0.125629
9464.000000;0.125392
9463.000000;0.125018
9462.000000;0.124586
9461.000000;0.124207
9460.000000;0.123881
9459.000000;0.123511
9458.000000;0.123052
9457.000000;0.122574
9456.000000;0.122183
9455.000000;0.121931
9454.000000;0.121814
9453.000000;0.121791
9452.000000;0.121773
9451.000000;0.121659
9450.000000;0.121417
9449.000000;0.121088
9448.000000;0.120691
9447.000000;0.120181
9446.000000;0.119547
9445.000000;0.118894
9444.000000;0.118368
9443.000000;0.118017
9442.000000;0.117769
9441.000000;0.117526
9440.000000;0.117247
9439.000000;0.116952
9438.000000;0.116686
9437.000000;0.116466
9436.000000;0.116221
9435.000000;0.115833
9434.000000;0.115262
9433.000000;0.114632
9432.000000;0.114148
9431.000000;0.113915
9430.000000;0.113866
9429.000000;0.113834
9428.000000;0.113663
9427.000000;0.113277
9426.000000;0.112716
9425.000000;0.112116
9424.000000;0.111632
9423.000000;0.111343
9422.000000;0.111219
9421.000000;0.111177
9420.000000;0.111132
9419.000000;0.111007
9418.000000;0.110742
9417.000000;0.110321
9416.000000;0.109800
9415.000000;0.109288
9414.000000;0.108891
9413.000000;0.108655
9412.000000;0.108531
9411.000000;0.108397
9410.000000;0.108138
9409.000000;0.107728
9408.000000;0.107238
9407.000000;0.106768
9406.000000;0.106383
9405.000000;0.106090
9404.000000;0.105846
9403.000000;0.105587
9402.000000;0.105264
9401.000000;0.104880
9400.000000;0.104485
9399.000000;0.104112
9398.000000;0.103738
9397.000000;0.103320
9396.000000;0.102875
9395.000000;0.102485
9394.000000;0.102210
9393.000000;0.102003
9392.000000;0.101743
9391.000000;0.101365
9390.000000;0.100926
9389.000000;0.100541
9388.000000;0.100271
9387.000000;0.100080
9386.000000;0.099893
9385.000000;0.099655
9384.000000;0.099356
9383.000000;0.099014
9382.000000;0.098659
9381.000000;0.098317
9380.000000;0.097975
9379.000000;0.097584
9378.000000;0.097113
9377.000000;0.096604
9376.000000;0.096162
9375.000000;0.095866
9374.000000;0.095709
9373.000000;0.095610
9372.000000;0.095489
9371.000000;0.095302
9370.000000;0.095039
9369.000000;0.094694
9368.000000;0.094272
9367.000000;0.093801
9366.000000;0.093329
9365.000000;0.092904
9364.000000;0.092570
9363.000000;0.092341
9362.000000;0.092176
9361.000000;0.091992
9360.000000;0.091746
9359.000000;0.091490
9358.000000;0.091305
9357.000000;0.091170
9356.000000;0.090954
9355.000000;0.090564
9354.000000;0.090068
9353.000000;0.089635
9352.000000;0.089366
9351.000000;0.089230
9350.000000;0.089133
9349.000000;0.089002
9348.000000;0.088792
9347.000000;0.088475
9346.000000;0.088056
9345.000000;0.087594
9344.000000;0.087174
9343.000000;0.086853
9342.000000;0.086611
9341.000000;0.086362
9340.000000;0.086017
9339.000000;0.085570
9338.000000;0.085122
9337.000000;0.084788
9336.000000;0.084581
9335.000000;0.084403
9334.000000;0.084160
9333.000000;0.083870
9332.000000;0.083636
9331.000000;0.083514
9330.000000;0.083431
9329.000000;0.083237
9328.000000;0.082831
9327.000000;0.082253
9326.000000;0.081641
9325.000000;0.081123
9324.000000;0.080747
9323.000000;0.080490
9322.000000;0.080313
9321.000000;0.080172
9320.000000;0.080024
9319.000000;0.079843
9318.000000;0.079626
9317.000000;0.079365
9316.000000;0.079045
9315.000000;0.078683
9314.000000;0.078357
9313.000000;0.078120
9312.000000;0.077920
9311.000000;0.077644
9310.000000;0.077270
9309.000000;0.076896
9308.000000;0.076619
9307.000000;0.076419
9306.000000;0.076194
9305.000000;0.075877
9304.000000;0.075480
9303.000000;0.075077
9302.000000;0.074754
9301.000000;0.074575
9300.000000;0.074519
9299.000000;0.074473
9298.000000;0.074319
9297.000000;0.074031
9296.000000;0.073690
9295.000000;0.073395
9294.000000;0.073188
9293.000000;0.073020
9292.000000;0.072792
9291.000000;0.072422
9290.000000;0.071924
9289.000000;0.071415
9288.000000;0.071018
9287.000000;0.070768
9286.000000;0.070603
9285.000000;0.070448
9284.000000;0.070242
9283.000000;0.069934
9282.000000;0.069504
9281.000000;0.069016
9280.000000;0.068605
9279.000000;0.068369
9278.000000;0.068296
9277.000000;0.068287
9276.000000;0.068233
9275.000000;0.068058
9274.000000;0.067743
9273.000000;0.067349
9272.000000;0.066990
9271.000000;0.066733
9270.000000;0.066533
9269.000000;0.066298
9268.000000;0.066006
9267.000000;0.065723
9266.000000;0.065499
9265.000000;0.065306
9264.000000;0.065085
9263.000000;0.064812
9262.000000;0.064497
9261.000000;0.064156
9260.000000;0.063809
9259.000000;0.063486
9258.000000;0.063208
9257.000000;0.062974
9256.000000;0.062769
9255.000000;0.062563
9254.000000;0.062303
9253.000000;0.061954
9252.000000;0.061564
9251.000000;0.061242
9250.000000;0.061047
9249.000000;0.060922
9248.000000;0.060790
9247.000000;0.060653
9246.000000;0.060543
9245.000000;0.060408
9244.000000;0.060142
9243.000000;0.059720
9242.000000;0.059244
9241.000000;0.058827
9240.000000;0.058507
9239.000000;0.058261
9238.000000;0.058049
9237.000000;0.057821
9236.000000;0.057542
9235.000000;0.057246
9234.000000;0.057017
9233.000000;0.056872
9232.000000;0.056725
9231.000000;0.056501
9230.000000;0.056243
9229.000000;0.056031
9228.000000;0.055848
9227.000000;0.055588
9226.000000;0.055195
9225.000000;0.054731
9224.000000;0.054302
9223.000000;0.053975
9222.000000;0.053759
9221.000000;0.053636
9220.000000;0.053566
9219.000000;0.053500
9218.000000;0.053387
9217.000000;0.053194
9216.000000;0.052926
9215.000000;0.052638
9214.000000;0.052400
9213.000000;0.052226
9212.000000;0.052055
9211.000000;0.051820
9210.000000;0.051512
9209.000000;0.051161
9208.000000;0.050788
9207.000000;0.050423
9206.000000;0.050124
9205.000000;0.049934
9204.000000;0.049817
9203.000000;0.049684
9202.000000;0.049470
9201.000000;0.049162
9200.000000;0.048780
9199.000000;0.048383
9198.000000;0.048076
9197.000000;0.047929
9196.000000;0.047875
9195.000000;0.047761
9194.000000;0.047514
9193.000000;0.047193
9192.000000;0.046889
9191.000000;0.046616
9190.000000;0.046344
9189.000000;0.046066
9188.000000;0.045791
9187.000000;0.045510
9186.000000;0.045223
9185.000000;0.044975
9184.000000;0.044818
9183.000000;0.044747
9182.000000;0.044702
9181.000000;0.044628
9180.000000;0.044501
9179.000000;0.044316
9178.000000;0.044065
9177.000000;0.043741
9176.000000;0.043341
9175.000000;0.042883
9174.000000;0.042424
9173.000000;0.042049
9172.000000;0.041813
9171.000000;0.041701
9170.000000;0.041646
9169.000000;0.041584
9168.000000;0.041488
9167.000000;0.041360
9166.000000;0.041205
9165.000000;0.041013
9164.000000;0.040761
9163.000000;0.040453
9162.000000;0.040151
9161.000000;0.039925
9160.000000;0.039765
9159.000000;0.039581
9158.000000;0.039316
9157.000000;0.039025
9156.000000;0.038804
9155.000000;0.038674
9154.000000;0.038574
9153.000000;0.038445
9152.000000;0.038289
9151.000000;0.038132
9150.000000;0.037987
9149.000000;0.037851
9148.000000;0.037709
9147.000000;0.037534
9146.000000;0.037298
9145.000000;0.036998
9144.000000;0.036651
9143.000000;0.036281
9142.000000;0.035926
9141.000000;0.035640
9140.000000;0.035453
9139.000000;0.035342
9138.000000;0.035255
9137.000000;0.035160
9136.000000;0.035037
9135.000000;0.034853
9134.000000;0.034589
9133.000000;0.034291
9132.000000;0.034043
9131.000000;0.033864
9130.000000;0.033696
9129.000000;0.033489
9128.000000;0.033267
9127.000000;0.033058
9126.000000;0.032825
9125.000000;0.032522
9124.000000;0.032203
9123.000000;0.032002
9122.000000;0.031986
9121.000000;0.032063
9120.000000;0.032051
9119.000000;0.031834
9118.000000;0.031446
9117.000000;0.031016
9116.000000;0.030653
9115.000000;0.030373
9114.000000;0.030122
9113.000000;0.029858
9112.000000;0.029595
9111.000000;0.029362
9110.000000;0.029170
9109.000000;0.029012
9108.000000;0.028893
9107.000000;0.028808
9106.000000;0.028711
9105.000000;0.028546
9104.000000;0.028319
9103.000000;0.028100
9102.000000;0.027947
9101.000000;0.027849
9100.000000;0.027742
9099.000000;0.027568
9098.000000;0.027317
9097.000000;0.027038
9096.000000;0.026812
9095.000000;0.026674
9094.000000;0.026566
9093.000000;0.026387
9092.000000;0.026098
9091.000000;0.025759
9090.000000;0.025454
9089.000000;0.025208
9088.000000;0.025002
9087.000000;0.024823
9086.000000;0.024679
9085.000000;0.024577
9084.000000;0.024511
9083.000000;0.024456
9082.000000;0.024363
9081.000000;0.024191
9080.000000;0.023958
9079.000000;0.023728
9078.000000;0.023525
9077.000000;0.023290
9076.000000;0.022977
9075.000000;0.022655
9074.000000;0.022437
9073.000000;0.022353
9072.000000;0.022322
9071.000000;0.022273
9070.000000;0.022190
9069.000000;0.022054
9068.000000;0.021817
9067.000000;0.021474
9066.000000;0.021117
9065.000000;0.020833
9064.000000;0.020611
9063.000000;0.020381
9062.000000;0.020133
9061.000000;0.019936
9060.000000;0.019844
9059.000000;0.019823
9058.000000;0.019791
9057.000000;0.019686
9056.000000;0.019495
9055.000000;0.019245
9054.000000;0.018995
9053.000000;0.018801
