Criado como novo conjunto de dados;"e2410_daniel_v2.spp","40323.9 Secs"
cm-1;Abs
10000.000000;0.391714
9999.000000;0.390940
9998.000000;0.390166
9997.000000;0.389394
9996.000000;0.388636
9995.000000;0.387967
9994.000000;0.387427
9993.000000;0.386985
9992.000000;0.386549
9991.000000;0.385993
9990.000000;0.385320
9989.000000;0.384691
9988.000000;0.384229
9987.000000;0.383855
9986.000000;0.383416
9985.000000;0.382882
9984.000000;0.382309
9983.000000;0.381694
9982.000000;0.381017
9981.000000;0.380324
9980.000000;0.379669
9979.000000;0.379023
9978.000000;0.378362
9977.000000;0.377767
9976.000000;0.377318
9975.000000;0.376951
9974.000000;0.376534
9973.000000;0.376009
9972.000000;0.375384
9971.000000;0.374696
9970.000000;0.374078
9969.000000;0.373708
9968.000000;0.373569
9967.000000;0.373397
9966.000000;0.373020
9965.000000;0.372575
9964.000000;0.372212
9963.000000;0.371783
9962.000000;0.371063
9961.000000;0.370150
9960.000000;0.369356
9959.000000;0.368794
9958.000000;0.368359
9957.000000;0.368023
9956.000000;0.367846
9955.000000;0.367713
9954.000000;0.367363
9953.000000;0.366754
9952.000000;0.366138
9951.000000;0.365710
9950.000000;0.365379
9949.000000;0.364960
9948.000000;0.364399
9947.000000;0.363755
9946.000000;0.363110
9945.000000;0.362576
9944.000000;0.362239
9943.000000;0.362029
9942.000000;0.361746
9941.000000;0.361272
9940.000000;0.360651
9939.000000;0.359980
9938.000000;0.359322
9937.000000;0.358718
9936.000000;0.358178
9935.000000;0.357626
9934.000000;0.356996
9933.000000;0.356350
9932.000000;0.355809
9931.000000;0.355357
9930.000000;0.354840
9929.000000;0.354173
9928.000000;0.353455
9927.000000;0.352867
9926.000000;0.352546
9925.000000;0.352517
9924.000000;0.352628
9923.000000;0.352576
9922.000000;0.352132
9921.000000;0.351353
9920.000000;0.350493
9919.000000;0.349753
9918.000000;0.349173
9917.000000;0.348710
9916.000000;0.348270
9915.000000;0.347718
9914.000000;0.347025
9913.000000;0.346388
9912.000000;0.346054
9911.000000;0.346010
9910.000000;0.345976
9909.000000;0.345700
9908.000000;0.345175
9907.000000;0.344538
9906.000000;0.343897
9905.000000;0.343263
9904.000000;0.342576
9903.000000;0.341773
9902.000000;0.340914
9901.000000;0.340206
9900.000000;0.339823
9899.000000;0.339707
9898.000000;0.339656
9897.000000;0.339537
9896.000000;0.339316
9895.000000;0.338916
9894.000000;0.338229
9893.000000;0.337306
9892.000000;0.336378
9891.000000;0.335639
9890.000000;0.335056
9889.000000;0.334457
9888.000000;0.333732
9887.000000;0.332944
9886.000000;0.332253
9885.000000;0.331772
9884.000000;0.331452
9883.000000;0.331154
9882.000000;0.330810
9881.000000;0.330489
9880.000000;0.330256
9879.000000;0.330048
9878.000000;0.329749
9877.000000;0.329313
9876.000000;0.328774
9875.000000;0.328194
9874.000000;0.327659
9873.000000;0.327226
9872.000000;0.326841
9871.000000;0.326377
9870.000000;0.325811
9869.000000;0.325269
9868.000000;0.324826
9867.000000;0.324390
9866.000000;0.323869
9865.000000;0.323335
9864.000000;0.322904
9863.000000;0.322554
9862.000000;0.322178
9861.000000;0.321732
9860.000000;0.321222
9859.000000;0.320637
9858.000000;0.320023
9857.000000;0.319512
9856.000000;0.319147
9855.000000;0.318779
9854.000000;0.318253
9853.000000;0.317624
9852.000000;0.317044
9851.000000;0.316554
9850.000000;0.316122
9849.000000;0.315788
9848.000000;0.315585
9847.000000;0.315382
9846.000000;0.315009
9845.000000;0.314473
9844.000000;0.313881
9843.000000;0.313224
9842.000000;0.312436
9841.000000;0.311644
9840.000000;0.311120
9839.000000;0.310921
9838.000000;0.310756
9837.000000;0.310279
9836.000000;0.309434
9835.000000;0.308488
9834.000000;0.307780
9833.000000;0.307461
9832.000000;0.307375
9831.000000;0.307198
9830.000000;0.306730
9829.000000;0.306053
9828.000000;0.305337
9827.000000;0.304622
9826.000000;0.303873
9825.000000;0.303174
9824.000000;0.302685
9823.000000;0.302413
9822.000000;0.302172
9821.000000;0.301801
9820.000000;0.301302
9819.000000;0.300767
9818.000000;0.300240
9817.000000;0.299714
9816.000000;0.299200
9815.000000;0.298764
9814.000000;0.298474
9813.000000;0.298284
9812.000000;0.298006
9811.000000;0.297499
9810.000000;0.296885
9809.000000;0.296438
9808.000000;0.296225
9807.000000;0.296002
9806.000000;0.295544
9805.000000;0.294927
9804.000000;0.294360
9803.000000;0.293901
9802.000000;0.293484
9801.000000;0.293099
9800.000000;0.292761
9799.000000;0.292372
9798.000000;0.291790
9797.000000;0.291041
9796.000000;0.290308
9795.000000;0.289752
9794.000000;0.289402
9793.000000;0.289165
9792.000000;0.288856
9791.000000;0.288287
9790.000000;0.287465
9789.000000;0.286630
9788.000000;0.286006
9787.000000;0.285579
9786.000000;0.285201
9785.000000;0.284804
9784.000000;0.284394
9783.000000;0.283926
9782.000000;0.283358
9781.000000;0.282769
9780.000000;0.282271
9779.000000;0.281851
9778.000000;0.281408
9777.000000;0.280904
9776.000000;0.280392
9775.000000;0.279942
9774.000000;0.279625
9773.000000;0.279500
9772.000000;0.279489
9771.000000;0.279367
9770.000000;0.278985
9769.000000;0.278425
9768.000000;0.277845
9767.000000;0.277277
9766.000000;0.276705
9765.000000;0.276204
9764.000000;0.275830
9763.000000;0.275468
9762.000000;0.274979
9761.000000;0.274431
9760.000000;0.273977
9759.000000;0.273589
9758.000000;0.273127
9757.000000;0.272609
9756.000000;0.272201
9755.000000;0.271926
9754.000000;0.271585
9753.000000;0.271006
9752.000000;0.270244
9751.000000;0.269490
9750.000000;0.268914
9749.000000;0.268595
9748.000000;0.268484
9747.000000;0.268417
9746.000000;0.268240
9745.000000;0.267931
9744.000000;0.267530
9743.000000;0.267021
9742.000000;0.266389
9741.000000;0.265742
9740.000000;0.265209
9739.000000;0.264733
9738.000000;0.264127
9737.000000;0.263327
9736.000000;0.262507
9735.000000;0.261886
9734.000000;0.261515
9733.000000;0.261250
9732.000000;0.260880
9731.000000;0.260307
9730.000000;0.259647
9729.000000;0.259134
9728.000000;0.258868
9727.000000;0.258723
9726.000000;0.258520
9725.000000;0.258218
9724.000000;0.257846
9723.000000;0.257387
9722.000000;0.256842
9721.000000;0.256306
9720.000000;0.255855
9719.000000;0.255401
9718.000000;0.254817
9717.000000;0.254125
9716.000000;0.253475
9715.000000;0.252969
9714.000000;0.252617
9713.000000;0.252393
9712.000000;0.252211
9711.000000;0.251913
9710.000000;0.251407
9709.000000;0.250781
9708.000000;0.250172
9707.000000;0.249596
9706.000000;0.249009
9705.000000;0.248451
9704.000000;0.248003
9703.000000;0.247660
9702.000000;0.247364
9701.000000;0.247111
9700.000000;0.246884
9699.000000;0.246569
9698.000000;0.246079
9697.000000;0.245497
9696.000000;0.244962
9695.000000;0.244463
9694.000000;0.243907
9693.000000;0.243321
9692.000000;0.242825
9691.000000;0.242445
9690.000000;0.242097
9689.000000;0.241743
9688.000000;0.241417
9687.000000;0.241108
9686.000000;0.240753
9685.000000;0.240332
9684.000000;0.239845
9683.000000;0.239249
9682.000000;0.238547
9681.000000;0.237901
9680.000000;0.237496
9679.000000;0.237304
9678.000000;0.237110
9677.000000;0.236764
9676.000000;0.236294
9675.000000;0.235790
9674.000000;0.235311
9673.000000;0.234910
9672.000000;0.234617
9671.000000;0.234389
9670.000000;0.234138
9669.000000;0.233820
9668.000000;0.233409
9667.000000;0.232859
9666.000000;0.232173
9665.000000;0.231481
9664.000000;0.230929
9663.000000;0.230517
9662.000000;0.230138
9661.000000;0.229735
9660.000000;0.229329
9659.000000;0.228921
9658.000000;0.228491
9657.000000;0.228060
9656.000000;0.227672
9655.000000;0.227338
9654.000000;0.227063
9653.000000;0.226862
9652.000000;0.226667
9651.000000;0.226302
9650.000000;0.225660
9649.000000;0.224852
9648.000000;0.224080
9647.000000;0.223423
9646.000000;0.222868
9645.000000;0.222458
9644.000000;0.222245
9643.000000;0.222138
9642.000000;0.221940
9641.000000;0.221539
9640.000000;0.220981
9639.000000;0.220374
9638.000000;0.219820
9637.000000;0.219389
9636.000000;0.219068
9635.000000;0.218758
9634.000000;0.218399
9633.000000;0.218045
9632.000000;0.217738
9631.000000;0.217407
9630.000000;0.216986
9629.000000;0.216542
9628.000000;0.216164
9627.000000;0.215805
9626.000000;0.215375
9625.000000;0.214878
9624.000000;0.214349
9623.000000;0.213743
9622.000000;0.213060
9621.000000;0.212469
9620.000000;0.212125
9619.000000;0.211916
9618.000000;0.211588
9617.000000;0.211084
9616.000000;0.210572
9615.000000;0.210173
9614.000000;0.209835
9613.000000;0.209481
9612.000000;0.209115
9611.000000;0.208769
9610.000000;0.208454
9609.000000;0.208170
9608.000000;0.207854
9607.000000;0.207376
9606.000000;0.206708
9605.000000;0.206045
9604.000000;0.205620
9603.000000;0.205436
9602.000000;0.205327
9601.000000;0.205211
9600.000000;0.205112
9599.000000;0.204981
9598.000000;0.204688
9597.000000;0.204211
9596.000000;0.203659
9595.000000;0.203098
9594.000000;0.202508
9593.000000;0.201918
9592.000000;0.201423
9591.000000;0.201043
9590.000000;0.200689
9589.000000;0.200302
9588.000000;0.199908
9587.000000;0.199530
9586.000000;0.199141
9585.000000;0.198728
9584.000000;0.198276
9583.000000;0.197729
9582.000000;0.197071
9581.000000;0.196410
9580.000000;0.195892
9579.000000;0.195514
9578.000000;0.195167
9577.000000;0.194807
9576.000000;0.194468
9575.000000;0.194133
9574.000000;0.193751
9573.000000;0.193347
9572.000000;0.192996
9571.000000;0.192667
9570.000000;0.192274
9569.000000;0.191838
9568.000000;0.191459
9567.000000;0.191116
9566.000000;0.190680
9565.000000;0.190145
9564.000000;0.189676
9563.000000;0.189365
9562.000000;0.189113
9561.000000;0.188815
9560.000000;0.188498
9559.000000;0.188199
9558.000000;0.187832
9557.000000;0.187317
9556.000000;0.186747
9555.000000;0.186313
9554.000000;0.186067
9553.000000;0.185858
9552.000000;0.185501
9551.000000;0.184956
9550.000000;0.184350
9549.000000;0.183821
9548.000000;0.183371
9547.000000;0.182896
9546.000000;0.182367
9545.000000;0.181897
9544.000000;0.181596
9543.000000;0.181406
9542.000000;0.181178
9541.000000;0.180835
9540.000000;0.180399
9539.000000;0.179894
9538.000000;0.179360
9537.000000;0.178911
9536.000000;0.178652
9535.000000;0.178533
9534.000000;0.178384
9533.000000;0.178098
9532.000000;0.177711
9531.000000;0.177300
9530.000000;0.176895
9529.000000;0.176501
9528.000000;0.176101
9527.000000;0.175661
9526.000000;0.175169
9525.000000;0.174690
9524.000000;0.174302
9523.000000;0.174000
9522.000000;0.173708
9521.000000;0.173377
9520.000000;0.173005
9519.000000;0.172592
9518.000000;0.172153
9517.000000;0.171744
9516.000000;0.171389
9515.000000;0.171034
9514.000000;0.170638
9513.000000;0.170258
9512.000000;0.169961
9511.000000;0.169682
9510.000000;0.169299
9509.000000;0.168823
9508.000000;0.168386
9507.000000;0.168043
9506.000000;0.167713
9505.000000;0.167325
9504.000000;0.166933
9503.000000;0.166622
9502.000000;0.166375
9501.000000;0.166069
9500.000000;0.165586
9499.000000;0.164925
9498.000000;0.164227
9497.000000;0.163677
9496.000000;0.163356
9495.000000;0.163195
9494.000000;0.163068
9493.000000;0.162883
9492.000000;0.162590
9491.000000;0.162176
9490.000000;0.161716
9489.000000;0.161322
9488.000000;0.161004
9487.000000;0.160649
9486.000000;0.160193
9485.000000;0.159707
9484.000000;0.159265
9483.000000;0.158835
9482.000000;0.158400
9481.000000;0.158045
9480.000000;0.157810
9479.000000;0.157574
9478.000000;0.157225
9477.000000;0.156855
9476.000000;0.156602
9475.000000;0.156404
9474.000000;0.156079
9473.000000;0.155609
9472.000000;0.155142
9471.000000;0.154742
9470.000000;0.154341
9469.000000;0.153931
9468.000000;0.153614
9467.000000;0.153410
9466.000000;0.153176
9465.000000;0.152781
9464.000000;0.152260
9463.000000;0.151730
9462.000000;0.151266
9461.000000;0.150897
9460.000000;0.150631
9459.000000;0.150428
9458.000000;0.150195
9457.000000;0.149855
9456.000000;0.149392
9455.000000;0.148833
9454.000000;0.148247
9453.000000;0.147735
9452.000000;0.147364
9451.000000;0.147086
9450.000000;0.146790
9449.000000;0.146435
9448.000000;0.146079
9447.000000;0.145781
9446.000000;0.145537
9445.000000;0.145286
9444.000000;0.144950
9443.000000;0.144502
9442.000000;0.144017
9441.000000;0.143647
9440.000000;0.143481
9439.000000;0.143458
9438.000000;0.143433
9437.000000;0.143285
9436.000000;0.142948
9435.000000;0.142422
9434.000000;0.141820
9433.000000;0.141314
9432.000000;0.140956
9431.000000;0.140629
9430.000000;0.140231
9429.000000;0.139811
9428.000000;0.139441
9427.000000;0.139076
9426.000000;0.138653
9425.000000;0.138236
9424.000000;0.137927
9423.000000;0.137685
9422.000000;0.137410
9421.000000;0.137135
9420.000000;0.136976
9419.000000;0.136904
9418.000000;0.136727
9417.000000;0.136322
9416.000000;0.135754
9415.000000;0.135183
9414.000000;0.134740
9413.000000;0.134470
9412.000000;0.134307
9411.000000;0.134104
9410.000000;0.133787
9409.000000;0.133453
9408.000000;0.133212
9407.000000;0.132994
9406.000000;0.132636
9405.000000;0.132126
9404.000000;0.131612
9403.000000;0.131182
9402.000000;0.130776
9401.000000;0.130346
9400.000000;0.129944
9399.000000;0.129625
9398.000000;0.129358
9397.000000;0.129072
9396.000000;0.128724
9395.000000;0.128290
9394.000000;0.127779
9393.000000;0.127299
9392.000000;0.127005
9391.000000;0.126927
9390.000000;0.126892
9389.000000;0.126671
9388.000000;0.126193
9387.000000;0.125601
9386.000000;0.125103
9385.000000;0.124782
9384.000000;0.124538
9383.000000;0.124241
9382.000000;0.123920
9381.000000;0.123716
9380.000000;0.123656
9379.000000;0.123568
9378.000000;0.123293
9377.000000;0.122879
9376.000000;0.122471
9375.000000;0.122114
9374.000000;0.121757
9373.000000;0.121382
9372.000000;0.121008
9371.000000;0.120609
9370.000000;0.120165
9369.000000;0.119752
9368.000000;0.119480
9367.000000;0.119332
9366.000000;0.119167
9365.000000;0.118878
9364.000000;0.118471
9363.000000;0.118021
9362.000000;0.117624
9361.000000;0.117352
9360.000000;0.117159
9359.000000;0.116880
9358.000000;0.116412
9357.000000;0.115867
9356.000000;0.115457
9355.000000;0.115263
9354.000000;0.115194
9353.000000;0.115128
9352.000000;0.114977
9351.000000;0.114671
9350.000000;0.114198
9349.000000;0.113660
9348.000000;0.113201
9347.000000;0.112856
9346.000000;0.112553
9345.000000;0.112230
9344.000000;0.111892
9343.000000;0.111581
9342.000000;0.111341
9341.000000;0.111182
9340.000000;0.111015
9339.000000;0.110706
9338.000000;0.110261
9337.000000;0.109882
9336.000000;0.109718
9335.000000;0.109654
9334.000000;0.109469
9333.000000;0.109138
9332.000000;0.108821
9331.000000;0.108593
9330.000000;0.108363
9329.000000;0.108051
9328.000000;0.107689
9327.000000;0.107334
9326.000000;0.106999
9325.000000;0.106700
9324.000000;0.106449
9323.000000;0.106193
9322.000000;0.105860
9321.000000;0.105468
9320.000000;0.105103
9319.000000;0.104800
9318.000000;0.104523
9317.000000;0.104251
9316.000000;0.103990
9315.000000;0.103715
9314.000000;0.103398
9313.000000;0.103069
9312.000000;0.102752
9311.000000;0.102381
9310.000000;0.101898
9309.000000;0.101400
9308.000000;0.101054
9307.000000;0.100872
9306.000000;0.100717
9305.000000;0.100519
9304.000000;0.100331
9303.000000;0.100138
9302.000000;0.099806
9301.000000;0.099261
9300.000000;0.098627
9299.000000;0.098095
9298.000000;0.097767
9297.000000;0.097635
9296.000000;0.097631
9295.000000;0.097612
9294.000000;0.097431
9293.000000;0.097066
9292.000000;0.096638
9291.000000;0.096248
9290.000000;0.095894
9289.000000;0.095561
9288.000000;0.095301
9287.000000;0.095134
9286.000000;0.094982
9285.000000;0.094754
9284.000000;0.094461
9283.000000;0.094156
9282.000000;0.093847
9281.000000;0.093519
9280.000000;0.093213
9279.000000;0.092981
9278.000000;0.092788
9277.000000;0.092551
9276.000000;0.092255
9275.000000;0.091969
9274.000000;0.091726
9273.000000;0.091460
9272.000000;0.091089
9271.000000;0.090635
9270.000000;0.090209
9269.000000;0.089874
9268.000000;0.089580
9267.000000;0.089254
9266.000000;0.088904
9265.000000;0.088603
9264.000000;0.088384
9263.000000;0.088223
9262.000000;0.088100
9261.000000;0.088001
9260.000000;0.087845
9259.000000;0.087506
9258.000000;0.086998
9257.000000;0.086539
9256.000000;0.086345
9255.000000;0.086381
9254.000000;0.086394
9253.000000;0.086179
9252.000000;0.085738
9251.000000;0.085203
9250.000000;0.084690
9249.000000;0.084268
9248.000000;0.083988
9247.000000;0.083879
9246.000000;0.083901
9245.000000;0.083934
9244.000000;0.083826
9243.000000;0.083506
9242.000000;0.083053
9241.000000;0.082636
9240.000000;0.082362
9239.000000;0.082198
9238.000000;0.082047
9237.000000;0.081862
9236.000000;0.081670
9235.000000;0.081505
9234.000000;0.081353
9233.000000;0.081135
9232.000000;0.080768
9231.000000;0.080264
9230.000000;0.079770
9229.000000;0.079454
9228.000000;0.079336
9227.000000;0.079287
9226.000000;0.079176
9225.000000;0.078969
9224.000000;0.078671
9223.000000;0.078295
9222.000000;0.077894
9221.000000;0.077562
9220.000000;0.077330
9219.000000;0.077123
9218.000000;0.076856
9217.000000;0.076517
9216.000000;0.076140
9215.000000;0.075763
9214.000000;0.075436
9213.000000;0.075184
9212.000000;0.074946
9211.000000;0.074631
9210.000000;0.074267
9209.000000;0.073993
9208.000000;0.073858
9207.000000;0.073751
9206.000000;0.073565
9205.000000;0.073331
9204.000000;0.073113
9203.000000;0.072884
9202.000000;0.072601
9201.000000;0.072303
9200.000000;0.072029
9199.000000;0.071743
9198.000000;0.071424
9197.000000;0.071164
9196.000000;0.071043
9195.000000;0.070987
9194.000000;0.070858
9193.000000;0.070641
9192.000000;0.070426
9191.000000;0.070257
9190.000000;0.070103
9189.000000;0.069926
9188.000000;0.069703
9187.000000;0.069396
9186.000000;0.069015
9185.000000;0.068649
9184.000000;0.068359
9183.000000;0.068093
9182.000000;0.067797
9181.000000;0.067548
9180.000000;0.067449
9179.000000;0.067437
9178.000000;0.067312
9177.000000;0.066959
9176.000000;0.066453
9175.000000;0.065970
9174.000000;0.065640
9173.000000;0.065488
9172.000000;0.065421
9171.000000;0.065284
9170.000000;0.064997
9169.000000;0.064613
9168.000000;0.064226
9167.000000;0.063864
9166.000000;0.063534
9165.000000;0.063270
9164.000000;0.063076
9163.000000;0.062876
9162.000000;0.062619
9161.000000;0.062370
9160.000000;0.062226
9159.000000;0.062165
9158.000000;0.062089
9157.000000;0.061967
9156.000000;0.061835
9155.000000;0.061700
9154.000000;0.061527
9153.000000;0.061323
9152.000000;0.061124
9151.000000;0.060938
9150.000000;0.060741
9149.000000;0.060531
9148.000000;0.060322
9147.000000;0.060095
9146.000000;0.059831
9145.000000;0.059539
9144.000000;0.059224
9143.000000;0.058875
9142.000000;0.058517
9141.000000;0.058221
9140.000000;0.058006
9139.000000;0.057795
9138.000000;0.057552
9137.000000;0.057358
9136.000000;0.057275
9135.000000;0.057202
9134.000000;0.056995
9133.000000;0.056669
9132.000000;0.056374
9131.000000;0.056193
9130.000000;0.056070
9129.000000;0.055911
9128.000000;0.055665
9127.000000;0.055327
9126.000000;0.054952
9125.000000;0.054635
9124.000000;0.054418
9123.000000;0.054241
9122.000000;0.054056
9121.000000;0.053916
9120.000000;0.053863
9119.000000;0.053791
9118.000000;0.053553
9117.000000;0.053162
9116.000000;0.052788
9115.000000;0.052560
9114.000000;0.052473
9113.000000;0.052454
9112.000000;0.052427
9111.000000;0.052317
9110.000000;0.052084
9109.000000;0.051764
9108.000000;0.051428
9107.000000;0.051112
9106.000000;0.050824
9105.000000;0.050578
9104.000000;0.050356
9103.000000;0.050089
9102.000000;0.049761
9101.000000;0.049471
9100.000000;0.049316
9099.000000;0.049254
9098.000000;0.049162
9097.000000;0.049002
9096.000000;0.048824
9095.000000;0.048668
9094.000000;0.048536
9093.000000;0.048434
9092.000000;0.048335
9091.000000;0.048142
9090.000000;0.047776
9089.000000;0.047304
9088.000000;0.046893
9087.000000;0.046638
9086.000000;0.046517
9085.000000;0.046464
9084.000000;0.046409
9083.000000;0.046279
9082.000000;0.046052
9081.000000;0.045801
9080.000000;0.045609
9079.000000;0.045457
9078.000000;0.045274
9077.000000;0.045062
9076.000000;0.044896
9075.000000;0.044796
9074.000000;0.044706
9073.000000;0.044570
9072.000000;0.044366
9071.000000;0.044093
9070.000000;0.043784
9069.000000;0.043524
9068.000000;0.043376
9067.000000;0.043281
9066.000000;0.043111
9065.000000;0.042807
9064.000000;0.042432
9063.000000;0.042103
9062.000000;0.041905
9061.000000;0.041844
9060.000000;0.041823
9059.000000;0.041712
9058.000000;0.041478
9057.000000;0.041209
9056.000000;0.040985
9055.000000;0.040782
9054.000000;0.040559
9053.000000;0.040361
