Criado como novo conjunto de dados;"e2410_daniel_v2.spp","17102.6 Secs"
cm-1;Abs
10000.000000;0.270044
9999.000000;0.269632
9998.000000;0.269226
9997.000000;0.268749
9996.000000;0.268239
9995.000000;0.267827
9994.000000;0.267542
9993.000000;0.267253
9992.000000;0.266767
9991.000000;0.266037
9990.000000;0.265201
9989.000000;0.264443
9988.000000;0.263860
9987.000000;0.263454
9986.000000;0.263187
9985.000000;0.262987
9984.000000;0.262759
9983.000000;0.262419
9982.000000;0.261952
9981.000000;0.261400
9980.000000;0.260820
9979.000000;0.260264
9978.000000;0.259775
9977.000000;0.259346
9976.000000;0.258927
9975.000000;0.258493
9974.000000;0.258088
9973.000000;0.257743
9972.000000;0.257392
9971.000000;0.256928
9970.000000;0.256362
9969.000000;0.255818
9968.000000;0.255338
9967.000000;0.254788
9966.000000;0.254047
9965.000000;0.253239
9964.000000;0.252637
9963.000000;0.252333
9962.000000;0.252117
9961.000000;0.251739
9960.000000;0.251206
9959.000000;0.250717
9958.000000;0.250378
9957.000000;0.250087
9956.000000;0.249697
9955.000000;0.249170
9954.000000;0.248568
9953.000000;0.247977
9952.000000;0.247477
9951.000000;0.247084
9950.000000;0.246689
9949.000000;0.246129
9948.000000;0.245383
9947.000000;0.244643
9946.000000;0.244119
9945.000000;0.243832
9944.000000;0.243634
9943.000000;0.243372
9942.000000;0.242983
9941.000000;0.242478
9940.000000;0.241922
9939.000000;0.241405
9938.000000;0.240963
9937.000000;0.240547
9936.000000;0.240118
9935.000000;0.239718
9934.000000;0.239360
9933.000000;0.238929
9932.000000;0.238295
9931.000000;0.237500
9930.000000;0.236721
9929.000000;0.236053
9928.000000;0.235450
9927.000000;0.234879
9926.000000;0.234399
9925.000000;0.234050
9924.000000;0.233743
9923.000000;0.233360
9922.000000;0.232885
9921.000000;0.232383
9920.000000;0.231894
9919.000000;0.231402
9918.000000;0.230875
9917.000000;0.230302
9916.000000;0.229711
9915.000000;0.229177
9914.000000;0.228761
9913.000000;0.228450
9912.000000;0.228173
9911.000000;0.227876
9910.000000;0.227544
9909.000000;0.227159
9908.000000;0.226699
9907.000000;0.226176
9906.000000;0.225604
9905.000000;0.224955
9904.000000;0.224205
9903.000000;0.223455
9902.000000;0.222863
9901.000000;0.222450
9900.000000;0.222057
9899.000000;0.221544
9898.000000;0.220964
9897.000000;0.220453
9896.000000;0.220053
9895.000000;0.219699
9894.000000;0.219343
9893.000000;0.218985
9892.000000;0.218620
9891.000000;0.218229
9890.000000;0.217823
9889.000000;0.217452
9888.000000;0.217129
9887.000000;0.216793
9886.000000;0.216330
9885.000000;0.215657
9884.000000;0.214810
9883.000000;0.213955
9882.000000;0.213273
9881.000000;0.212806
9880.000000;0.212466
9879.000000;0.212167
9878.000000;0.211882
9877.000000;0.211563
9876.000000;0.211109
9875.000000;0.210486
9874.000000;0.209812
9873.000000;0.209254
9872.000000;0.208860
9871.000000;0.208540
9870.000000;0.208178
9869.000000;0.207721
9868.000000;0.207178
9867.000000;0.206603
9866.000000;0.206057
9865.000000;0.205558
9864.000000;0.205080
9863.000000;0.204610
9862.000000;0.204193
9861.000000;0.203883
9860.000000;0.203668
9859.000000;0.203471
9858.000000;0.203195
9857.000000;0.202767
9856.000000;0.202195
9855.000000;0.201600
9854.000000;0.201123
9853.000000;0.200777
9852.000000;0.200422
9851.000000;0.199934
9850.000000;0.199320
9849.000000;0.198657
9848.000000;0.197978
9847.000000;0.197294
9846.000000;0.196652
9845.000000;0.196096
9844.000000;0.195619
9843.000000;0.195192
9842.000000;0.194805
9841.000000;0.194443
9840.000000;0.194074
9839.000000;0.193701
9838.000000;0.193382
9837.000000;0.193119
9836.000000;0.192802
9835.000000;0.192343
9834.000000;0.191802
9833.000000;0.191289
9832.000000;0.190794
9831.000000;0.190230
9830.000000;0.189602
9829.000000;0.189030
9828.000000;0.188589
9827.000000;0.188234
9826.000000;0.187888
9825.000000;0.187513
9824.000000;0.187098
9823.000000;0.186639
9822.000000;0.186145
9821.000000;0.185620
9820.000000;0.185030
9819.000000;0.184366
9818.000000;0.183720
9817.000000;0.183211
9816.000000;0.182838
9815.000000;0.182470
9814.000000;0.182022
9813.000000;0.181544
9812.000000;0.181106
9811.000000;0.180692
9810.000000;0.180259
9809.000000;0.179839
9808.000000;0.179503
9807.000000;0.179237
9806.000000;0.178931
9805.000000;0.178498
9804.000000;0.177952
9803.000000;0.177366
9802.000000;0.176769
9801.000000;0.176150
9800.000000;0.175538
9799.000000;0.175039
9798.000000;0.174738
9797.000000;0.174577
9796.000000;0.174383
9795.000000;0.174037
9794.000000;0.173573
9793.000000;0.173092
9792.000000;0.172635
9791.000000;0.172171
9790.000000;0.171665
9789.000000;0.171108
9788.000000;0.170494
9787.000000;0.169829
9786.000000;0.169168
9785.000000;0.168589
9784.000000;0.168133
9783.000000;0.167783
9782.000000;0.167487
9781.000000;0.167183
9780.000000;0.166817
9779.000000;0.166386
9778.000000;0.165929
9777.000000;0.165484
9776.000000;0.165048
9775.000000;0.164607
9774.000000;0.164158
9773.000000;0.163687
9772.000000;0.163170
9771.000000;0.162626
9770.000000;0.162125
9769.000000;0.161700
9768.000000;0.161297
9767.000000;0.160850
9766.000000;0.160368
9765.000000;0.159891
9764.000000;0.159411
9763.000000;0.158920
9762.000000;0.158483
9761.000000;0.158174
9760.000000;0.157951
9759.000000;0.157675
9758.000000;0.157252
9757.000000;0.156702
9756.000000;0.156094
9755.000000;0.155508
9754.000000;0.155037
9753.000000;0.154728
9752.000000;0.154490
9751.000000;0.154167
9750.000000;0.153709
9749.000000;0.153225
9748.000000;0.152821
9747.000000;0.152450
9746.000000;0.151984
9745.000000;0.151386
9744.000000;0.150759
9743.000000;0.150252
9742.000000;0.149920
9741.000000;0.149659
9740.000000;0.149296
9739.000000;0.148757
9738.000000;0.148147
9737.000000;0.147617
9736.000000;0.147189
9735.000000;0.146764
9734.000000;0.146278
9733.000000;0.145771
9732.000000;0.145294
9731.000000;0.144841
9730.000000;0.144399
9729.000000;0.143997
9728.000000;0.143656
9727.000000;0.143347
9726.000000;0.143030
9725.000000;0.142689
9724.000000;0.142305
9723.000000;0.141843
9722.000000;0.141315
9721.000000;0.140808
9720.000000;0.140400
9719.000000;0.140057
9718.000000;0.139657
9717.000000;0.139113
9716.000000;0.138448
9715.000000;0.137770
9714.000000;0.137197
9713.000000;0.136770
9712.000000;0.136440
9711.000000;0.136117
9710.000000;0.135762
9709.000000;0.135384
9708.000000;0.134986
9707.000000;0.134527
9706.000000;0.133974
9705.000000;0.133367
9704.000000;0.132808
9703.000000;0.132390
9702.000000;0.132116
9701.000000;0.131883
9700.000000;0.131574
9699.000000;0.131196
9698.000000;0.130873
9697.000000;0.130675
9696.000000;0.130490
9695.000000;0.130140
9694.000000;0.129590
9693.000000;0.128938
9692.000000;0.128251
9691.000000;0.127512
9690.000000;0.126758
9689.000000;0.126144
9688.000000;0.125780
9687.000000;0.125599
9686.000000;0.125436
9685.000000;0.125194
9684.000000;0.124855
9683.000000;0.124434
9682.000000;0.123982
9681.000000;0.123595
9680.000000;0.123309
9679.000000;0.123017
9678.000000;0.122578
9677.000000;0.122011
9676.000000;0.121485
9675.000000;0.121108
9674.000000;0.120807
9673.000000;0.120439
9672.000000;0.119959
9671.000000;0.119438
9670.000000;0.118957
9669.000000;0.118540
9668.000000;0.118165
9667.000000;0.117804
9666.000000;0.117429
9665.000000;0.117008
9664.000000;0.116525
9663.000000;0.116018
9662.000000;0.115574
9661.000000;0.115241
9660.000000;0.114951
9659.000000;0.114560
9658.000000;0.113981
9657.000000;0.113263
9656.000000;0.112545
9655.000000;0.111938
9654.000000;0.111483
9653.000000;0.111163
9652.000000;0.110926
9651.000000;0.110709
9650.000000;0.110464
9649.000000;0.110163
9648.000000;0.109787
9647.000000;0.109333
9646.000000;0.108852
9645.000000;0.108431
9644.000000;0.108081
9643.000000;0.107703
9642.000000;0.107208
9641.000000;0.106656
9640.000000;0.106207
9639.000000;0.105932
9638.000000;0.105746
9637.000000;0.105515
9636.000000;0.105189
9635.000000;0.104783
9634.000000;0.104309
9633.000000;0.103770
9632.000000;0.103214
9631.000000;0.102718
9630.000000;0.102317
9629.000000;0.101971
9628.000000;0.101619
9627.000000;0.101238
9626.000000;0.100832
9625.000000;0.100407
9624.000000;0.099976
9623.000000;0.099576
9622.000000;0.099251
9621.000000;0.098984
9620.000000;0.098688
9619.000000;0.098285
9618.000000;0.097786
9617.000000;0.097268
9616.000000;0.096783
9615.000000;0.096319
9614.000000;0.095857
9613.000000;0.095426
9612.000000;0.095083
9611.000000;0.094830
9610.000000;0.094589
9609.000000;0.094256
9608.000000;0.093782
9607.000000;0.093212
9606.000000;0.092650
9605.000000;0.092182
9604.000000;0.091815
9603.000000;0.091490
9602.000000;0.091158
9601.000000;0.090833
9600.000000;0.090560
9599.000000;0.090339
9598.000000;0.090097
9597.000000;0.089748
9596.000000;0.089286
9595.000000;0.088779
9594.000000;0.088280
9593.000000;0.087777
9592.000000;0.087252
9591.000000;0.086766
9590.000000;0.086418
9589.000000;0.086218
9588.000000;0.086057
9587.000000;0.085816
9586.000000;0.085470
9585.000000;0.085033
9584.000000;0.084492
9583.000000;0.083848
9582.000000;0.083202
9581.000000;0.082703
9580.000000;0.082395
9579.000000;0.082171
9578.000000;0.081904
9577.000000;0.081557
9576.000000;0.081172
9575.000000;0.080787
9574.000000;0.080419
9573.000000;0.080065
9572.000000;0.079692
9571.000000;0.079259
9570.000000;0.078771
9569.000000;0.078303
9568.000000;0.077921
9567.000000;0.077610
9566.000000;0.077307
9565.000000;0.076981
9564.000000;0.076646
9563.000000;0.076305
9562.000000;0.075936
9561.000000;0.075531
9560.000000;0.075123
9559.000000;0.074738
9558.000000;0.074346
9557.000000;0.073885
9556.000000;0.073342
9555.000000;0.072794
9554.000000;0.072347
9553.000000;0.072037
9552.000000;0.071789
9551.000000;0.071487
9550.000000;0.071074
9549.000000;0.070585
9548.000000;0.070095
9547.000000;0.069673
9546.000000;0.069339
9545.000000;0.069045
9544.000000;0.068709
9543.000000;0.068309
9542.000000;0.067928
9541.000000;0.067652
9540.000000;0.067430
9539.000000;0.067119
9538.000000;0.066678
9537.000000;0.066242
9536.000000;0.065954
9535.000000;0.065764
9534.000000;0.065482
9533.000000;0.064997
9532.000000;0.064402
9531.000000;0.063880
9530.000000;0.063527
9529.000000;0.063280
9528.000000;0.062993
9527.000000;0.062579
9526.000000;0.062079
9525.000000;0.061607
9524.000000;0.061240
9523.000000;0.060959
9522.000000;0.060712
9521.000000;0.060462
9520.000000;0.060184
9519.000000;0.059846
9518.000000;0.059450
9517.000000;0.059046
9516.000000;0.058682
9515.000000;0.058346
9514.000000;0.057999
9513.000000;0.057633
9512.000000;0.057263
9511.000000;0.056877
9510.000000;0.056443
9509.000000;0.055972
9508.000000;0.055511
9507.000000;0.055087
9506.000000;0.054688
9505.000000;0.054295
9504.000000;0.053910
9503.000000;0.053542
9502.000000;0.053209
9501.000000;0.052936
9500.000000;0.052702
9499.000000;0.052407
9498.000000;0.051955
9497.000000;0.051386
9496.000000;0.050867
9495.000000;0.050512
9494.000000;0.050274
9493.000000;0.050027
9492.000000;0.049724
9491.000000;0.049430
9490.000000;0.049204
9489.000000;0.049004
9488.000000;0.048716
9487.000000;0.048270
9486.000000;0.047718
9485.000000;0.047207
9484.000000;0.046854
9483.000000;0.046651
9482.000000;0.046476
9481.000000;0.046210
9480.000000;0.045806
9479.000000;0.045291
9478.000000;0.044733
9477.000000;0.044228
9476.000000;0.043859
9475.000000;0.043613
9474.000000;0.043381
9473.000000;0.043065
9472.000000;0.042663
9471.000000;0.042246
9470.000000;0.041862
9469.000000;0.041516
9468.000000;0.041204
9467.000000;0.040911
9466.000000;0.040599
9465.000000;0.040249
9464.000000;0.039912
9463.000000;0.039657
9462.000000;0.039459
9461.000000;0.039198
9460.000000;0.038791
9459.000000;0.038297
9458.000000;0.037846
9457.000000;0.037498
9456.000000;0.037209
9455.000000;0.036893
9454.000000;0.036501
9453.000000;0.036032
9452.000000;0.035526
9451.000000;0.035044
9450.000000;0.034641
9449.000000;0.034328
9448.000000;0.034065
9447.000000;0.033794
9446.000000;0.033475
9445.000000;0.033121
9444.000000;0.032786
9443.000000;0.032512
9442.000000;0.032272
9441.000000;0.031981
9440.000000;0.031601
9439.000000;0.031200
9438.000000;0.030878
9437.000000;0.030629
9436.000000;0.030344
9435.000000;0.029943
9434.000000;0.029475
9433.000000;0.029058
9432.000000;0.028745
9431.000000;0.028476
9430.000000;0.028154
9429.000000;0.027732
9428.000000;0.027238
9427.000000;0.026755
9426.000000;0.026369
9425.000000;0.026123
9424.000000;0.025994
9423.000000;0.025901
9422.000000;0.025762
9421.000000;0.025538
9420.000000;0.025248
9419.000000;0.024941
9418.000000;0.024638
9417.000000;0.024319
9416.000000;0.023947
9415.000000;0.023525
9414.000000;0.023088
9413.000000;0.022667
9412.000000;0.022271
9411.000000;0.021922
9410.000000;0.021643
9409.000000;0.021415
9408.000000;0.021158
9407.000000;0.020809
9406.000000;0.020400
9405.000000;0.020016
9404.000000;0.019701
9403.000000;0.019415
9402.000000;0.019100
9401.000000;0.018740
9400.000000;0.018384
9399.000000;0.018111
9398.000000;0.017972
9397.000000;0.017931
9396.000000;0.017855
9395.000000;0.017618
9394.000000;0.017208
9393.000000;0.016726
9392.000000;0.016285
9391.000000;0.015924
9390.000000;0.015626
9389.000000;0.015347
9388.000000;0.015036
9387.000000;0.014664
9386.000000;0.014257
9385.000000;0.013864
9384.000000;0.013497
9383.000000;0.013136
9382.000000;0.012802
9381.000000;0.012565
9380.000000;0.012433
9379.000000;0.012292
9378.000000;0.012021
9377.000000;0.011630
9376.000000;0.011236
9375.000000;0.010900
9374.000000;0.010564
9373.000000;0.010155
9372.000000;0.009691
9371.000000;0.009269
9370.000000;0.008973
9369.000000;0.008803
9368.000000;0.008678
9367.000000;0.008491
9366.000000;0.008201
9365.000000;0.007853
9364.000000;0.007518
9363.000000;0.007209
9362.000000;0.006899
9361.000000;0.006587
9360.000000;0.006308
9359.000000;0.006061
9358.000000;0.005781
9357.000000;0.005411
9356.000000;0.004971
9355.000000;0.004550
9354.000000;0.004232
9353.000000;0.004047
9352.000000;0.003943
9351.000000;0.003812
9350.000000;0.003562
9349.000000;0.003198
9348.000000;0.002810
9347.000000;0.002468
9346.000000;0.002156
9345.000000;0.001823
9344.000000;0.001453
9343.000000;0.001071
9342.000000;0.000708
9341.000000;0.000386
9340.000000;0.000126
9339.000000;-0.000088
9338.000000;-0.000318
9337.000000;-0.000621
9336.000000;-0.000991
9335.000000;-0.001373
9334.000000;-0.001716
9333.000000;-0.001987
9332.000000;-0.002162
9331.000000;-0.002248
9330.000000;-0.002301
9329.000000;-0.002396
9328.000000;-0.002576
9327.000000;-0.002865
9326.000000;-0.003292
9325.000000;-0.003845
9324.000000;-0.004406
9323.000000;-0.004813
9322.000000;-0.005015
9321.000000;-0.005127
9320.000000;-0.005311
9319.000000;-0.005621
9318.000000;-0.005997
9317.000000;-0.006365
9316.000000;-0.006695
9315.000000;-0.006990
9314.000000;-0.007263
9313.000000;-0.007529
9312.000000;-0.007802
9311.000000;-0.008092
9310.000000;-0.008402
9309.000000;-0.008713
9308.000000;-0.008979
9307.000000;-0.009167
9306.000000;-0.009314
9305.000000;-0.009526
9304.000000;-0.009891
9303.000000;-0.010375
9302.000000;-0.010844
9301.000000;-0.011179
9300.000000;-0.011379
9299.000000;-0.011545
9298.000000;-0.011789
9297.000000;-0.012131
9296.000000;-0.012491
9295.000000;-0.012772
9294.000000;-0.012950
9293.000000;-0.013091
9292.000000;-0.013279
9291.000000;-0.013550
9290.000000;-0.013882
9289.000000;-0.014227
9288.000000;-0.014535
9287.000000;-0.014780
9286.000000;-0.014980
9285.000000;-0.015187
9284.000000;-0.015434
9283.000000;-0.015710
9282.000000;-0.015979
9281.000000;-0.016219
9280.000000;-0.016433
9279.000000;-0.016651
9278.000000;-0.016931
9277.000000;-0.017323
9276.000000;-0.017786
9275.000000;-0.018193
9274.000000;-0.018457
9273.000000;-0.018645
9272.000000;-0.018919
9271.000000;-0.019346
9270.000000;-0.019817
9269.000000;-0.020164
9268.000000;-0.020319
9267.000000;-0.020356
9266.000000;-0.020398
9265.000000;-0.020533
9264.000000;-0.020790
9263.000000;-0.021147
9262.000000;-0.021548
9261.000000;-0.021914
9260.000000;-0.022178
9259.000000;-0.022328
9258.000000;-0.022418
9257.000000;-0.022524
9256.000000;-0.022691
9255.000000;-0.022920
9254.000000;-0.023198
9253.000000;-0.023512
9252.000000;-0.023829
9251.000000;-0.024105
9250.000000;-0.024344
9249.000000;-0.024602
9248.000000;-0.024909
9247.000000;-0.025203
9246.000000;-0.025407
9245.000000;-0.025537
9244.000000;-0.025695
9243.000000;-0.025950
9242.000000;-0.026277
9241.000000;-0.026627
9240.000000;-0.026985
9239.000000;-0.027354
9238.000000;-0.027709
9237.000000;-0.028026
9236.000000;-0.028311
9235.000000;-0.028569
9234.000000;-0.028768
9233.000000;-0.028880
9232.000000;-0.028937
9231.000000;-0.029022
9230.000000;-0.029203
9229.000000;-0.029489
9228.000000;-0.029840
9227.000000;-0.030199
9226.000000;-0.030513
9225.000000;-0.030762
9224.000000;-0.030965
9223.000000;-0.031153
9222.000000;-0.031333
9221.000000;-0.031501
9220.000000;-0.031679
9219.000000;-0.031909
9218.000000;-0.032199
9217.000000;-0.032496
9216.000000;-0.032751
9215.000000;-0.032974
9214.000000;-0.033214
9213.000000;-0.033496
9212.000000;-0.033784
9211.000000;-0.034034
9210.000000;-0.034239
9209.000000;-0.034432
9208.000000;-0.034639
9207.000000;-0.034871
9206.000000;-0.035137
9205.000000;-0.035433
9204.000000;-0.035721
9203.000000;-0.035958
9202.000000;-0.036157
9201.000000;-0.036374
9200.000000;-0.036628
9199.000000;-0.036849
9198.000000;-0.036984
9197.000000;-0.037087
9196.000000;-0.037278
9195.000000;-0.037603
9194.000000;-0.037998
9193.000000;-0.038383
9192.000000;-0.038724
9191.000000;-0.039002
9190.000000;-0.039186
9189.000000;-0.039292
9188.000000;-0.039408
9187.000000;-0.039615
9186.000000;-0.039891
9185.000000;-0.040151
9184.000000;-0.040343
9183.000000;-0.040493
9182.000000;-0.040664
9181.000000;-0.040910
9180.000000;-0.041239
9179.000000;-0.041596
9178.000000;-0.041889
9177.000000;-0.042072
9176.000000;-0.042189
9175.000000;-0.042328
9174.000000;-0.042527
9173.000000;-0.042763
9172.000000;-0.042995
9171.000000;-0.043206
9170.000000;-0.043403
9169.000000;-0.043614
9168.000000;-0.043866
9167.000000;-0.044138
9166.000000;-0.044353
9165.000000;-0.044458
9164.000000;-0.044522
9163.000000;-0.044687
9162.000000;-0.045021
9161.000000;-0.045443
9160.000000;-0.045814
9159.000000;-0.046070
9158.000000;-0.046248
9157.000000;-0.046409
9156.000000;-0.046579
9155.000000;-0.046756
9154.000000;-0.046945
9153.000000;-0.047165
9152.000000;-0.047413
9151.000000;-0.047643
9150.000000;-0.047803
9149.000000;-0.047903
9148.000000;-0.048022
9147.000000;-0.048234
9146.000000;-0.048535
9145.000000;-0.048863
9144.000000;-0.049172
9143.000000;-0.049453
9142.000000;-0.049697
9141.000000;-0.049882
9140.000000;-0.050002
9139.000000;-0.050085
9138.000000;-0.050163
9137.000000;-0.050262
9136.000000;-0.050407
9135.000000;-0.050611
9134.000000;-0.050851
9133.000000;-0.051068
9132.000000;-0.051234
9131.000000;-0.051389
9130.000000;-0.051609
9129.000000;-0.051928
9128.000000;-0.052312
9127.000000;-0.052681
9126.000000;-0.052963
9125.000000;-0.053138
9124.000000;-0.053244
9123.000000;-0.053348
9122.000000;-0.053505
9121.000000;-0.053742
9120.000000;-0.054059
9119.000000;-0.054426
9118.000000;-0.054781
9117.000000;-0.055060
9116.000000;-0.055242
9115.000000;-0.055343
9114.000000;-0.055398
9113.000000;-0.055453
9112.000000;-0.055567
9111.000000;-0.055770
9110.000000;-0.056024
9109.000000;-0.056259
9108.000000;-0.056453
9107.000000;-0.056650
9106.000000;-0.056896
9105.000000;-0.057182
9104.000000;-0.057467
9103.000000;-0.057715
9102.000000;-0.057911
9101.000000;-0.058061
9100.000000;-0.058194
9099.000000;-0.058338
9098.000000;-0.058490
9097.000000;-0.058637
9096.000000;-0.058816
9095.000000;-0.059085
9094.000000;-0.059415
9093.000000;-0.059688
9092.000000;-0.059831
9091.000000;-0.059903
9090.000000;-0.060003
9089.000000;-0.060142
9088.000000;-0.060291
9087.000000;-0.060476
9086.000000;-0.060748
9085.000000;-0.061067
9084.000000;-0.061318
9083.000000;-0.061460
9082.000000;-0.061571
9081.000000;-0.061735
9080.000000;-0.061956
9079.000000;-0.062200
9078.000000;-0.062455
9077.000000;-0.062703
9076.000000;-0.062899
9075.000000;-0.063019
9074.000000;-0.063112
9073.000000;-0.063240
9072.000000;-0.063428
9071.000000;-0.063672
9070.000000;-0.063959
9069.000000;-0.064244
9068.000000;-0.064454
9067.000000;-0.064572
9066.000000;-0.064677
