Criado como novo conjunto de dados;"e2410_daniel_v2.spp","76865.8 Secs"
cm-1;Abs
10000.000000;1.302365
9999.000000;1.302642
9998.000000;1.303489
9997.000000;1.303663
9996.000000;1.302950
9995.000000;1.302229
9994.000000;1.301988
9993.000000;1.301944
9992.000000;1.302018
9991.000000;1.302416
9990.000000;1.302690
9989.000000;1.302017
9988.000000;1.300549
9987.000000;1.299321
9986.000000;1.298742
9985.000000;1.298332
9984.000000;1.297962
9983.000000;1.298098
9982.000000;1.298598
9981.000000;1.298545
9980.000000;1.297650
9979.000000;1.296679
9978.000000;1.296175
9977.000000;1.295802
9976.000000;1.295249
9975.000000;1.294781
9974.000000;1.294549
9973.000000;1.294231
9972.000000;1.293620
9971.000000;1.292829
9970.000000;1.291806
9969.000000;1.290504
9968.000000;1.289475
9967.000000;1.289342
9966.000000;1.289636
9965.000000;1.289182
9964.000000;1.287720
9963.000000;1.286200
9962.000000;1.285446
9961.000000;1.285491
9960.000000;1.286108
9959.000000;1.286936
9958.000000;1.287118
9957.000000;1.286008
9956.000000;1.284374
9955.000000;1.283733
9954.000000;1.284356
9953.000000;1.284997
9952.000000;1.284691
9951.000000;1.283752
9950.000000;1.282792
9949.000000;1.281895
9948.000000;1.281034
9947.000000;1.280318
9946.000000;1.279581
9945.000000;1.278630
9944.000000;1.277970
9943.000000;1.278310
9942.000000;1.279231
9941.000000;1.279403
9940.000000;1.278299
9939.000000;1.276674
9938.000000;1.275228
9937.000000;1.273912
9936.000000;1.272720
9935.000000;1.272051
9934.000000;1.271898
9933.000000;1.271670
9932.000000;1.271149
9931.000000;1.270788
9930.000000;1.270772
9929.000000;1.270664
9928.000000;1.270200
9927.000000;1.269579
9926.000000;1.268812
9925.000000;1.267642
9924.000000;1.266317
9923.000000;1.265587
9922.000000;1.265731
9921.000000;1.266297
9920.000000;1.266920
9919.000000;1.267568
9918.000000;1.267902
9917.000000;1.267333
9916.000000;1.265946
9915.000000;1.264492
9914.000000;1.263311
9913.000000;1.262110
9912.000000;1.260931
9911.000000;1.260337
9910.000000;1.260348
9909.000000;1.260140
9908.000000;1.259178
9907.000000;1.257896
9906.000000;1.256914
9905.000000;1.256297
9904.000000;1.255889
9903.000000;1.255709
9902.000000;1.255642
9901.000000;1.255306
9900.000000;1.254577
9899.000000;1.253802
9898.000000;1.253333
9897.000000;1.253228
9896.000000;1.253419
9895.000000;1.253777
9894.000000;1.254025
9893.000000;1.253972
9892.000000;1.253709
9891.000000;1.253184
9890.000000;1.251953
9889.000000;1.249958
9888.000000;1.248205
9887.000000;1.247901
9886.000000;1.249096
9885.000000;1.250738
9884.000000;1.251784
9883.000000;1.251715
9882.000000;1.250376
9881.000000;1.248211
9880.000000;1.246396
9879.000000;1.245841
9878.000000;1.246158
9877.000000;1.246282
9876.000000;1.245824
9875.000000;1.245037
9874.000000;1.243852
9873.000000;1.242062
9872.000000;1.240257
9871.000000;1.239472
9870.000000;1.239840
9869.000000;1.240447
9868.000000;1.240506
9867.000000;1.239959
9866.000000;1.239017
9865.000000;1.237971
9864.000000;1.237333
9863.000000;1.237352
9862.000000;1.237470
9861.000000;1.237038
9860.000000;1.236367
9859.000000;1.236249
9858.000000;1.236651
9857.000000;1.236833
9856.000000;1.236612
9855.000000;1.236548
9854.000000;1.236859
9853.000000;1.237089
9852.000000;1.236870
9851.000000;1.236193
9850.000000;1.234952
9849.000000;1.233037
9848.000000;1.230900
9847.000000;1.229265
9846.000000;1.228327
9845.000000;1.227836
9844.000000;1.227776
9843.000000;1.228233
9842.000000;1.228820
9841.000000;1.229009
9840.000000;1.228870
9839.000000;1.228704
9838.000000;1.228234
9837.000000;1.227009
9836.000000;1.225353
9835.000000;1.224017
9834.000000;1.223106
9833.000000;1.222217
9832.000000;1.221431
9831.000000;1.221223
9830.000000;1.221465
9829.000000;1.221389
9828.000000;1.220524
9827.000000;1.219025
9826.000000;1.217238
9825.000000;1.215654
9824.000000;1.214995
9823.000000;1.215540
9822.000000;1.216553
9821.000000;1.217078
9820.000000;1.217044
9819.000000;1.216910
9818.000000;1.216702
9817.000000;1.216228
9816.000000;1.215719
9815.000000;1.215317
9814.000000;1.214426
9813.000000;1.212611
9812.000000;1.210670
9811.000000;1.209786
9810.000000;1.209960
9809.000000;1.210306
9808.000000;1.210488
9807.000000;1.210744
9806.000000;1.210876
9805.000000;1.210452
9804.000000;1.209779
9803.000000;1.209488
9802.000000;1.209316
9801.000000;1.208460
9800.000000;1.206981
9799.000000;1.205732
9798.000000;1.205045
9797.000000;1.204564
9796.000000;1.204186
9795.000000;1.204078
9794.000000;1.203912
9793.000000;1.203198
9792.000000;1.202221
9791.000000;1.201584
9790.000000;1.201066
9789.000000;1.200050
9788.000000;1.198795
9787.000000;1.198056
9786.000000;1.197690
9785.000000;1.196943
9784.000000;1.195973
9783.000000;1.195747
9782.000000;1.196389
9781.000000;1.196901
9780.000000;1.196678
9779.000000;1.196130
9778.000000;1.195655
9777.000000;1.195122
9776.000000;1.194530
9775.000000;1.194121
9774.000000;1.193693
9773.000000;1.192783
9772.000000;1.191634
9771.000000;1.190989
9770.000000;1.190906
9769.000000;1.190738
9768.000000;1.190299
9767.000000;1.190043
9766.000000;1.190059
9765.000000;1.189922
9764.000000;1.189554
9763.000000;1.189247
9762.000000;1.188806
9761.000000;1.187710
9760.000000;1.186188
9759.000000;1.185113
9758.000000;1.184773
9757.000000;1.184696
9756.000000;1.184640
9755.000000;1.184738
9754.000000;1.184696
9753.000000;1.183962
9752.000000;1.182775
9751.000000;1.181971
9750.000000;1.181654
9749.000000;1.181107
9748.000000;1.180116
9747.000000;1.179328
9746.000000;1.179133
9745.000000;1.179205
9744.000000;1.179312
9743.000000;1.179614
9742.000000;1.179949
9741.000000;1.179750
9740.000000;1.178903
9739.000000;1.177881
9738.000000;1.176926
9737.000000;1.175916
9736.000000;1.175077
9735.000000;1.174886
9734.000000;1.175180
9733.000000;1.175260
9732.000000;1.174947
9731.000000;1.174717
9730.000000;1.174702
9729.000000;1.174484
9728.000000;1.173932
9727.000000;1.173334
9726.000000;1.172620
9725.000000;1.171387
9724.000000;1.169848
9723.000000;1.168850
9722.000000;1.168783
9721.000000;1.169187
9720.000000;1.169507
9719.000000;1.169533
9718.000000;1.169146
9717.000000;1.168435
9716.000000;1.167996
9715.000000;1.168214
9714.000000;1.168349
9713.000000;1.167276
9712.000000;1.165159
9711.000000;1.163385
9710.000000;1.162804
9709.000000;1.163037
9708.000000;1.163493
9707.000000;1.164053
9706.000000;1.164532
9705.000000;1.164467
9704.000000;1.163755
9703.000000;1.162771
9702.000000;1.161679
9701.000000;1.160358
9700.000000;1.159045
9699.000000;1.158265
9698.000000;1.158012
9697.000000;1.157698
9696.000000;1.157018
9695.000000;1.156224
9694.000000;1.155565
9693.000000;1.155167
9692.000000;1.155355
9691.000000;1.156223
9690.000000;1.156970
9689.000000;1.156562
9688.000000;1.155135
9687.000000;1.153875
9686.000000;1.153471
9685.000000;1.153503
9684.000000;1.153315
9683.000000;1.152674
9682.000000;1.151625
9681.000000;1.150481
9680.000000;1.149895
9679.000000;1.150095
9678.000000;1.150179
9677.000000;1.149083
9676.000000;1.147163
9675.000000;1.145787
9674.000000;1.145435
9673.000000;1.145322
9672.000000;1.144900
9671.000000;1.144584
9670.000000;1.144774
9669.000000;1.145193
9668.000000;1.145509
9667.000000;1.145722
9666.000000;1.145646
9665.000000;1.144855
9664.000000;1.143419
9663.000000;1.141957
9662.000000;1.140759
9661.000000;1.139608
9660.000000;1.138561
9659.000000;1.138086
9658.000000;1.138248
9657.000000;1.138508
9656.000000;1.138532
9655.000000;1.138503
9654.000000;1.138480
9653.000000;1.138211
9652.000000;1.137749
9651.000000;1.137520
9650.000000;1.137546
9649.000000;1.137297
9648.000000;1.136500
9647.000000;1.135516
9646.000000;1.134732
9645.000000;1.134146
9644.000000;1.133691
9643.000000;1.133378
9642.000000;1.133037
9641.000000;1.132418
9640.000000;1.131637
9639.000000;1.131045
9638.000000;1.130689
9637.000000;1.130398
9636.000000;1.130218
9635.000000;1.130216
9634.000000;1.130033
9633.000000;1.129280
9632.000000;1.128247
9631.000000;1.127558
9630.000000;1.127232
9629.000000;1.126783
9628.000000;1.126092
9627.000000;1.125478
9626.000000;1.125022
9625.000000;1.124534
9624.000000;1.124039
9623.000000;1.123615
9622.000000;1.122950
9621.000000;1.121815
9620.000000;1.120780
9619.000000;1.120602
9618.000000;1.121087
9617.000000;1.121368
9616.000000;1.121214
9615.000000;1.121198
9614.000000;1.121640
9613.000000;1.122224
9612.000000;1.122610
9611.000000;1.122601
9610.000000;1.121782
9609.000000;1.119913
9608.000000;1.117679
9607.000000;1.116220
9606.000000;1.115885
9605.000000;1.116147
9604.000000;1.116583
9603.000000;1.117129
9602.000000;1.117465
9601.000000;1.117102
9600.000000;1.116164
9599.000000;1.115300
9598.000000;1.114764
9597.000000;1.114302
9596.000000;1.113838
9595.000000;1.113504
9594.000000;1.113081
9593.000000;1.112204
9592.000000;1.111070
9591.000000;1.110221
9590.000000;1.109705
9589.000000;1.109213
9588.000000;1.108818
9587.000000;1.108756
9586.000000;1.108638
9585.000000;1.107847
9584.000000;1.106658
9583.000000;1.106019
9582.000000;1.106239
9581.000000;1.106738
9580.000000;1.107037
9579.000000;1.107102
9578.000000;1.106772
9577.000000;1.105812
9576.000000;1.104563
9575.000000;1.103669
9574.000000;1.103165
9573.000000;1.102678
9572.000000;1.102420
9571.000000;1.102951
9570.000000;1.103955
9569.000000;1.104345
9568.000000;1.103726
9567.000000;1.102802
9566.000000;1.102168
9565.000000;1.101650
9564.000000;1.101002
9563.000000;1.100306
9562.000000;1.099484
9561.000000;1.098282
9560.000000;1.096990
9559.000000;1.096334
9558.000000;1.096415
9557.000000;1.096521
9556.000000;1.096196
9555.000000;1.095744
9554.000000;1.095454
9553.000000;1.095114
9552.000000;1.094568
9551.000000;1.094049
9550.000000;1.093692
9549.000000;1.093306
9548.000000;1.092843
9547.000000;1.092488
9546.000000;1.092129
9545.000000;1.091358
9544.000000;1.090171
9543.000000;1.089109
9542.000000;1.088574
9541.000000;1.088511
9540.000000;1.088788
9539.000000;1.089285
9538.000000;1.089579
9537.000000;1.089170
9536.000000;1.088140
9535.000000;1.087080
9534.000000;1.086379
9533.000000;1.086053
9532.000000;1.086104
9531.000000;1.086407
9530.000000;1.086431
9529.000000;1.085803
9528.000000;1.084998
9527.000000;1.084726
9526.000000;1.084771
9525.000000;1.084329
9524.000000;1.083365
9523.000000;1.082678
9522.000000;1.082567
9521.000000;1.082421
9520.000000;1.081821
9519.000000;1.081154
9518.000000;1.080787
9517.000000;1.080452
9516.000000;1.079807
9515.000000;1.078977
9514.000000;1.078227
9513.000000;1.077609
9512.000000;1.077171
9511.000000;1.077031
9510.000000;1.077081
9509.000000;1.077016
9508.000000;1.076757
9507.000000;1.076433
9506.000000;1.076002
9505.000000;1.075368
9504.000000;1.074796
9503.000000;1.074643
9502.000000;1.074732
9501.000000;1.074536
9500.000000;1.073940
9499.000000;1.073271
9498.000000;1.072650
9497.000000;1.071944
9496.000000;1.071288
9495.000000;1.071041
9494.000000;1.071218
9493.000000;1.071497
9492.000000;1.071718
9491.000000;1.071832
9490.000000;1.071520
9489.000000;1.070544
9488.000000;1.069341
9487.000000;1.068648
9486.000000;1.068603
9485.000000;1.068814
9484.000000;1.069083
9483.000000;1.069370
9482.000000;1.069257
9481.000000;1.068327
9480.000000;1.067051
9479.000000;1.066459
9478.000000;1.066873
9477.000000;1.067580
9476.000000;1.067793
9475.000000;1.067334
9474.000000;1.066426
9473.000000;1.065445
9472.000000;1.064846
9471.000000;1.064738
9470.000000;1.064597
9469.000000;1.063941
9468.000000;1.063083
9467.000000;1.062570
9466.000000;1.062177
9465.000000;1.061294
9464.000000;1.060102
9463.000000;1.059435
9462.000000;1.059570
9461.000000;1.059972
9460.000000;1.060207
9459.000000;1.060255
9458.000000;1.059910
9457.000000;1.058794
9456.000000;1.057149
9455.000000;1.055830
9454.000000;1.055322
9453.000000;1.055350
9452.000000;1.055465
9451.000000;1.055425
9450.000000;1.055001
9449.000000;1.054107
9448.000000;1.053169
9447.000000;1.052752
9446.000000;1.052821
9445.000000;1.052892
9444.000000;1.052774
9443.000000;1.052559
9442.000000;1.052087
9441.000000;1.051206
9440.000000;1.050387
9439.000000;1.050208
9438.000000;1.050316
9437.000000;1.049794
9436.000000;1.048571
9435.000000;1.047549
9434.000000;1.047257
9433.000000;1.047251
9432.000000;1.047024
9431.000000;1.046683
9430.000000;1.046466
9429.000000;1.046289
9428.000000;1.046026
9427.000000;1.045682
9426.000000;1.045154
9425.000000;1.044329
9424.000000;1.043475
9423.000000;1.043020
9422.000000;1.042956
9421.000000;1.043006
9420.000000;1.043251
9419.000000;1.043904
9418.000000;1.044534
9417.000000;1.044338
9416.000000;1.043262
9415.000000;1.042114
9414.000000;1.041433
9413.000000;1.040951
9412.000000;1.040263
9411.000000;1.039375
9410.000000;1.038433
9409.000000;1.037542
9408.000000;1.036981
9407.000000;1.037036
9406.000000;1.037499
9405.000000;1.037827
9404.000000;1.037845
9403.000000;1.037778
9402.000000;1.037653
9401.000000;1.037270
9400.000000;1.036739
9399.000000;1.036428
9398.000000;1.036356
9397.000000;1.036194
9396.000000;1.035831
9395.000000;1.035401
9394.000000;1.034836
9393.000000;1.033993
9392.000000;1.033154
9391.000000;1.032756
9390.000000;1.032699
9389.000000;1.032522
9388.000000;1.032197
9387.000000;1.032084
9386.000000;1.032166
9385.000000;1.032034
9384.000000;1.031594
9383.000000;1.031149
9382.000000;1.030774
9381.000000;1.030269
9380.000000;1.029658
9379.000000;1.029168
9378.000000;1.028747
9377.000000;1.028262
9376.000000;1.027991
9375.000000;1.028223
9374.000000;1.028509
9373.000000;1.028138
9372.000000;1.027282
9371.000000;1.026800
9370.000000;1.026882
9369.000000;1.026783
9368.000000;1.025998
9367.000000;1.024892
9366.000000;1.024021
9365.000000;1.023552
9364.000000;1.023535
9363.000000;1.024005
9362.000000;1.024613
9361.000000;1.024795
9360.000000;1.024489
9359.000000;1.024117
9358.000000;1.023790
9357.000000;1.023162
9356.000000;1.022177
9355.000000;1.021257
9354.000000;1.020622
9353.000000;1.020062
9352.000000;1.019536
9351.000000;1.019315
9350.000000;1.019357
9349.000000;1.019169
9348.000000;1.018555
9347.000000;1.017952
9346.000000;1.017781
9345.000000;1.017934
9344.000000;1.018108
9343.000000;1.018189
9342.000000;1.018120
9341.000000;1.017783
9340.000000;1.017233
9339.000000;1.016725
9338.000000;1.016391
9337.000000;1.016155
9336.000000;1.015926
9335.000000;1.015577
9334.000000;1.014846
9333.000000;1.013659
9332.000000;1.012467
9331.000000;1.011830
9330.000000;1.011731
9329.000000;1.011696
9328.000000;1.011505
9327.000000;1.011349
9326.000000;1.011397
9325.000000;1.011629
9324.000000;1.011987
9323.000000;1.012280
9322.000000;1.012072
9321.000000;1.011136
9320.000000;1.009878
9319.000000;1.008919
9318.000000;1.008442
9317.000000;1.008300
9316.000000;1.008457
9315.000000;1.008813
9314.000000;1.008922
9313.000000;1.008488
9312.000000;1.007886
9311.000000;1.007588
9310.000000;1.007381
9309.000000;1.006777
9308.000000;1.005892
9307.000000;1.005211
9306.000000;1.004722
9305.000000;1.004081
9304.000000;1.003434
9303.000000;1.003280
9302.000000;1.003598
9301.000000;1.003852
9300.000000;1.003806
9299.000000;1.003654
9298.000000;1.003435
9297.000000;1.003011
9296.000000;1.002548
9295.000000;1.002336
9294.000000;1.002210
9293.000000;1.001820
9292.000000;1.001319
9291.000000;1.001096
9290.000000;1.000979
9289.000000;1.000489
9288.000000;0.999755
9287.000000;0.999359
9286.000000;0.999338
9285.000000;0.999153
9284.000000;0.998670
9283.000000;0.998376
9282.000000;0.998560
9281.000000;0.998994
9280.000000;0.999453
9279.000000;0.999855
9278.000000;0.999890
9277.000000;0.999242
9276.000000;0.998236
9275.000000;0.997536
9274.000000;0.997188
9273.000000;0.996673
9272.000000;0.995919
9271.000000;0.995450
9270.000000;0.995444
9269.000000;0.995431
9268.000000;0.995102
9267.000000;0.994671
9266.000000;0.994263
9265.000000;0.993630
9264.000000;0.992735
9263.000000;0.991992
9262.000000;0.991668
9261.000000;0.991567
9260.000000;0.991465
9259.000000;0.991368
9258.000000;0.991198
9257.000000;0.990741
9256.000000;0.990023
9255.000000;0.989295
9254.000000;0.988589
9253.000000;0.987767
9252.000000;0.987020
9251.000000;0.986747
9250.000000;0.986866
9249.000000;0.986809
9248.000000;0.986327
9247.000000;0.985807
9246.000000;0.985674
9245.000000;0.985915
9244.000000;0.986273
9243.000000;0.986477
9242.000000;0.986271
9241.000000;0.985628
9240.000000;0.984985
9239.000000;0.984826
9238.000000;0.985046
9237.000000;0.985134
9236.000000;0.984929
9235.000000;0.984716
9234.000000;0.984594
9233.000000;0.984277
9232.000000;0.983594
9231.000000;0.982781
9230.000000;0.982191
9229.000000;0.982020
9228.000000;0.982246
9227.000000;0.982553
9226.000000;0.982476
9225.000000;0.981947
9224.000000;0.981464
9223.000000;0.981356
9222.000000;0.981243
9221.000000;0.980705
9220.000000;0.980092
9219.000000;0.979986
9218.000000;0.980161
9217.000000;0.979852
9216.000000;0.978926
9215.000000;0.978060
9214.000000;0.977774
9213.000000;0.977960
9212.000000;0.978312
9211.000000;0.978609
9210.000000;0.978574
9209.000000;0.978080
9208.000000;0.977481
9207.000000;0.977199
9206.000000;0.977057
9205.000000;0.976561
9204.000000;0.975741
9203.000000;0.975116
9202.000000;0.974890
9201.000000;0.974778
9200.000000;0.974575
9199.000000;0.974323
9198.000000;0.973956
9197.000000;0.973355
9196.000000;0.972726
9195.000000;0.972391
9194.000000;0.972283
9193.000000;0.972159
9192.000000;0.972153
9191.000000;0.972526
9190.000000;0.972989
9189.000000;0.972918
9188.000000;0.972207
9187.000000;0.971309
9186.000000;0.970503
9185.000000;0.969740
9184.000000;0.969134
9183.000000;0.968961
9182.000000;0.969171
9181.000000;0.969429
9180.000000;0.969623
9179.000000;0.969789
9178.000000;0.969679
9177.000000;0.969024
9176.000000;0.968160
9175.000000;0.967764
9174.000000;0.967949
9173.000000;0.968172
9172.000000;0.968014
9171.000000;0.967525
9170.000000;0.966898
9169.000000;0.966351
9168.000000;0.966250
9167.000000;0.966741
9166.000000;0.967280
9165.000000;0.967130
9164.000000;0.966293
9163.000000;0.965449
9162.000000;0.965026
9161.000000;0.964901
9160.000000;0.964864
9159.000000;0.964821
9158.000000;0.964613
9157.000000;0.964184
9156.000000;0.963832
9155.000000;0.963735
9154.000000;0.963429
9153.000000;0.962400
9152.000000;0.961039
9151.000000;0.960290
9150.000000;0.960474
9149.000000;0.961119
9148.000000;0.961832
9147.000000;0.962574
9146.000000;0.963147
9145.000000;0.963177
9144.000000;0.962729
9143.000000;0.962275
9142.000000;0.961968
9141.000000;0.961514
9140.000000;0.960795
9139.000000;0.960045
9138.000000;0.959432
9137.000000;0.959002
9136.000000;0.958982
9135.000000;0.959517
9134.000000;0.960156
9133.000000;0.960214
9132.000000;0.959639
9131.000000;0.958970
9130.000000;0.958509
9129.000000;0.958131
9128.000000;0.957807
9127.000000;0.957612
9126.000000;0.957295
9125.000000;0.956530
9124.000000;0.955593
9123.000000;0.955147
9122.000000;0.955318
9121.000000;0.955609
9120.000000;0.955695
9119.000000;0.955652
9118.000000;0.955458
9117.000000;0.954949
9116.000000;0.954343
9115.000000;0.954122
9114.000000;0.954307
9113.000000;0.954408
9112.000000;0.954111
9111.000000;0.953488
9110.000000;0.952616
9109.000000;0.951638
9108.000000;0.951097
9107.000000;0.951446
9106.000000;0.952205
9105.000000;0.952344
9104.000000;0.951612
9103.000000;0.950786
9102.000000;0.950503
9101.000000;0.950559
9100.000000;0.950508
9099.000000;0.950287
9098.000000;0.950004
9097.000000;0.949701
9096.000000;0.949521
9095.000000;0.949609
9094.000000;0.949736
9093.000000;0.949496
9092.000000;0.948964
9091.000000;0.948611
9090.000000;0.948548
9089.000000;0.948405
9088.000000;0.948025
9087.000000;0.947686
9086.000000;0.947550
9085.000000;0.947436
9084.000000;0.947237
9083.000000;0.947023
9082.000000;0.946679
9081.000000;0.945993
9080.000000;0.945204
9079.000000;0.944874
9078.000000;0.945111
9077.000000;0.945421
9076.000000;0.945426
9075.000000;0.945225
9074.000000;0.944954
9073.000000;0.944552
9072.000000;0.944074
9071.000000;0.943714
9070.000000;0.943403
9069.000000;0.942886
9068.000000;0.942280
9067.000000;0.942040
9066.000000;0.942280
9065.000000;0.942622
9064.000000;0.942801
9063.000000;0.942891
9062.000000;0.942870
9061.000000;0.942515
9060.000000;0.941904
9059.000000;0.941488
9058.000000;0.941467
9057.000000;0.941524
9056.000000;0.941313
9055.000000;0.940806
9054.000000;0.940085
9053.000000;0.939255
