Criado como novo conjunto de dados;"e2410_daniel_v2.spp","103687.4 Secs"
cm-1;Abs
10000.000000;0.144129
9999.000000;0.144866
9998.000000;0.145424
9997.000000;0.145854
9996.000000;0.146267
9995.000000;0.146717
9994.000000;0.147288
9993.000000;0.148025
9992.000000;0.148880
9991.000000;0.149705
9990.000000;0.150382
9989.000000;0.150897
9988.000000;0.151315
9987.000000;0.151742
9986.000000;0.152329
9985.000000;0.153205
9984.000000;0.154325
9983.000000;0.155435
9982.000000;0.156275
9981.000000;0.156845
9980.000000;0.157388
9979.000000;0.158101
9978.000000;0.158918
9977.000000;0.159637
9976.000000;0.160210
9975.000000;0.160798
9974.000000;0.161541
9973.000000;0.162365
9972.000000;0.163077
9971.000000;0.163602
9970.000000;0.164049
9969.000000;0.164549
9968.000000;0.165110
9967.000000;0.165639
9966.000000;0.166082
9965.000000;0.166507
9964.000000;0.167058
9963.000000;0.167831
9962.000000;0.168758
9961.000000;0.169624
9960.000000;0.170249
9959.000000;0.170668
9958.000000;0.171105
9957.000000;0.171761
9956.000000;0.172651
9955.000000;0.173645
9954.000000;0.174612
9953.000000;0.175476
9952.000000;0.176190
9951.000000;0.176762
9950.000000;0.177315
9949.000000;0.178032
9948.000000;0.178968
9947.000000;0.179953
9946.000000;0.180750
9945.000000;0.181298
9944.000000;0.181742
9943.000000;0.182230
9942.000000;0.182772
9941.000000;0.183317
9940.000000;0.183886
9939.000000;0.184545
9938.000000;0.185297
9937.000000;0.186092
9936.000000;0.186933
9935.000000;0.187888
9934.000000;0.188972
9933.000000;0.190091
9932.000000;0.191117
9931.000000;0.191972
9930.000000;0.192646
9929.000000;0.193186
9928.000000;0.193679
9927.000000;0.194197
9926.000000;0.194743
9925.000000;0.195309
9924.000000;0.195980
9923.000000;0.196851
9922.000000;0.197837
9921.000000;0.198680
9920.000000;0.199239
9919.000000;0.199681
9918.000000;0.200298
9917.000000;0.201192
9916.000000;0.202229
9915.000000;0.203233
9914.000000;0.204122
9913.000000;0.204906
9912.000000;0.205654
9911.000000;0.206460
9910.000000;0.207332
9909.000000;0.208140
9908.000000;0.208751
9907.000000;0.209215
9906.000000;0.209725
9905.000000;0.210414
9904.000000;0.211256
9903.000000;0.212149
9902.000000;0.213007
9901.000000;0.213768
9900.000000;0.214413
9899.000000;0.214997
9898.000000;0.215610
9897.000000;0.216294
9896.000000;0.217048
9895.000000;0.217881
9894.000000;0.218792
9893.000000;0.219710
9892.000000;0.220554
9891.000000;0.221351
9890.000000;0.222185
9889.000000;0.223055
9888.000000;0.223864
9887.000000;0.224564
9886.000000;0.225207
9885.000000;0.225868
9884.000000;0.226615
9883.000000;0.227535
9882.000000;0.228651
9881.000000;0.229793
9880.000000;0.230698
9879.000000;0.231300
9878.000000;0.231803
9877.000000;0.232413
9876.000000;0.233128
9875.000000;0.233858
9874.000000;0.234595
9873.000000;0.235369
9872.000000;0.236157
9871.000000;0.236947
9870.000000;0.237819
9869.000000;0.238810
9868.000000;0.239794
9867.000000;0.240643
9866.000000;0.241442
9865.000000;0.242391
9864.000000;0.243506
9863.000000;0.244590
9862.000000;0.245493
9861.000000;0.246262
9860.000000;0.246991
9859.000000;0.247675
9858.000000;0.248301
9857.000000;0.248958
9856.000000;0.249778
9855.000000;0.250780
9854.000000;0.251860
9853.000000;0.252887
9852.000000;0.253772
9851.000000;0.254491
9850.000000;0.255085
9849.000000;0.255634
9848.000000;0.256198
9847.000000;0.256801
9846.000000;0.257490
9845.000000;0.258358
9844.000000;0.259453
9843.000000;0.260670
9842.000000;0.261822
9841.000000;0.262812
9840.000000;0.263716
9839.000000;0.264640
9838.000000;0.265563
9837.000000;0.266362
9836.000000;0.267002
9835.000000;0.267605
9834.000000;0.268321
9833.000000;0.269165
9832.000000;0.270045
9831.000000;0.270921
9830.000000;0.271840
9829.000000;0.272833
9828.000000;0.273834
9827.000000;0.274739
9826.000000;0.275486
9825.000000;0.276072
9824.000000;0.276563
9823.000000;0.277127
9822.000000;0.277974
9821.000000;0.279173
9820.000000;0.280530
9819.000000;0.281721
9818.000000;0.282609
9817.000000;0.283374
9816.000000;0.284300
9815.000000;0.285457
9814.000000;0.286614
9813.000000;0.287524
9812.000000;0.288220
9811.000000;0.288969
9810.000000;0.289914
9809.000000;0.290880
9808.000000;0.291629
9807.000000;0.292240
9806.000000;0.293030
9805.000000;0.294112
9804.000000;0.295203
9803.000000;0.296002
9802.000000;0.296624
9801.000000;0.297478
9800.000000;0.298756
9799.000000;0.300191
9798.000000;0.301363
9797.000000;0.302115
9796.000000;0.302638
9795.000000;0.303222
9794.000000;0.304008
9793.000000;0.304943
9792.000000;0.305924
9791.000000;0.306913
9790.000000;0.307881
9789.000000;0.308674
9788.000000;0.309089
9787.000000;0.309176
9786.000000;0.309363
9785.000000;0.310112
9784.000000;0.311455
9783.000000;0.312983
9782.000000;0.314307
9781.000000;0.315401
9780.000000;0.316471
9779.000000;0.317651
9778.000000;0.318901
9777.000000;0.320062
9776.000000;0.320928
9775.000000;0.321376
9774.000000;0.321591
9773.000000;0.322069
9772.000000;0.323227
9771.000000;0.324967
9770.000000;0.326734
9769.000000;0.328025
9768.000000;0.328789
9767.000000;0.329331
9766.000000;0.329970
9765.000000;0.330836
9764.000000;0.331904
9763.000000;0.333095
9762.000000;0.334339
9761.000000;0.335573
9760.000000;0.336720
9759.000000;0.337689
9758.000000;0.338435
9757.000000;0.339030
9756.000000;0.339611
9755.000000;0.340245
9754.000000;0.340903
9753.000000;0.341557
9752.000000;0.342261
9751.000000;0.343096
9750.000000;0.344082
9749.000000;0.345177
9748.000000;0.346314
9747.000000;0.347386
9746.000000;0.348292
9745.000000;0.349072
9744.000000;0.349978
9743.000000;0.351263
9742.000000;0.352867
9741.000000;0.354411
9740.000000;0.355578
9739.000000;0.356409
9738.000000;0.357165
9737.000000;0.357963
9736.000000;0.358702
9735.000000;0.359332
9734.000000;0.360055
9733.000000;0.361154
9732.000000;0.362688
9731.000000;0.364397
9730.000000;0.365887
9729.000000;0.366869
9728.000000;0.367298
9727.000000;0.367409
9726.000000;0.367604
9725.000000;0.368199
9724.000000;0.369223
9723.000000;0.370450
9722.000000;0.371639
9721.000000;0.372704
9720.000000;0.373699
9719.000000;0.374719
9718.000000;0.375814
9717.000000;0.376934
9716.000000;0.377952
9715.000000;0.378807
9714.000000;0.379623
9713.000000;0.380573
9712.000000;0.381610
9711.000000;0.382480
9710.000000;0.383114
9709.000000;0.383820
9708.000000;0.384940
9707.000000;0.386376
9706.000000;0.387680
9705.000000;0.388597
9704.000000;0.389335
9703.000000;0.390225
9702.000000;0.391309
9701.000000;0.392413
9700.000000;0.393451
9699.000000;0.394496
9698.000000;0.395588
9697.000000;0.396647
9696.000000;0.397604
9695.000000;0.398520
9694.000000;0.399509
9693.000000;0.400576
9692.000000;0.401588
9691.000000;0.402416
9690.000000;0.403104
9689.000000;0.403889
9688.000000;0.404988
9687.000000;0.406358
9686.000000;0.407672
9685.000000;0.408596
9684.000000;0.409125
9683.000000;0.409615
9682.000000;0.410449
9681.000000;0.411672
9680.000000;0.412989
9679.000000;0.414138
9678.000000;0.415200
9677.000000;0.416451
9676.000000;0.417881
9675.000000;0.419048
9674.000000;0.419523
9673.000000;0.419454
9672.000000;0.419491
9671.000000;0.420146
9670.000000;0.421344
9669.000000;0.422636
9668.000000;0.423717
9667.000000;0.424622
9666.000000;0.425482
9665.000000;0.426261
9664.000000;0.426834
9663.000000;0.427253
9662.000000;0.427815
9661.000000;0.428784
9660.000000;0.430088
9659.000000;0.431415
9658.000000;0.432641
9657.000000;0.433990
9656.000000;0.435676
9655.000000;0.437498
9654.000000;0.438980
9653.000000;0.439862
9652.000000;0.440287
9651.000000;0.440546
9650.000000;0.440879
9649.000000;0.441513
9648.000000;0.442597
9647.000000;0.443960
9646.000000;0.445142
9645.000000;0.445848
9644.000000;0.446271
9643.000000;0.446803
9642.000000;0.447552
9641.000000;0.448293
9640.000000;0.448826
9639.000000;0.449232
9638.000000;0.449819
9637.000000;0.450914
9636.000000;0.452610
9635.000000;0.454565
9634.000000;0.456127
9633.000000;0.456867
9632.000000;0.456985
9631.000000;0.457076
9630.000000;0.457526
9629.000000;0.458277
9628.000000;0.459119
9627.000000;0.460012
9626.000000;0.461044
9625.000000;0.462209
9624.000000;0.463349
9623.000000;0.464334
9622.000000;0.465251
9621.000000;0.466375
9620.000000;0.467843
9619.000000;0.469349
9618.000000;0.470319
9617.000000;0.470525
9616.000000;0.470403
9615.000000;0.470620
9614.000000;0.471423
9613.000000;0.472568
9612.000000;0.473774
9611.000000;0.474982
9610.000000;0.476157
9609.000000;0.477118
9608.000000;0.477706
9607.000000;0.477974
9606.000000;0.478150
9605.000000;0.478503
9604.000000;0.479293
9603.000000;0.480637
9602.000000;0.482326
9601.000000;0.483890
9600.000000;0.485006
9599.000000;0.485769
9598.000000;0.486443
9597.000000;0.487076
9596.000000;0.487494
9595.000000;0.487655
9594.000000;0.487809
9593.000000;0.488289
9592.000000;0.489242
9591.000000;0.490576
9590.000000;0.492046
9589.000000;0.493356
9588.000000;0.494291
9587.000000;0.494872
9586.000000;0.495376
9585.000000;0.496100
9584.000000;0.497065
9583.000000;0.497985
9582.000000;0.498551
9581.000000;0.498731
9580.000000;0.498748
9579.000000;0.498844
9578.000000;0.499124
9577.000000;0.499595
9576.000000;0.500207
9575.000000;0.500812
9574.000000;0.501256
9573.000000;0.501612
9572.000000;0.502208
9571.000000;0.503255
9570.000000;0.504491
9569.000000;0.505348
9568.000000;0.505524
9567.000000;0.505265
9566.000000;0.505086
9565.000000;0.505345
9564.000000;0.506103
9563.000000;0.507217
9562.000000;0.508444
9561.000000;0.509575
9560.000000;0.510596
9559.000000;0.511707
9558.000000;0.513065
9557.000000;0.514509
9556.000000;0.515643
9555.000000;0.516197
9554.000000;0.516251
9553.000000;0.516101
9552.000000;0.515987
9551.000000;0.515972
9550.000000;0.516022
9549.000000;0.516098
9548.000000;0.516186
9547.000000;0.516333
9546.000000;0.516666
9545.000000;0.517352
9544.000000;0.518464
9543.000000;0.519875
9542.000000;0.521281
9541.000000;0.522350
9540.000000;0.522907
9539.000000;0.523009
9538.000000;0.522873
9537.000000;0.522688
9536.000000;0.522529
9535.000000;0.522453
9534.000000;0.522624
9533.000000;0.523201
9532.000000;0.524036
9531.000000;0.524642
9530.000000;0.524627
9529.000000;0.524163
9528.000000;0.523914
9527.000000;0.524469
9526.000000;0.525881
9525.000000;0.527686
9524.000000;0.529247
9523.000000;0.530103
9522.000000;0.530142
9521.000000;0.529573
9520.000000;0.528723
9519.000000;0.527876
9518.000000;0.527263
9517.000000;0.527084
9516.000000;0.527378
9515.000000;0.527925
9514.000000;0.528418
9513.000000;0.528774
9512.000000;0.529165
9511.000000;0.529745
9510.000000;0.530487
9509.000000;0.531295
9508.000000;0.532104
9507.000000;0.532809
9506.000000;0.533257
9505.000000;0.533388
9504.000000;0.533325
9503.000000;0.533240
9502.000000;0.533227
9501.000000;0.533318
9500.000000;0.533487
9499.000000;0.533614
9498.000000;0.533603
9497.000000;0.533600
9496.000000;0.533869
9495.000000;0.534344
9494.000000;0.534576
9493.000000;0.534327
9492.000000;0.534016
9491.000000;0.534275
9490.000000;0.535165
9489.000000;0.536089
9488.000000;0.536434
9487.000000;0.536045
9486.000000;0.535138
9485.000000;0.534037
9484.000000;0.533093
9483.000000;0.532596
9482.000000;0.532583
9481.000000;0.532851
9480.000000;0.533240
9479.000000;0.533778
9478.000000;0.534448
9477.000000;0.534981
9476.000000;0.535043
9475.000000;0.534621
9474.000000;0.534075
9473.000000;0.533782
9472.000000;0.533803
9471.000000;0.533903
9470.000000;0.533837
9469.000000;0.533538
9468.000000;0.533076
9467.000000;0.532530
9466.000000;0.532006
9465.000000;0.531692
9464.000000;0.531736
9463.000000;0.532005
9462.000000;0.532085
9461.000000;0.531674
9460.000000;0.530982
9459.000000;0.530660
9458.000000;0.531266
9457.000000;0.532752
9456.000000;0.534403
9455.000000;0.535278
9454.000000;0.534875
9453.000000;0.533523
9452.000000;0.532123
9451.000000;0.531363
9450.000000;0.531144
9449.000000;0.530823
9448.000000;0.530032
9447.000000;0.529160
9446.000000;0.528893
9445.000000;0.529361
9444.000000;0.529949
9443.000000;0.529951
9442.000000;0.529256
9441.000000;0.528285
9440.000000;0.527441
9439.000000;0.526870
9438.000000;0.526609
9437.000000;0.526627
9436.000000;0.526643
9435.000000;0.526228
9434.000000;0.525285
9433.000000;0.524259
9432.000000;0.523682
9431.000000;0.523682
9430.000000;0.524052
9429.000000;0.524547
9428.000000;0.524855
9427.000000;0.524538
9426.000000;0.523452
9425.000000;0.522152
9424.000000;0.521448
9423.000000;0.521528
9422.000000;0.521882
9421.000000;0.522103
9420.000000;0.522286
9419.000000;0.522459
9418.000000;0.522129
9417.000000;0.520870
9416.000000;0.519104
9415.000000;0.517799
9414.000000;0.517454
9413.000000;0.517701
9412.000000;0.517927
9411.000000;0.517967
9410.000000;0.518046
9409.000000;0.518232
9408.000000;0.518187
9407.000000;0.517489
9406.000000;0.516118
9405.000000;0.514510
9404.000000;0.513142
9403.000000;0.512128
9402.000000;0.511309
9401.000000;0.510650
9400.000000;0.510316
9399.000000;0.510342
9398.000000;0.510452
9397.000000;0.510347
9396.000000;0.510028
9395.000000;0.509675
9394.000000;0.509306
9393.000000;0.508729
9392.000000;0.507826
9391.000000;0.506775
9390.000000;0.505933
9389.000000;0.505527
9388.000000;0.505428
9387.000000;0.505231
9386.000000;0.504610
9385.000000;0.503597
9384.000000;0.502458
9383.000000;0.501394
9382.000000;0.500506
9381.000000;0.499917
9380.000000;0.499635
9379.000000;0.499331
9378.000000;0.498603
9377.000000;0.497560
9376.000000;0.496803
9375.000000;0.496689
9374.000000;0.496845
9373.000000;0.496654
9372.000000;0.495981
9371.000000;0.495152
9370.000000;0.494418
9369.000000;0.493776
9368.000000;0.493181
9367.000000;0.492618
9366.000000;0.491991
9365.000000;0.491220
9364.000000;0.490460
9363.000000;0.489969
9362.000000;0.489765
9361.000000;0.489586
9360.000000;0.489180
9359.000000;0.488451
9358.000000;0.487369
9357.000000;0.486004
9356.000000;0.484658
9355.000000;0.483697
9354.000000;0.483178
9353.000000;0.482791
9352.000000;0.482226
9351.000000;0.481406
9350.000000;0.480375
9349.000000;0.479198
9348.000000;0.478070
9347.000000;0.477311
9346.000000;0.477028
9345.000000;0.476906
9344.000000;0.476546
9343.000000;0.475959
9342.000000;0.475528
9341.000000;0.475447
9340.000000;0.475377
9339.000000;0.474780
9338.000000;0.473533
9337.000000;0.472102
9336.000000;0.471113
9335.000000;0.470808
9334.000000;0.470915
9333.000000;0.470947
9332.000000;0.470560
9331.000000;0.469743
9330.000000;0.468777
9329.000000;0.468015
9328.000000;0.467533
9327.000000;0.467021
9326.000000;0.466139
9325.000000;0.464989
9324.000000;0.464058
9323.000000;0.463608
9322.000000;0.463338
9321.000000;0.462767
9320.000000;0.461778
9319.000000;0.460634
9318.000000;0.459600
9317.000000;0.458770
9316.000000;0.458146
9315.000000;0.457643
9314.000000;0.457061
9313.000000;0.456255
9312.000000;0.455326
9311.000000;0.454478
9310.000000;0.453725
9309.000000;0.452971
9308.000000;0.452322
9307.000000;0.452041
9306.000000;0.452133
9305.000000;0.452206
9304.000000;0.451891
9303.000000;0.451215
9302.000000;0.450406
9301.000000;0.449527
9300.000000;0.448503
9299.000000;0.447405
9298.000000;0.446453
9297.000000;0.445728
9296.000000;0.445062
9295.000000;0.444290
9294.000000;0.443472
9293.000000;0.442778
9292.000000;0.442221
9291.000000;0.441650
9290.000000;0.441002
9289.000000;0.440432
9288.000000;0.440099
9287.000000;0.439902
9286.000000;0.439560
9285.000000;0.438918
9284.000000;0.438028
9283.000000;0.436930
9282.000000;0.435564
9281.000000;0.433997
9280.000000;0.432559
9279.000000;0.431560
9278.000000;0.430944
9277.000000;0.430407
9276.000000;0.429815
9275.000000;0.429312
9274.000000;0.428995
9273.000000;0.428706
9272.000000;0.428231
9271.000000;0.427551
9270.000000;0.426812
9269.000000;0.426132
9268.000000;0.425525
9267.000000;0.424928
9266.000000;0.424224
9265.000000;0.423331
9264.000000;0.422329
9263.000000;0.421443
9262.000000;0.420806
9261.000000;0.420287
9260.000000;0.419589
9259.000000;0.418513
9258.000000;0.417116
9257.000000;0.415705
9256.000000;0.414694
9255.000000;0.414312
9254.000000;0.414330
9253.000000;0.414167
9252.000000;0.413430
9251.000000;0.412305
9250.000000;0.411280
9249.000000;0.410533
9248.000000;0.409799
9247.000000;0.408810
9246.000000;0.407630
9245.000000;0.406480
9244.000000;0.405452
9243.000000;0.404581
9242.000000;0.404038
9241.000000;0.403947
9240.000000;0.404052
9239.000000;0.403810
9238.000000;0.402948
9237.000000;0.401792
9236.000000;0.400913
9235.000000;0.400540
9234.000000;0.400415
9233.000000;0.400128
9232.000000;0.399494
9231.000000;0.398633
9230.000000;0.397808
9229.000000;0.397203
9228.000000;0.396803
9227.000000;0.396478
9226.000000;0.396163
9225.000000;0.395894
9224.000000;0.395626
9223.000000;0.395147
9222.000000;0.394285
9221.000000;0.393119
9220.000000;0.391869
9219.000000;0.390631
9218.000000;0.389395
9217.000000;0.388271
9216.000000;0.387501
9215.000000;0.387160
9214.000000;0.387011
9213.000000;0.386728
9212.000000;0.386185
9211.000000;0.385479
9210.000000;0.384785
9209.000000;0.384233
9208.000000;0.383831
9207.000000;0.383418
9206.000000;0.382800
9205.000000;0.381973
9204.000000;0.381159
9203.000000;0.380575
9202.000000;0.380251
9201.000000;0.380069
9200.000000;0.379820
9199.000000;0.379195
9198.000000;0.377927
9197.000000;0.376098
9196.000000;0.374186
9195.000000;0.372684
9194.000000;0.371731
9193.000000;0.371211
9192.000000;0.371027
9191.000000;0.371124
9190.000000;0.371314
9189.000000;0.371307
9188.000000;0.370931
9187.000000;0.370227
9186.000000;0.369373
9185.000000;0.368617
9184.000000;0.368171
9183.000000;0.368002
9182.000000;0.367768
9181.000000;0.367165
9180.000000;0.366297
9179.000000;0.365542
9178.000000;0.365070
9177.000000;0.364658
9176.000000;0.364010
9175.000000;0.363067
9174.000000;0.361971
9173.000000;0.360884
9172.000000;0.359897
9171.000000;0.359034
9170.000000;0.358262
9169.000000;0.357600
9168.000000;0.357173
9167.000000;0.357045
9166.000000;0.357000
9165.000000;0.356676
9164.000000;0.355953
9163.000000;0.355055
9162.000000;0.354230
9161.000000;0.353511
9160.000000;0.352859
9159.000000;0.352321
9158.000000;0.351902
9157.000000;0.351419
9156.000000;0.350694
9155.000000;0.349795
9154.000000;0.348961
9153.000000;0.348336
9152.000000;0.347902
9151.000000;0.347584
9150.000000;0.347259
9149.000000;0.346739
9148.000000;0.345929
9147.000000;0.345013
9146.000000;0.344305
9145.000000;0.343902
9144.000000;0.343609
9143.000000;0.343234
9142.000000;0.342817
9141.000000;0.342476
9140.000000;0.342165
9139.000000;0.341712
9138.000000;0.341028
9137.000000;0.340180
9136.000000;0.339243
9135.000000;0.338209
9134.000000;0.337082
9133.000000;0.336024
9132.000000;0.335287
9131.000000;0.334979
9130.000000;0.334928
9129.000000;0.334798
9128.000000;0.334343
9127.000000;0.333542
9126.000000;0.332556
9125.000000;0.331593
9124.000000;0.330794
9123.000000;0.330167
9122.000000;0.329658
9121.000000;0.329297
9120.000000;0.329226
9119.000000;0.329469
9118.000000;0.329700
9117.000000;0.329419
9116.000000;0.328464
9115.000000;0.327220
9114.000000;0.326205
9113.000000;0.325550
9112.000000;0.325013
9111.000000;0.324405
9110.000000;0.323815
9109.000000;0.323381
9108.000000;0.323037
9107.000000;0.322593
9106.000000;0.321986
9105.000000;0.321367
9104.000000;0.320939
9103.000000;0.320756
9102.000000;0.320643
9101.000000;0.320285
9100.000000;0.319489
9099.000000;0.318417
9098.000000;0.317498
9097.000000;0.317033
9096.000000;0.316884
9095.000000;0.316632
9094.000000;0.316025
9093.000000;0.315205
9092.000000;0.314478
9091.000000;0.313982
9090.000000;0.313646
9089.000000;0.313379
9088.000000;0.313162
9087.000000;0.312931
9086.000000;0.312509
9085.000000;0.311750
9084.000000;0.310754
9083.000000;0.309862
9082.000000;0.309408
9081.000000;0.309476
9080.000000;0.309864
9079.000000;0.310193
9078.000000;0.310094
9077.000000;0.309398
9076.000000;0.308271
9075.000000;0.307113
9074.000000;0.306208
9073.000000;0.305461
9072.000000;0.304575
9071.000000;0.303488
9070.000000;0.302552
9069.000000;0.302161
9068.000000;0.302291
9067.000000;0.302526
9066.000000;0.302490
9065.000000;0.302141
9064.000000;0.301640
9063.000000;0.301108
9062.000000;0.300583
9061.000000;0.300095
9060.000000;0.299632
9059.000000;0.299112
9058.000000;0.298493
9057.000000;0.297897
9056.000000;0.297501
9055.000000;0.297319
9054.000000;0.297176
9053.000000;0.296922
