Criado como novo conjunto de dados;"e2410_daniel_v2.spp","34743.9 Secs"
cm-1;Abs
10000.000000;0.427399
9999.000000;0.426891
9998.000000;0.426168
9997.000000;0.425324
9996.000000;0.424497
9995.000000;0.423668
9994.000000;0.422838
9993.000000;0.422094
9992.000000;0.421554
9991.000000;0.421217
9990.000000;0.420979
9989.000000;0.420690
9988.000000;0.420219
9987.000000;0.419558
9986.000000;0.418893
9985.000000;0.418450
9984.000000;0.418242
9983.000000;0.418072
9982.000000;0.417769
9981.000000;0.417325
9980.000000;0.416801
9979.000000;0.416255
9978.000000;0.415766
9977.000000;0.415383
9976.000000;0.415010
9975.000000;0.414470
9974.000000;0.413704
9973.000000;0.412815
9972.000000;0.411921
9971.000000;0.411100
9970.000000;0.410422
9969.000000;0.409919
9968.000000;0.409524
9967.000000;0.409185
9966.000000;0.408985
9965.000000;0.408976
9964.000000;0.408963
9963.000000;0.408670
9962.000000;0.408099
9961.000000;0.407508
9960.000000;0.407054
9959.000000;0.406663
9958.000000;0.406240
9957.000000;0.405763
9956.000000;0.405176
9955.000000;0.404440
9954.000000;0.403744
9953.000000;0.403365
9952.000000;0.403266
9951.000000;0.403059
9950.000000;0.402491
9949.000000;0.401729
9948.000000;0.401049
9947.000000;0.400473
9946.000000;0.399845
9945.000000;0.399113
9944.000000;0.398368
9943.000000;0.397720
9942.000000;0.397243
9941.000000;0.396951
9940.000000;0.396732
9939.000000;0.396416
9938.000000;0.395954
9937.000000;0.395449
9936.000000;0.394996
9935.000000;0.394585
9934.000000;0.394177
9933.000000;0.393737
9932.000000;0.393176
9931.000000;0.392425
9930.000000;0.391570
9929.000000;0.390803
9928.000000;0.390228
9927.000000;0.389853
9926.000000;0.389705
9925.000000;0.389740
9924.000000;0.389675
9923.000000;0.389172
9922.000000;0.388260
9921.000000;0.387334
9920.000000;0.386705
9919.000000;0.386306
9918.000000;0.385901
9917.000000;0.385354
9916.000000;0.384663
9915.000000;0.383914
9914.000000;0.383270
9913.000000;0.382840
9912.000000;0.382506
9911.000000;0.382060
9910.000000;0.381506
9909.000000;0.381026
9908.000000;0.380650
9907.000000;0.380213
9906.000000;0.379677
9905.000000;0.379212
9904.000000;0.378894
9903.000000;0.378593
9902.000000;0.378233
9901.000000;0.377890
9900.000000;0.377544
9899.000000;0.377006
9898.000000;0.376234
9897.000000;0.375449
9896.000000;0.374802
9895.000000;0.374167
9894.000000;0.373460
9893.000000;0.372900
9892.000000;0.372720
9891.000000;0.372780
9890.000000;0.372724
9889.000000;0.372383
9888.000000;0.371858
9887.000000;0.371309
9886.000000;0.370860
9885.000000;0.370604
9884.000000;0.370491
9883.000000;0.370262
9882.000000;0.369664
9881.000000;0.368705
9880.000000;0.367619
9879.000000;0.366646
9878.000000;0.365923
9877.000000;0.365484
9876.000000;0.365251
9875.000000;0.365073
9874.000000;0.364843
9873.000000;0.364531
9872.000000;0.364101
9871.000000;0.363516
9870.000000;0.362874
9869.000000;0.362361
9868.000000;0.362005
9867.000000;0.361604
9866.000000;0.361005
9865.000000;0.360317
9864.000000;0.359759
9863.000000;0.359386
9862.000000;0.359083
9861.000000;0.358710
9860.000000;0.358187
9859.000000;0.357524
9858.000000;0.356847
9857.000000;0.356310
9856.000000;0.355909
9855.000000;0.355489
9854.000000;0.354956
9853.000000;0.354389
9852.000000;0.353874
9851.000000;0.353372
9850.000000;0.352839
9849.000000;0.352344
9848.000000;0.351969
9847.000000;0.351690
9846.000000;0.351412
9845.000000;0.351053
9844.000000;0.350560
9843.000000;0.349936
9842.000000;0.349310
9841.000000;0.348851
9840.000000;0.348546
9839.000000;0.348187
9838.000000;0.347630
9837.000000;0.346981
9836.000000;0.346437
9835.000000;0.346045
9834.000000;0.345680
9833.000000;0.345183
9832.000000;0.344495
9831.000000;0.343708
9830.000000;0.343027
9829.000000;0.342585
9828.000000;0.342289
9827.000000;0.341918
9826.000000;0.341364
9825.000000;0.340683
9824.000000;0.339965
9823.000000;0.339291
9822.000000;0.338793
9821.000000;0.338548
9820.000000;0.338418
9819.000000;0.338156
9818.000000;0.337710
9817.000000;0.337247
9816.000000;0.336848
9815.000000;0.336405
9814.000000;0.335856
9813.000000;0.335320
9812.000000;0.334887
9811.000000;0.334474
9810.000000;0.333976
9809.000000;0.333422
9808.000000;0.332883
9807.000000;0.332353
9806.000000;0.331829
9805.000000;0.331362
9804.000000;0.330944
9803.000000;0.330492
9802.000000;0.330009
9801.000000;0.329643
9800.000000;0.329473
9799.000000;0.329367
9798.000000;0.329140
9797.000000;0.328747
9796.000000;0.328254
9795.000000;0.327723
9794.000000;0.327203
9793.000000;0.326736
9792.000000;0.326287
9791.000000;0.325746
9790.000000;0.325061
9789.000000;0.324292
9788.000000;0.323517
9787.000000;0.322795
9786.000000;0.322239
9785.000000;0.321952
9784.000000;0.321848
9783.000000;0.321656
9782.000000;0.321210
9781.000000;0.320608
9780.000000;0.320047
9779.000000;0.319600
9778.000000;0.319222
9777.000000;0.318861
9776.000000;0.318472
9775.000000;0.318024
9774.000000;0.317544
9773.000000;0.317090
9772.000000;0.316653
9771.000000;0.316177
9770.000000;0.315675
9769.000000;0.315211
9768.000000;0.314762
9767.000000;0.314239
9766.000000;0.313662
9765.000000;0.313163
9764.000000;0.312788
9763.000000;0.312426
9762.000000;0.311968
9761.000000;0.311405
9760.000000;0.310751
9759.000000;0.310036
9758.000000;0.309411
9757.000000;0.309045
9756.000000;0.308894
9755.000000;0.308724
9754.000000;0.308437
9753.000000;0.308164
9752.000000;0.307963
9751.000000;0.307642
9750.000000;0.307021
9749.000000;0.306211
9748.000000;0.305463
9747.000000;0.304869
9746.000000;0.304375
9745.000000;0.303955
9744.000000;0.303643
9743.000000;0.303421
9742.000000;0.303197
9741.000000;0.302869
9740.000000;0.302354
9739.000000;0.301658
9738.000000;0.300944
9737.000000;0.300432
9736.000000;0.300160
9735.000000;0.299918
9734.000000;0.299498
9733.000000;0.298919
9732.000000;0.298340
9731.000000;0.297850
9730.000000;0.297430
9729.000000;0.297030
9728.000000;0.296596
9727.000000;0.296090
9726.000000;0.295550
9725.000000;0.295066
9724.000000;0.294662
9723.000000;0.294262
9722.000000;0.293813
9721.000000;0.293355
9720.000000;0.292932
9719.000000;0.292537
9718.000000;0.292184
9717.000000;0.291934
9716.000000;0.291776
9715.000000;0.291556
9714.000000;0.291114
9713.000000;0.290432
9712.000000;0.289626
9711.000000;0.288854
9710.000000;0.288237
9709.000000;0.287795
9708.000000;0.287435
9707.000000;0.287066
9706.000000;0.286714
9705.000000;0.286454
9704.000000;0.286239
9703.000000;0.285928
9702.000000;0.285473
9701.000000;0.284974
9700.000000;0.284516
9699.000000;0.284088
9698.000000;0.283674
9697.000000;0.283307
9696.000000;0.282996
9695.000000;0.282688
9694.000000;0.282337
9693.000000;0.281927
9692.000000;0.281417
9691.000000;0.280785
9690.000000;0.280117
9689.000000;0.279530
9688.000000;0.279004
9687.000000;0.278430
9686.000000;0.277824
9685.000000;0.277334
9684.000000;0.277010
9683.000000;0.276727
9682.000000;0.276392
9681.000000;0.276054
9680.000000;0.275751
9679.000000;0.275404
9678.000000;0.274956
9677.000000;0.274483
9676.000000;0.274067
9675.000000;0.273654
9674.000000;0.273149
9673.000000;0.272583
9672.000000;0.272100
9671.000000;0.271796
9670.000000;0.271615
9669.000000;0.271382
9668.000000;0.270937
9667.000000;0.270300
9666.000000;0.269686
9665.000000;0.269293
9664.000000;0.269077
9663.000000;0.268801
9662.000000;0.268303
9661.000000;0.267643
9660.000000;0.267005
9659.000000;0.266552
9658.000000;0.266327
9657.000000;0.266203
9656.000000;0.265943
9655.000000;0.265428
9654.000000;0.264801
9653.000000;0.264286
9652.000000;0.263891
9651.000000;0.263439
9650.000000;0.262836
9649.000000;0.262165
9648.000000;0.261538
9647.000000;0.261009
9646.000000;0.260607
9645.000000;0.260290
9644.000000;0.259905
9643.000000;0.259347
9642.000000;0.258759
9641.000000;0.258383
9640.000000;0.258223
9639.000000;0.258051
9638.000000;0.257756
9637.000000;0.257467
9636.000000;0.257294
9635.000000;0.257148
9634.000000;0.256882
9633.000000;0.256441
9632.000000;0.255819
9631.000000;0.255042
9630.000000;0.254260
9629.000000;0.253681
9628.000000;0.253353
9627.000000;0.253127
9626.000000;0.252870
9625.000000;0.252574
9624.000000;0.252215
9623.000000;0.251713
9622.000000;0.251092
9621.000000;0.250524
9620.000000;0.250127
9619.000000;0.249835
9618.000000;0.249534
9617.000000;0.249184
9616.000000;0.248764
9615.000000;0.248247
9614.000000;0.247691
9613.000000;0.247202
9612.000000;0.246775
9611.000000;0.246294
9610.000000;0.245734
9609.000000;0.245218
9608.000000;0.244805
9607.000000;0.244404
9606.000000;0.243946
9605.000000;0.243507
9604.000000;0.243174
9603.000000;0.242921
9602.000000;0.242684
9601.000000;0.242430
9600.000000;0.242104
9599.000000;0.241644
9598.000000;0.241105
9597.000000;0.240623
9596.000000;0.240211
9595.000000;0.239739
9594.000000;0.239175
9593.000000;0.238688
9592.000000;0.238394
9591.000000;0.238194
9590.000000;0.237933
9589.000000;0.237604
9588.000000;0.237270
9587.000000;0.236918
9586.000000;0.236497
9585.000000;0.236012
9584.000000;0.235482
9583.000000;0.234901
9582.000000;0.234317
9581.000000;0.233858
9580.000000;0.233589
9579.000000;0.233439
9578.000000;0.233321
9577.000000;0.233203
9576.000000;0.233017
9575.000000;0.232635
9574.000000;0.232038
9573.000000;0.231416
9572.000000;0.230966
9571.000000;0.230680
9570.000000;0.230401
9569.000000;0.230008
9568.000000;0.229487
9567.000000;0.228891
9566.000000;0.228310
9565.000000;0.227817
9564.000000;0.227399
9563.000000;0.227000
9562.000000;0.226621
9561.000000;0.226309
9560.000000;0.226024
9559.000000;0.225654
9558.000000;0.225200
9557.000000;0.224797
9556.000000;0.224513
9555.000000;0.224235
9554.000000;0.223837
9553.000000;0.223337
9552.000000;0.222832
9551.000000;0.222367
9550.000000;0.221947
9549.000000;0.221580
9548.000000;0.221234
9547.000000;0.220837
9546.000000;0.220376
9545.000000;0.219926
9544.000000;0.219521
9543.000000;0.219110
9542.000000;0.218663
9541.000000;0.218241
9540.000000;0.217884
9539.000000;0.217546
9538.000000;0.217199
9537.000000;0.216893
9536.000000;0.216657
9535.000000;0.216417
9534.000000;0.216083
9533.000000;0.215658
9532.000000;0.215219
9531.000000;0.214841
9530.000000;0.214577
9529.000000;0.214399
9528.000000;0.214171
9527.000000;0.213758
9526.000000;0.213214
9525.000000;0.212743
9524.000000;0.212434
9523.000000;0.212164
9522.000000;0.211790
9521.000000;0.211328
9520.000000;0.210873
9519.000000;0.210455
9518.000000;0.210072
9517.000000;0.209754
9516.000000;0.209519
9515.000000;0.209299
9514.000000;0.208993
9513.000000;0.208552
9512.000000;0.207989
9511.000000;0.207358
9510.000000;0.206741
9509.000000;0.206197
9508.000000;0.205707
9507.000000;0.205224
9506.000000;0.204774
9505.000000;0.204433
9504.000000;0.204191
9503.000000;0.203952
9502.000000;0.203673
9501.000000;0.203397
9500.000000;0.203143
9499.000000;0.202863
9498.000000;0.202537
9497.000000;0.202195
9496.000000;0.201832
9495.000000;0.201407
9494.000000;0.200966
9493.000000;0.200629
9492.000000;0.200419
9491.000000;0.200184
9490.000000;0.199770
9489.000000;0.199190
9488.000000;0.198574
9487.000000;0.198044
9486.000000;0.197663
9485.000000;0.197419
9484.000000;0.197212
9483.000000;0.196914
9482.000000;0.196480
9481.000000;0.195957
9480.000000;0.195400
9479.000000;0.194849
9478.000000;0.194362
9477.000000;0.193998
9476.000000;0.193749
9475.000000;0.193562
9474.000000;0.193405
9473.000000;0.193216
9472.000000;0.192860
9471.000000;0.192270
9470.000000;0.191604
9469.000000;0.191097
9468.000000;0.190777
9467.000000;0.190481
9466.000000;0.190149
9465.000000;0.189902
9464.000000;0.189804
9463.000000;0.189726
9462.000000;0.189514
9461.000000;0.189153
9460.000000;0.188714
9459.000000;0.188264
9458.000000;0.187884
9457.000000;0.187629
9456.000000;0.187399
9455.000000;0.186991
9454.000000;0.186354
9453.000000;0.185688
9452.000000;0.185226
9451.000000;0.185012
9450.000000;0.184929
9449.000000;0.184844
9448.000000;0.184649
9447.000000;0.184301
9446.000000;0.183876
9445.000000;0.183515
9444.000000;0.183247
9443.000000;0.182952
9442.000000;0.182539
9441.000000;0.182072
9440.000000;0.181678
9439.000000;0.181398
9438.000000;0.181172
9437.000000;0.180888
9436.000000;0.180446
9435.000000;0.179872
9434.000000;0.179374
9433.000000;0.179152
9432.000000;0.179131
9431.000000;0.179000
9430.000000;0.178581
9429.000000;0.178030
9428.000000;0.177616
9427.000000;0.177426
9426.000000;0.177328
9425.000000;0.177142
9424.000000;0.176769
9423.000000;0.176239
9422.000000;0.175695
9421.000000;0.175281
9420.000000;0.174997
9419.000000;0.174734
9418.000000;0.174441
9417.000000;0.174153
9416.000000;0.173866
9415.000000;0.173489
9414.000000;0.172963
9413.000000;0.172343
9412.000000;0.171724
9411.000000;0.171192
9410.000000;0.170841
9409.000000;0.170724
9408.000000;0.170740
9407.000000;0.170676
9406.000000;0.170411
9405.000000;0.169995
9404.000000;0.169528
9403.000000;0.169076
9402.000000;0.168707
9401.000000;0.168481
9400.000000;0.168348
9399.000000;0.168159
9398.000000;0.167833
9397.000000;0.167429
9396.000000;0.167032
9395.000000;0.166668
9394.000000;0.166336
9393.000000;0.166017
9392.000000;0.165643
9391.000000;0.165164
9390.000000;0.164667
9389.000000;0.164291
9388.000000;0.164030
9387.000000;0.163738
9386.000000;0.163349
9385.000000;0.162964
9384.000000;0.162672
9383.000000;0.162437
9382.000000;0.162194
9381.000000;0.161929
9380.000000;0.161616
9379.000000;0.161198
9378.000000;0.160702
9377.000000;0.160249
9376.000000;0.159896
9375.000000;0.159576
9374.000000;0.159225
9373.000000;0.158878
9372.000000;0.158587
9371.000000;0.158357
9370.000000;0.158207
9369.000000;0.158162
9368.000000;0.158137
9367.000000;0.157945
9366.000000;0.157488
9365.000000;0.156867
9364.000000;0.156254
9363.000000;0.155755
9362.000000;0.155420
9361.000000;0.155252
9360.000000;0.155137
9359.000000;0.154883
9358.000000;0.154418
9357.000000;0.153893
9356.000000;0.153537
9355.000000;0.153456
9354.000000;0.153571
9353.000000;0.153672
9352.000000;0.153524
9351.000000;0.153049
9350.000000;0.152433
9349.000000;0.151954
9348.000000;0.151669
9347.000000;0.151385
9346.000000;0.150946
9345.000000;0.150415
9344.000000;0.149958
9343.000000;0.149651
9342.000000;0.149472
9341.000000;0.149338
9340.000000;0.149114
9339.000000;0.148702
9338.000000;0.148188
9337.000000;0.147783
9336.000000;0.147580
9335.000000;0.147444
9334.000000;0.147216
9333.000000;0.146887
9332.000000;0.146538
9331.000000;0.146226
9330.000000;0.145975
9329.000000;0.145778
9328.000000;0.145555
9327.000000;0.145224
9326.000000;0.144845
9325.000000;0.144563
9324.000000;0.144366
9323.000000;0.144051
9322.000000;0.143517
9321.000000;0.142961
9320.000000;0.142643
9319.000000;0.142585
9318.000000;0.142592
9317.000000;0.142487
9316.000000;0.142226
9315.000000;0.141851
9314.000000;0.141445
9313.000000;0.141096
9312.000000;0.140809
9311.000000;0.140515
9310.000000;0.140176
9309.000000;0.139839
9308.000000;0.139533
9307.000000;0.139207
9306.000000;0.138826
9305.000000;0.138456
9304.000000;0.138189
9303.000000;0.138018
9302.000000;0.137860
9301.000000;0.137641
9300.000000;0.137335
9299.000000;0.136978
9298.000000;0.136665
9297.000000;0.136482
9296.000000;0.136392
9295.000000;0.136271
9294.000000;0.136057
9293.000000;0.135783
9292.000000;0.135448
9291.000000;0.134997
9290.000000;0.134461
9289.000000;0.134012
9288.000000;0.133761
9287.000000;0.133614
9286.000000;0.133388
9285.000000;0.133018
9284.000000;0.132582
9283.000000;0.132174
9282.000000;0.131825
9281.000000;0.131508
9280.000000;0.131180
9279.000000;0.130840
9278.000000;0.130565
9277.000000;0.130434
9276.000000;0.130400
9275.000000;0.130333
9274.000000;0.130168
9273.000000;0.129950
9272.000000;0.129705
9271.000000;0.129392
9270.000000;0.129010
9269.000000;0.128652
9268.000000;0.128386
9267.000000;0.128172
9266.000000;0.127942
9265.000000;0.127689
9264.000000;0.127419
9263.000000;0.127106
9262.000000;0.126736
9261.000000;0.126352
9260.000000;0.126000
9259.000000;0.125702
9258.000000;0.125497
9257.000000;0.125417
9256.000000;0.125396
9255.000000;0.125284
9254.000000;0.125008
9253.000000;0.124647
9252.000000;0.124302
9251.000000;0.123974
9250.000000;0.123611
9249.000000;0.123208
9248.000000;0.122799
9247.000000;0.122415
9246.000000;0.122093
9245.000000;0.121877
9244.000000;0.121767
9243.000000;0.121689
9242.000000;0.121551
9241.000000;0.121298
9240.000000;0.120925
9239.000000;0.120493
9238.000000;0.120127
9237.000000;0.119918
9236.000000;0.119822
9235.000000;0.119701
9234.000000;0.119469
9233.000000;0.119131
9232.000000;0.118706
9231.000000;0.118229
9230.000000;0.117787
9229.000000;0.117462
9228.000000;0.117225
9227.000000;0.116985
9226.000000;0.116753
9225.000000;0.116620
9224.000000;0.116563
9223.000000;0.116421
9222.000000;0.116110
9221.000000;0.115747
9220.000000;0.115507
9219.000000;0.115437
9218.000000;0.115448
9217.000000;0.115409
9216.000000;0.115222
9215.000000;0.114885
9214.000000;0.114513
9213.000000;0.114215
9212.000000;0.113960
9211.000000;0.113653
9210.000000;0.113310
9209.000000;0.113037
9208.000000;0.112835
9207.000000;0.112582
9206.000000;0.112253
9205.000000;0.111986
9204.000000;0.111874
9203.000000;0.111818
9202.000000;0.111674
9201.000000;0.111418
9200.000000;0.111096
9199.000000;0.110726
9198.000000;0.110330
9197.000000;0.109979
9196.000000;0.109708
9195.000000;0.109465
9194.000000;0.109210
9193.000000;0.108980
9192.000000;0.108804
9191.000000;0.108632
9190.000000;0.108418
9189.000000;0.108188
9188.000000;0.107960
9187.000000;0.107708
9186.000000;0.107440
9185.000000;0.107247
9184.000000;0.107169
9183.000000;0.107109
9182.000000;0.106939
9181.000000;0.106640
9180.000000;0.106264
9179.000000;0.105828
9178.000000;0.105340
9177.000000;0.104881
9176.000000;0.104550
9175.000000;0.104374
9174.000000;0.104294
9173.000000;0.104235
9172.000000;0.104141
9171.000000;0.103981
9170.000000;0.103765
9169.000000;0.103527
9168.000000;0.103285
9167.000000;0.103044
9166.000000;0.102831
9165.000000;0.102664
9164.000000;0.102477
9163.000000;0.102177
9162.000000;0.101771
9161.000000;0.101382
9160.000000;0.101097
9159.000000;0.100896
9158.000000;0.100746
9157.000000;0.100669
9156.000000;0.100659
9155.000000;0.100619
9154.000000;0.100436
9153.000000;0.100086
9152.000000;0.099627
9151.000000;0.099163
9150.000000;0.098820
9149.000000;0.098672
9148.000000;0.098645
9147.000000;0.098564
9146.000000;0.098341
9145.000000;0.098049
9144.000000;0.097791
9143.000000;0.097571
9142.000000;0.097342
9141.000000;0.097101
9140.000000;0.096887
9139.000000;0.096708
9138.000000;0.096538
9137.000000;0.096356
9136.000000;0.096155
9135.000000;0.095947
9134.000000;0.095750
9133.000000;0.095551
9132.000000;0.095303
9131.000000;0.095006
9130.000000;0.094767
9129.000000;0.094674
9128.000000;0.094634
9127.000000;0.094439
9126.000000;0.094020
9125.000000;0.093521
9124.000000;0.093119
9123.000000;0.092868
9122.000000;0.092738
9121.000000;0.092679
9120.000000;0.092610
9119.000000;0.092445
9118.000000;0.092202
9117.000000;0.091988
9116.000000;0.091844
9115.000000;0.091676
9114.000000;0.091417
9113.000000;0.091137
9112.000000;0.090931
9111.000000;0.090779
9110.000000;0.090594
9109.000000;0.090348
9108.000000;0.090073
9107.000000;0.089798
9106.000000;0.089543
9105.000000;0.089334
9104.000000;0.089156
9103.000000;0.088944
9102.000000;0.088664
9101.000000;0.088367
9100.000000;0.088115
9099.000000;0.087904
9098.000000;0.087710
9097.000000;0.087551
9096.000000;0.087449
9095.000000;0.087372
9094.000000;0.087257
9093.000000;0.087059
9092.000000;0.086762
9091.000000;0.086398
9090.000000;0.086076
9089.000000;0.085939
9088.000000;0.086020
9087.000000;0.086175
9086.000000;0.086198
9085.000000;0.085997
9084.000000;0.085625
9083.000000;0.085196
9082.000000;0.084805
9081.000000;0.084482
9080.000000;0.084202
9079.000000;0.083916
9078.000000;0.083616
9077.000000;0.083339
9076.000000;0.083116
9075.000000;0.082954
9074.000000;0.082847
9073.000000;0.082772
9072.000000;0.082680
9071.000000;0.082535
9070.000000;0.082354
9069.000000;0.082171
9068.000000;0.081966
9067.000000;0.081685
9066.000000;0.081337
9065.000000;0.081012
9064.000000;0.080790
9063.000000;0.080675
9062.000000;0.080617
9061.000000;0.080544
9060.000000;0.080398
9059.000000;0.080178
9058.000000;0.079950
9057.000000;0.079777
9056.000000;0.079645
9055.000000;0.079515
9054.000000;0.079392
9053.000000;0.079282
