Criado como novo conjunto de dados;"e2410_daniel_v2.spp","3601.9 Secs"
cm-1;Abs
10000.000000;0.132168
9999.000000;0.131567
9998.000000;0.130967
9997.000000;0.130368
9996.000000;0.129769
9995.000000;0.129172
9994.000000;0.128573
9993.000000;0.127980
9992.000000;0.127380
9991.000000;0.126794
9990.000000;0.126181
9989.000000;0.125703
9988.000000;0.125459
9987.000000;0.125291
9986.000000;0.125031
9985.000000;0.124551
9984.000000;0.123924
9983.000000;0.123335
9982.000000;0.122873
9981.000000;0.122442
9980.000000;0.121909
9979.000000;0.121302
9978.000000;0.120764
9977.000000;0.120349
9976.000000;0.119951
9975.000000;0.119456
9974.000000;0.118893
9973.000000;0.118394
9972.000000;0.118031
9971.000000;0.117744
9970.000000;0.117426
9969.000000;0.117028
9968.000000;0.116557
9967.000000;0.116019
9966.000000;0.115426
9965.000000;0.114843
9964.000000;0.114351
9963.000000;0.113946
9962.000000;0.113528
9961.000000;0.113030
9960.000000;0.112500
9959.000000;0.112011
9958.000000;0.111536
9957.000000;0.111002
9956.000000;0.110430
9955.000000;0.109917
9954.000000;0.109481
9953.000000;0.109024
9952.000000;0.108480
9951.000000;0.107920
9950.000000;0.107469
9949.000000;0.107154
9948.000000;0.106874
9947.000000;0.106498
9946.000000;0.105961
9945.000000;0.105320
9944.000000;0.104715
9943.000000;0.104256
9942.000000;0.103918
9941.000000;0.103566
9940.000000;0.103101
9939.000000;0.102542
9938.000000;0.101974
9937.000000;0.101467
9936.000000;0.101044
9935.000000;0.100672
9934.000000;0.100258
9933.000000;0.099733
9932.000000;0.099163
9931.000000;0.098713
9930.000000;0.098459
9929.000000;0.098291
9928.000000;0.098047
9927.000000;0.097683
9926.000000;0.097253
9925.000000;0.096780
9924.000000;0.096252
9923.000000;0.095708
9922.000000;0.095217
9921.000000;0.094774
9920.000000;0.094280
9919.000000;0.093674
9918.000000;0.093020
9917.000000;0.092441
9916.000000;0.091997
9915.000000;0.091630
9914.000000;0.091224
9913.000000;0.090694
9912.000000;0.090048
9911.000000;0.089392
9910.000000;0.088850
9909.000000;0.088478
9908.000000;0.088225
9907.000000;0.087979
9906.000000;0.087641
9905.000000;0.087177
9904.000000;0.086618
9903.000000;0.086009
9902.000000;0.085373
9901.000000;0.084747
9900.000000;0.084217
9899.000000;0.083859
9898.000000;0.083637
9897.000000;0.083403
9896.000000;0.083043
9895.000000;0.082579
9894.000000;0.082110
9893.000000;0.081701
9892.000000;0.081349
9891.000000;0.081014
9890.000000;0.080626
9889.000000;0.080115
9888.000000;0.079507
9887.000000;0.078932
9886.000000;0.078484
9885.000000;0.078103
9884.000000;0.077665
9883.000000;0.077166
9882.000000;0.076706
9881.000000;0.076314
9880.000000;0.075895
9879.000000;0.075381
9878.000000;0.074833
9877.000000;0.074335
9876.000000;0.073863
9875.000000;0.073339
9874.000000;0.072770
9873.000000;0.072253
9872.000000;0.071863
9871.000000;0.071568
9870.000000;0.071275
9869.000000;0.070907
9868.000000;0.070452
9867.000000;0.069953
9866.000000;0.069465
9865.000000;0.069019
9864.000000;0.068617
9863.000000;0.068254
9862.000000;0.067901
9861.000000;0.067490
9860.000000;0.066948
9859.000000;0.066290
9858.000000;0.065630
9857.000000;0.065074
9856.000000;0.064631
9855.000000;0.064247
9854.000000;0.063878
9853.000000;0.063494
9852.000000;0.063044
9851.000000;0.062505
9850.000000;0.061937
9849.000000;0.061444
9848.000000;0.061050
9847.000000;0.060684
9846.000000;0.060278
9845.000000;0.059836
9844.000000;0.059381
9843.000000;0.058910
9842.000000;0.058433
9841.000000;0.058004
9840.000000;0.057657
9839.000000;0.057332
9838.000000;0.056921
9837.000000;0.056386
9836.000000;0.055806
9835.000000;0.055300
9834.000000;0.054934
9833.000000;0.054693
9832.000000;0.054497
9831.000000;0.054235
9830.000000;0.053831
9829.000000;0.053295
9828.000000;0.052711
9827.000000;0.052161
9826.000000;0.051670
9825.000000;0.051210
9824.000000;0.050742
9823.000000;0.050244
9822.000000;0.049721
9821.000000;0.049184
9820.000000;0.048631
9819.000000;0.048055
9818.000000;0.047491
9817.000000;0.047022
9816.000000;0.046693
9815.000000;0.046417
9814.000000;0.046054
9813.000000;0.045565
9812.000000;0.045065
9811.000000;0.044665
9810.000000;0.044346
9809.000000;0.044019
9808.000000;0.043661
9807.000000;0.043315
9806.000000;0.042981
9805.000000;0.042584
9804.000000;0.042070
9803.000000;0.041489
9802.000000;0.040948
9801.000000;0.040508
9800.000000;0.040155
9799.000000;0.039830
9798.000000;0.039472
9797.000000;0.039035
9796.000000;0.038502
9795.000000;0.037909
9794.000000;0.037342
9793.000000;0.036886
9792.000000;0.036551
9791.000000;0.036235
9790.000000;0.035806
9789.000000;0.035225
9788.000000;0.034591
9787.000000;0.034035
9786.000000;0.033599
9785.000000;0.033241
9784.000000;0.032899
9783.000000;0.032524
9782.000000;0.032075
9781.000000;0.031550
9780.000000;0.031039
9779.000000;0.030655
9778.000000;0.030411
9777.000000;0.030186
9776.000000;0.029861
9775.000000;0.029434
9774.000000;0.028991
9773.000000;0.028597
9772.000000;0.028256
9771.000000;0.027935
9770.000000;0.027582
9769.000000;0.027128
9768.000000;0.026559
9767.000000;0.025957
9766.000000;0.025434
9765.000000;0.025002
9764.000000;0.024553
9763.000000;0.024001
9762.000000;0.023386
9761.000000;0.022810
9760.000000;0.022312
9759.000000;0.021846
9758.000000;0.021388
9757.000000;0.020976
9756.000000;0.020646
9755.000000;0.020355
9754.000000;0.020045
9753.000000;0.019722
9752.000000;0.019438
9751.000000;0.019182
9750.000000;0.018867
9749.000000;0.018438
9748.000000;0.017939
9747.000000;0.017450
9746.000000;0.016998
9745.000000;0.016550
9744.000000;0.016080
9743.000000;0.015576
9742.000000;0.015031
9741.000000;0.014476
9740.000000;0.014007
9739.000000;0.013709
9738.000000;0.013533
9737.000000;0.013300
9736.000000;0.012857
9735.000000;0.012220
9734.000000;0.011543
9733.000000;0.010988
9732.000000;0.010616
9731.000000;0.010390
9730.000000;0.010209
9729.000000;0.009971
9728.000000;0.009619
9727.000000;0.009166
9726.000000;0.008662
9725.000000;0.008160
9724.000000;0.007691
9723.000000;0.007261
9722.000000;0.006842
9721.000000;0.006400
9720.000000;0.005929
9719.000000;0.005460
9718.000000;0.005032
9717.000000;0.004645
9716.000000;0.004272
9715.000000;0.003886
9714.000000;0.003487
9713.000000;0.003097
9712.000000;0.002736
9711.000000;0.002410
9710.000000;0.002100
9709.000000;0.001781
9708.000000;0.001434
9707.000000;0.001047
9706.000000;0.000621
9705.000000;0.000165
9704.000000;-0.000298
9703.000000;-0.000762
9702.000000;-0.001248
9701.000000;-0.001770
9700.000000;-0.002291
9699.000000;-0.002737
9698.000000;-0.003076
9697.000000;-0.003344
9696.000000;-0.003613
9695.000000;-0.003935
9694.000000;-0.004327
9693.000000;-0.004785
9692.000000;-0.005283
9691.000000;-0.005775
9690.000000;-0.006223
9689.000000;-0.006626
9688.000000;-0.007011
9687.000000;-0.007398
9686.000000;-0.007795
9685.000000;-0.008204
9684.000000;-0.008616
9683.000000;-0.009012
9682.000000;-0.009374
9681.000000;-0.009717
9680.000000;-0.010092
9679.000000;-0.010543
9678.000000;-0.011062
9677.000000;-0.011601
9676.000000;-0.012108
9675.000000;-0.012549
9674.000000;-0.012914
9673.000000;-0.013217
9672.000000;-0.013501
9671.000000;-0.013813
9670.000000;-0.014177
9669.000000;-0.014593
9668.000000;-0.015061
9667.000000;-0.015582
9666.000000;-0.016117
9665.000000;-0.016601
9664.000000;-0.017012
9663.000000;-0.017393
9662.000000;-0.017784
9661.000000;-0.018144
9660.000000;-0.018422
9659.000000;-0.018683
9658.000000;-0.019077
9657.000000;-0.019651
9656.000000;-0.020248
9655.000000;-0.020671
9654.000000;-0.020900
9653.000000;-0.021110
9652.000000;-0.021467
9651.000000;-0.021968
9650.000000;-0.022469
9649.000000;-0.022851
9648.000000;-0.023123
9647.000000;-0.023392
9646.000000;-0.023742
9645.000000;-0.024158
9644.000000;-0.024565
9643.000000;-0.024930
9642.000000;-0.025288
9641.000000;-0.025674
9640.000000;-0.026065
9639.000000;-0.026424
9638.000000;-0.026763
9637.000000;-0.027144
9636.000000;-0.027608
9635.000000;-0.028137
9634.000000;-0.028667
9633.000000;-0.029135
9632.000000;-0.029523
9631.000000;-0.029870
9630.000000;-0.030231
9629.000000;-0.030615
9628.000000;-0.030990
9627.000000;-0.031358
9626.000000;-0.031766
9625.000000;-0.032237
9624.000000;-0.032701
9623.000000;-0.033075
9622.000000;-0.033357
9621.000000;-0.033616
9620.000000;-0.033886
9619.000000;-0.034153
9618.000000;-0.034427
9617.000000;-0.034778
9616.000000;-0.035265
9615.000000;-0.035869
9614.000000;-0.036493
9613.000000;-0.037020
9612.000000;-0.037388
9611.000000;-0.037631
9610.000000;-0.037854
9609.000000;-0.038146
9608.000000;-0.038510
9607.000000;-0.038893
9606.000000;-0.039258
9605.000000;-0.039609
9604.000000;-0.039954
9603.000000;-0.040295
9602.000000;-0.040645
9601.000000;-0.041012
9600.000000;-0.041380
9599.000000;-0.041741
9598.000000;-0.042139
9597.000000;-0.042623
9596.000000;-0.043157
9595.000000;-0.043623
9594.000000;-0.043944
9593.000000;-0.044167
9592.000000;-0.044415
9591.000000;-0.044763
9590.000000;-0.045177
9589.000000;-0.045561
9588.000000;-0.045851
9587.000000;-0.046074
9586.000000;-0.046329
9585.000000;-0.046680
9584.000000;-0.047091
9583.000000;-0.047490
9582.000000;-0.047856
9581.000000;-0.048225
9580.000000;-0.048618
9579.000000;-0.049018
9578.000000;-0.049426
9577.000000;-0.049874
9576.000000;-0.050382
9575.000000;-0.050911
9574.000000;-0.051395
9573.000000;-0.051791
9572.000000;-0.052093
9571.000000;-0.052335
9570.000000;-0.052579
9569.000000;-0.052871
9568.000000;-0.053210
9567.000000;-0.053572
9566.000000;-0.053957
9565.000000;-0.054382
9564.000000;-0.054823
9563.000000;-0.055229
9562.000000;-0.055583
9561.000000;-0.055930
9560.000000;-0.056322
9559.000000;-0.056763
9558.000000;-0.057213
9557.000000;-0.057636
9556.000000;-0.058017
9555.000000;-0.058368
9554.000000;-0.058714
9553.000000;-0.059053
9552.000000;-0.059339
9551.000000;-0.059534
9550.000000;-0.059680
9549.000000;-0.059878
9548.000000;-0.060204
9547.000000;-0.060659
9546.000000;-0.061207
9545.000000;-0.061788
9544.000000;-0.062303
9543.000000;-0.062658
9542.000000;-0.062868
9541.000000;-0.063080
9540.000000;-0.063436
9539.000000;-0.063928
9538.000000;-0.064416
9537.000000;-0.064780
9536.000000;-0.065031
9535.000000;-0.065282
9534.000000;-0.065626
9533.000000;-0.066045
9532.000000;-0.066425
9531.000000;-0.066690
9530.000000;-0.066887
9529.000000;-0.067128
9528.000000;-0.067456
9527.000000;-0.067816
9526.000000;-0.068160
9525.000000;-0.068521
9524.000000;-0.068956
9523.000000;-0.069454
9522.000000;-0.069942
9521.000000;-0.070365
9520.000000;-0.070724
9519.000000;-0.071044
9518.000000;-0.071344
9517.000000;-0.071625
9516.000000;-0.071888
9515.000000;-0.072141
9514.000000;-0.072414
9513.000000;-0.072741
9512.000000;-0.073139
9511.000000;-0.073590
9510.000000;-0.074046
9509.000000;-0.074447
9508.000000;-0.074748
9507.000000;-0.074964
9506.000000;-0.075169
9505.000000;-0.075440
9504.000000;-0.075802
9503.000000;-0.076239
9502.000000;-0.076727
9501.000000;-0.077221
9500.000000;-0.077637
9499.000000;-0.077914
9498.000000;-0.078094
9497.000000;-0.078294
9496.000000;-0.078595
9495.000000;-0.078993
9494.000000;-0.079441
9493.000000;-0.079877
9492.000000;-0.080226
9491.000000;-0.080437
9490.000000;-0.080560
9489.000000;-0.080720
9488.000000;-0.081001
9487.000000;-0.081389
9486.000000;-0.081830
9485.000000;-0.082290
9484.000000;-0.082737
9483.000000;-0.083126
9482.000000;-0.083461
9481.000000;-0.083814
9480.000000;-0.084226
9479.000000;-0.084648
9478.000000;-0.085008
9477.000000;-0.085304
9476.000000;-0.085569
9475.000000;-0.085806
9474.000000;-0.086010
9473.000000;-0.086245
9472.000000;-0.086589
9471.000000;-0.087034
9470.000000;-0.087477
9469.000000;-0.087857
9468.000000;-0.088206
9467.000000;-0.088571
9466.000000;-0.088929
9465.000000;-0.089229
9464.000000;-0.089482
9463.000000;-0.089770
9462.000000;-0.090151
9461.000000;-0.090598
9460.000000;-0.091021
9459.000000;-0.091349
9458.000000;-0.091576
9457.000000;-0.091752
9456.000000;-0.091937
9455.000000;-0.092174
9454.000000;-0.092480
9453.000000;-0.092846
9452.000000;-0.093251
9451.000000;-0.093672
9450.000000;-0.094098
9449.000000;-0.094515
9448.000000;-0.094898
9447.000000;-0.095226
9446.000000;-0.095502
9445.000000;-0.095753
9444.000000;-0.096014
9443.000000;-0.096316
9442.000000;-0.096662
9441.000000;-0.096999
9440.000000;-0.097241
9439.000000;-0.097374
9438.000000;-0.097512
9437.000000;-0.097803
9436.000000;-0.098274
9435.000000;-0.098823
9434.000000;-0.099342
9433.000000;-0.099793
9432.000000;-0.100153
9431.000000;-0.100389
9430.000000;-0.100512
9429.000000;-0.100623
9428.000000;-0.100828
9427.000000;-0.101141
9426.000000;-0.101497
9425.000000;-0.101843
9424.000000;-0.102181
9423.000000;-0.102547
9422.000000;-0.102952
9421.000000;-0.103359
9420.000000;-0.103695
9419.000000;-0.103921
9418.000000;-0.104096
9417.000000;-0.104328
9416.000000;-0.104646
9415.000000;-0.104963
9414.000000;-0.105203
9413.000000;-0.105409
9412.000000;-0.105699
9411.000000;-0.106127
9410.000000;-0.106639
9409.000000;-0.107137
9408.000000;-0.107542
9407.000000;-0.107816
9406.000000;-0.107979
9405.000000;-0.108104
9404.000000;-0.108278
9403.000000;-0.108545
9402.000000;-0.108894
9401.000000;-0.109281
9400.000000;-0.109644
9399.000000;-0.109928
9398.000000;-0.110132
9397.000000;-0.110319
9396.000000;-0.110563
9395.000000;-0.110887
9394.000000;-0.111258
9393.000000;-0.111625
9392.000000;-0.111946
9391.000000;-0.112203
9390.000000;-0.112437
9389.000000;-0.112713
9388.000000;-0.113053
9387.000000;-0.113408
9386.000000;-0.113733
9385.000000;-0.114050
9384.000000;-0.114391
9383.000000;-0.114726
9382.000000;-0.114999
9381.000000;-0.115212
9380.000000;-0.115429
9379.000000;-0.115697
9378.000000;-0.116002
9377.000000;-0.116321
9376.000000;-0.116647
9375.000000;-0.116975
9374.000000;-0.117292
9373.000000;-0.117599
9372.000000;-0.117920
9371.000000;-0.118263
9370.000000;-0.118595
9369.000000;-0.118858
9368.000000;-0.119026
9367.000000;-0.119133
9366.000000;-0.119269
9365.000000;-0.119524
9364.000000;-0.119909
9363.000000;-0.120334
9362.000000;-0.120699
9361.000000;-0.120987
9360.000000;-0.121262
9359.000000;-0.121586
9358.000000;-0.121953
9357.000000;-0.122292
9356.000000;-0.122517
9355.000000;-0.122583
9354.000000;-0.122544
9353.000000;-0.122544
9352.000000;-0.122718
9351.000000;-0.123087
9350.000000;-0.123554
9349.000000;-0.124008
9348.000000;-0.124396
9347.000000;-0.124729
9346.000000;-0.125046
9345.000000;-0.125365
9344.000000;-0.125674
9343.000000;-0.125945
9342.000000;-0.126189
9341.000000;-0.126453
9340.000000;-0.126758
9339.000000;-0.127063
9338.000000;-0.127317
9337.000000;-0.127523
9336.000000;-0.127708
9335.000000;-0.127868
9334.000000;-0.127998
9333.000000;-0.128161
9332.000000;-0.128469
9331.000000;-0.128943
9330.000000;-0.129469
9329.000000;-0.129901
9328.000000;-0.130200
9327.000000;-0.130433
9326.000000;-0.130670
9325.000000;-0.130912
9324.000000;-0.131110
9323.000000;-0.131244
9322.000000;-0.131371
9321.000000;-0.131594
9320.000000;-0.131959
9319.000000;-0.132388
9318.000000;-0.132749
9317.000000;-0.132993
9316.000000;-0.133192
9315.000000;-0.133432
9314.000000;-0.133714
9313.000000;-0.133971
9312.000000;-0.134178
9311.000000;-0.134381
9310.000000;-0.134637
9309.000000;-0.134940
9308.000000;-0.135226
9307.000000;-0.135442
9306.000000;-0.135609
9305.000000;-0.135817
9304.000000;-0.136140
9303.000000;-0.136557
9302.000000;-0.136970
9301.000000;-0.137299
9300.000000;-0.137537
9299.000000;-0.137731
9298.000000;-0.137925
9297.000000;-0.138140
9296.000000;-0.138385
9295.000000;-0.138657
9294.000000;-0.138937
9293.000000;-0.139198
9292.000000;-0.139419
9291.000000;-0.139604
9290.000000;-0.139791
9289.000000;-0.140039
9288.000000;-0.140384
9287.000000;-0.140791
9286.000000;-0.141173
9285.000000;-0.141471
9284.000000;-0.141700
9283.000000;-0.141908
9282.000000;-0.142107
9281.000000;-0.142280
9280.000000;-0.142439
9279.000000;-0.142635
9278.000000;-0.142896
9277.000000;-0.143187
9276.000000;-0.143451
9275.000000;-0.143677
9274.000000;-0.143902
9273.000000;-0.144157
9272.000000;-0.144443
9271.000000;-0.144738
9270.000000;-0.145019
9269.000000;-0.145263
9268.000000;-0.145459
9267.000000;-0.145648
9266.000000;-0.145901
9265.000000;-0.146244
9264.000000;-0.146595
9263.000000;-0.146836
9262.000000;-0.146940
9261.000000;-0.147006
9260.000000;-0.147154
9259.000000;-0.147405
9258.000000;-0.147689
9257.000000;-0.147948
9256.000000;-0.148190
9255.000000;-0.148450
9254.000000;-0.148733
9253.000000;-0.149004
9252.000000;-0.149245
9251.000000;-0.149487
9250.000000;-0.149783
9249.000000;-0.150133
9248.000000;-0.150460
9247.000000;-0.150688
9246.000000;-0.150824
9245.000000;-0.150951
9244.000000;-0.151138
9243.000000;-0.151387
9242.000000;-0.151667
9241.000000;-0.151962
9240.000000;-0.152259
9239.000000;-0.152533
9238.000000;-0.152767
9237.000000;-0.152993
9236.000000;-0.153255
9235.000000;-0.153554
9234.000000;-0.153840
9233.000000;-0.154074
9232.000000;-0.154254
9231.000000;-0.154400
9230.000000;-0.154538
9229.000000;-0.154701
9228.000000;-0.154913
9227.000000;-0.155158
9226.000000;-0.155383
9225.000000;-0.155559
9224.000000;-0.155701
9223.000000;-0.155861
9222.000000;-0.156084
9221.000000;-0.156392
9220.000000;-0.156758
9219.000000;-0.157103
9218.000000;-0.157350
9217.000000;-0.157499
9216.000000;-0.157645
9215.000000;-0.157877
9214.000000;-0.158197
9213.000000;-0.158526
9212.000000;-0.158795
9211.000000;-0.158986
9210.000000;-0.159113
9209.000000;-0.159200
9208.000000;-0.159290
9207.000000;-0.159444
9206.000000;-0.159698
9205.000000;-0.160006
9204.000000;-0.160270
9203.000000;-0.160419
9202.000000;-0.160480
9201.000000;-0.160554
9200.000000;-0.160747
9199.000000;-0.161090
9198.000000;-0.161517
9197.000000;-0.161917
9196.000000;-0.162217
9195.000000;-0.162431
9194.000000;-0.162624
9193.000000;-0.162830
9192.000000;-0.163025
9191.000000;-0.163179
9190.000000;-0.163316
9189.000000;-0.163488
9188.000000;-0.163714
9187.000000;-0.163972
9186.000000;-0.164242
9185.000000;-0.164520
9184.000000;-0.164791
9183.000000;-0.165008
9182.000000;-0.165146
9181.000000;-0.165238
9180.000000;-0.165348
9179.000000;-0.165517
9178.000000;-0.165743
9177.000000;-0.166009
9176.000000;-0.166298
9175.000000;-0.166597
9174.000000;-0.166896
9173.000000;-0.167180
9172.000000;-0.167417
9171.000000;-0.167564
9170.000000;-0.167627
9169.000000;-0.167681
9168.000000;-0.167810
9167.000000;-0.168025
9166.000000;-0.168268
9165.000000;-0.168491
9164.000000;-0.168694
9163.000000;-0.168896
9162.000000;-0.169106
9161.000000;-0.169341
9160.000000;-0.169629
9159.000000;-0.169965
9158.000000;-0.170278
9157.000000;-0.170497
9156.000000;-0.170623
9155.000000;-0.170728
9154.000000;-0.170877
9153.000000;-0.171069
9152.000000;-0.171278
9151.000000;-0.171499
9150.000000;-0.171742
9149.000000;-0.171982
9148.000000;-0.172161
9147.000000;-0.172258
9146.000000;-0.172344
9145.000000;-0.172516
9144.000000;-0.172788
9143.000000;-0.173069
9142.000000;-0.173266
9141.000000;-0.173388
9140.000000;-0.173529
9139.000000;-0.173756
9138.000000;-0.174055
9137.000000;-0.174364
9136.000000;-0.174638
9135.000000;-0.174851
9134.000000;-0.174997
9133.000000;-0.175096
9132.000000;-0.175210
9131.000000;-0.175400
9130.000000;-0.175664
9129.000000;-0.175928
9128.000000;-0.176113
9127.000000;-0.176210
9126.000000;-0.176291
9125.000000;-0.176437
9124.000000;-0.176653
9123.000000;-0.176867
9122.000000;-0.177017
9121.000000;-0.177125
9120.000000;-0.177258
9119.000000;-0.177451
9118.000000;-0.177666
9117.000000;-0.177842
9116.000000;-0.177964
9115.000000;-0.178070
9114.000000;-0.178230
9113.000000;-0.178494
9112.000000;-0.178847
9111.000000;-0.179202
9110.000000;-0.179461
9109.000000;-0.179606
9108.000000;-0.179718
9107.000000;-0.179879
9106.000000;-0.180098
9105.000000;-0.180329
9104.000000;-0.180531
9103.000000;-0.180690
9102.000000;-0.180796
9101.000000;-0.180874
9100.000000;-0.180986
9099.000000;-0.181187
9098.000000;-0.181448
9097.000000;-0.181691
9096.000000;-0.181882
9095.000000;-0.182057
9094.000000;-0.182240
9093.000000;-0.182392
9092.000000;-0.182476
9091.000000;-0.182530
9090.000000;-0.182630
9089.000000;-0.182808
9088.000000;-0.183036
9087.000000;-0.183285
9086.000000;-0.183551
9085.000000;-0.183815
9084.000000;-0.184030
9083.000000;-0.184161
