Criado como novo conjunto de dados;"e2410_daniel_v2.spp","42484.3 Secs"
cm-1;Abs
10000.000000;0.621425
9999.000000;0.620759
9998.000000;0.620093
9997.000000;0.619429
9996.000000;0.618765
9995.000000;0.618103
9994.000000;0.617440
9993.000000;0.616783
9992.000000;0.616118
9991.000000;0.615469
9990.000000;0.614792
9989.000000;0.614240
9988.000000;0.613823
9987.000000;0.613300
9986.000000;0.612672
9985.000000;0.612144
9984.000000;0.611851
9983.000000;0.611659
9982.000000;0.611373
9981.000000;0.610967
9980.000000;0.610531
9979.000000;0.610134
9978.000000;0.609768
9977.000000;0.609370
9976.000000;0.608867
9975.000000;0.608266
9974.000000;0.607685
9973.000000;0.607203
9972.000000;0.606723
9971.000000;0.606088
9970.000000;0.605285
9969.000000;0.604452
9968.000000;0.603752
9967.000000;0.603304
9966.000000;0.603147
9965.000000;0.603153
9964.000000;0.603041
9963.000000;0.602624
9962.000000;0.601976
9961.000000;0.601304
9960.000000;0.600736
9959.000000;0.600313
9958.000000;0.599985
9957.000000;0.599518
9956.000000;0.598631
9955.000000;0.597403
9954.000000;0.596341
9953.000000;0.595828
9952.000000;0.595689
9951.000000;0.595508
9950.000000;0.595166
9949.000000;0.594813
9948.000000;0.594471
9947.000000;0.594020
9946.000000;0.593454
9945.000000;0.592861
9944.000000;0.592227
9943.000000;0.591565
9942.000000;0.591095
9941.000000;0.590967
9940.000000;0.590911
9939.000000;0.590527
9938.000000;0.589865
9937.000000;0.589350
9936.000000;0.589142
9935.000000;0.588943
9934.000000;0.588466
9933.000000;0.587761
9932.000000;0.587038
9931.000000;0.586444
9930.000000;0.586068
9929.000000;0.585847
9928.000000;0.585468
9927.000000;0.584651
9926.000000;0.583589
9925.000000;0.582795
9924.000000;0.582459
9923.000000;0.582225
9922.000000;0.581709
9921.000000;0.580949
9920.000000;0.580212
9919.000000;0.579635
9918.000000;0.579177
9917.000000;0.578753
9916.000000;0.578276
9915.000000;0.577710
9914.000000;0.577183
9913.000000;0.576891
9912.000000;0.576852
9911.000000;0.576878
9910.000000;0.576785
9909.000000;0.576490
9908.000000;0.575920
9907.000000;0.575074
9906.000000;0.574169
9905.000000;0.573498
9904.000000;0.573091
9903.000000;0.572707
9902.000000;0.572195
9901.000000;0.571647
9900.000000;0.571162
9899.000000;0.570681
9898.000000;0.570134
9897.000000;0.569556
9896.000000;0.568976
9895.000000;0.568357
9894.000000;0.567705
9893.000000;0.567099
9892.000000;0.566550
9891.000000;0.565997
9890.000000;0.565461
9889.000000;0.565076
9888.000000;0.564906
9887.000000;0.564867
9886.000000;0.564839
9885.000000;0.564711
9884.000000;0.564347
9883.000000;0.563691
9882.000000;0.562899
9881.000000;0.562212
9880.000000;0.561654
9879.000000;0.561046
9878.000000;0.560302
9877.000000;0.559543
9876.000000;0.558889
9875.000000;0.558308
9874.000000;0.557721
9873.000000;0.557104
9872.000000;0.556476
9871.000000;0.555906
9870.000000;0.555512
9869.000000;0.555315
9868.000000;0.555135
9867.000000;0.554789
9866.000000;0.554351
9865.000000;0.554010
9864.000000;0.553725
9863.000000;0.553264
9862.000000;0.552573
9861.000000;0.551885
9860.000000;0.551417
9859.000000;0.551161
9858.000000;0.550994
9857.000000;0.550800
9856.000000;0.550438
9855.000000;0.549788
9854.000000;0.548912
9853.000000;0.548012
9852.000000;0.547218
9851.000000;0.546539
9850.000000;0.546004
9849.000000;0.545678
9848.000000;0.545521
9847.000000;0.545385
9846.000000;0.545167
9845.000000;0.544838
9844.000000;0.544338
9843.000000;0.543628
9842.000000;0.542825
9841.000000;0.542114
9840.000000;0.541519
9839.000000;0.540932
9838.000000;0.540325
9837.000000;0.539773
9836.000000;0.539296
9835.000000;0.538850
9834.000000;0.538464
9833.000000;0.538173
9832.000000;0.537859
9831.000000;0.537351
9830.000000;0.536674
9829.000000;0.536002
9828.000000;0.535387
9827.000000;0.534758
9826.000000;0.534157
9825.000000;0.533739
9824.000000;0.533496
9823.000000;0.533234
9822.000000;0.532841
9821.000000;0.532385
9820.000000;0.531901
9819.000000;0.531311
9818.000000;0.530596
9817.000000;0.529859
9816.000000;0.529174
9815.000000;0.528548
9814.000000;0.528054
9813.000000;0.527780
9812.000000;0.527633
9811.000000;0.527379
9810.000000;0.526947
9809.000000;0.526491
9808.000000;0.526121
9807.000000;0.525750
9806.000000;0.525258
9805.000000;0.524654
9804.000000;0.524022
9803.000000;0.523455
9802.000000;0.523046
9801.000000;0.522791
9800.000000;0.522515
9799.000000;0.522070
9798.000000;0.521577
9797.000000;0.521258
9796.000000;0.521059
9795.000000;0.520690
9794.000000;0.520069
9793.000000;0.519457
9792.000000;0.519072
9791.000000;0.518806
9790.000000;0.518418
9789.000000;0.517815
9788.000000;0.517033
9787.000000;0.516138
9786.000000;0.515261
9785.000000;0.514586
9784.000000;0.514173
9783.000000;0.513903
9782.000000;0.513638
9781.000000;0.513334
9780.000000;0.512963
9779.000000;0.512483
9778.000000;0.511949
9777.000000;0.511508
9776.000000;0.511237
9775.000000;0.511056
9774.000000;0.510836
9773.000000;0.510484
9772.000000;0.509941
9771.000000;0.509247
9770.000000;0.508609
9769.000000;0.508222
9768.000000;0.508002
9767.000000;0.507666
9766.000000;0.507084
9765.000000;0.506398
9764.000000;0.505777
9763.000000;0.505239
9762.000000;0.504748
9761.000000;0.504300
9760.000000;0.503857
9759.000000;0.503338
9758.000000;0.502756
9757.000000;0.502232
9756.000000;0.501840
9755.000000;0.501559
9754.000000;0.501358
9753.000000;0.501189
9752.000000;0.500892
9751.000000;0.500289
9750.000000;0.499438
9749.000000;0.498629
9748.000000;0.498074
9747.000000;0.497712
9746.000000;0.497364
9745.000000;0.496962
9744.000000;0.496573
9743.000000;0.496294
9742.000000;0.496145
9741.000000;0.495995
9740.000000;0.495610
9739.000000;0.494882
9738.000000;0.493979
9737.000000;0.493186
9736.000000;0.492608
9735.000000;0.492155
9734.000000;0.491731
9733.000000;0.491293
9732.000000;0.490784
9731.000000;0.490203
9730.000000;0.489692
9729.000000;0.489395
9728.000000;0.489232
9727.000000;0.488984
9726.000000;0.488564
9725.000000;0.488052
9724.000000;0.487518
9723.000000;0.486985
9722.000000;0.486508
9721.000000;0.486098
9720.000000;0.485612
9719.000000;0.484932
9718.000000;0.484199
9717.000000;0.483636
9716.000000;0.483205
9715.000000;0.482691
9714.000000;0.482096
9713.000000;0.481650
9712.000000;0.481430
9711.000000;0.481262
9710.000000;0.481038
9709.000000;0.480841
9708.000000;0.480685
9707.000000;0.480387
9706.000000;0.479838
9705.000000;0.479178
9704.000000;0.478587
9703.000000;0.478100
9702.000000;0.477693
9701.000000;0.477380
9700.000000;0.477123
9699.000000;0.476819
9698.000000;0.476447
9697.000000;0.476080
9696.000000;0.475687
9695.000000;0.475112
9694.000000;0.474304
9693.000000;0.473411
9692.000000;0.472576
9691.000000;0.471826
9690.000000;0.471193
9689.000000;0.470763
9688.000000;0.470503
9687.000000;0.470247
9686.000000;0.469919
9685.000000;0.469605
9684.000000;0.469314
9683.000000;0.468875
9682.000000;0.468209
9681.000000;0.467534
9680.000000;0.467151
9679.000000;0.467113
9678.000000;0.467202
9677.000000;0.467135
9676.000000;0.466728
9675.000000;0.465976
9674.000000;0.465080
9673.000000;0.464325
9672.000000;0.463854
9671.000000;0.463598
9670.000000;0.463400
9669.000000;0.463121
9668.000000;0.462637
9667.000000;0.461916
9666.000000;0.461146
9665.000000;0.460619
9664.000000;0.460429
9663.000000;0.460370
9662.000000;0.460178
9661.000000;0.459756
9660.000000;0.459149
9659.000000;0.458442
9658.000000;0.457741
9657.000000;0.457142
9656.000000;0.456629
9655.000000;0.456108
9654.000000;0.455564
9653.000000;0.455095
9652.000000;0.454757
9651.000000;0.454506
9650.000000;0.454294
9649.000000;0.454136
9648.000000;0.454030
9647.000000;0.453929
9646.000000;0.453792
9645.000000;0.453575
9644.000000;0.453189
9643.000000;0.452575
9642.000000;0.451829
9641.000000;0.451122
9640.000000;0.450494
9639.000000;0.449855
9638.000000;0.449199
9637.000000;0.448649
9636.000000;0.448264
9635.000000;0.447971
9634.000000;0.447680
9633.000000;0.447353
9632.000000;0.446908
9631.000000;0.446245
9630.000000;0.445412
9629.000000;0.444649
9628.000000;0.444160
9627.000000;0.443919
9626.000000;0.443724
9625.000000;0.443378
9624.000000;0.442841
9623.000000;0.442279
9622.000000;0.441927
9621.000000;0.441812
9620.000000;0.441679
9619.000000;0.441306
9618.000000;0.440815
9617.000000;0.440507
9616.000000;0.440432
9615.000000;0.440313
9614.000000;0.439910
9613.000000;0.439256
9612.000000;0.438527
9611.000000;0.437848
9610.000000;0.437275
9609.000000;0.436812
9608.000000;0.436402
9607.000000;0.435987
9606.000000;0.435599
9605.000000;0.435283
9604.000000;0.434994
9603.000000;0.434698
9602.000000;0.434478
9601.000000;0.434381
9600.000000;0.434210
9599.000000;0.433733
9598.000000;0.433026
9597.000000;0.432384
9596.000000;0.431904
9595.000000;0.431427
9594.000000;0.430904
9593.000000;0.430489
9592.000000;0.430190
9591.000000;0.429739
9590.000000;0.428985
9589.000000;0.428192
9588.000000;0.427750
9587.000000;0.427707
9586.000000;0.427763
9585.000000;0.427600
9584.000000;0.427110
9583.000000;0.426402
9582.000000;0.425717
9581.000000;0.425276
9580.000000;0.425123
9579.000000;0.425129
9578.000000;0.425149
9577.000000;0.425075
9576.000000;0.424780
9575.000000;0.424172
9574.000000;0.423385
9573.000000;0.422744
9572.000000;0.422432
9571.000000;0.422276
9570.000000;0.421943
9569.000000;0.421281
9568.000000;0.420416
9567.000000;0.419595
9566.000000;0.418989
9565.000000;0.418593
9564.000000;0.418276
9563.000000;0.417967
9562.000000;0.417730
9561.000000;0.417610
9560.000000;0.417485
9559.000000;0.417204
9558.000000;0.416818
9557.000000;0.416499
9556.000000;0.416255
9555.000000;0.415913
9554.000000;0.415404
9553.000000;0.414873
9552.000000;0.414475
9551.000000;0.414209
9550.000000;0.413997
9549.000000;0.413776
9548.000000;0.413464
9547.000000;0.412979
9546.000000;0.412328
9545.000000;0.411608
9544.000000;0.410890
9543.000000;0.410225
9542.000000;0.409712
9541.000000;0.409425
9540.000000;0.409257
9539.000000;0.408997
9538.000000;0.408544
9537.000000;0.407936
9536.000000;0.407216
9535.000000;0.406453
9534.000000;0.405858
9533.000000;0.405643
9532.000000;0.405725
9531.000000;0.405784
9530.000000;0.405622
9529.000000;0.405304
9528.000000;0.404917
9527.000000;0.404448
9526.000000;0.403951
9525.000000;0.403590
9524.000000;0.403403
9523.000000;0.403224
9522.000000;0.402931
9521.000000;0.402601
9520.000000;0.402318
9519.000000;0.402010
9518.000000;0.401576
9517.000000;0.401020
9516.000000;0.400350
9515.000000;0.399520
9514.000000;0.398606
9513.000000;0.397866
9512.000000;0.397485
9511.000000;0.397368
9510.000000;0.397298
9509.000000;0.397187
9508.000000;0.397040
9507.000000;0.396797
9506.000000;0.396362
9505.000000;0.395742
9504.000000;0.395056
9503.000000;0.394422
9502.000000;0.393916
9501.000000;0.393556
9500.000000;0.393300
9499.000000;0.393107
9498.000000;0.393020
9497.000000;0.393058
9496.000000;0.393035
9495.000000;0.392642
9494.000000;0.391818
9493.000000;0.390894
9492.000000;0.390258
9491.000000;0.389994
9490.000000;0.389925
9489.000000;0.389881
9488.000000;0.389792
9487.000000;0.389605
9486.000000;0.389258
9485.000000;0.388737
9484.000000;0.388090
9483.000000;0.387380
9482.000000;0.386676
9481.000000;0.386042
9480.000000;0.385494
9479.000000;0.385023
9478.000000;0.384660
9477.000000;0.384449
9476.000000;0.384350
9475.000000;0.384238
9474.000000;0.384026
9473.000000;0.383715
9472.000000;0.383317
9471.000000;0.382850
9470.000000;0.382397
9469.000000;0.382062
9468.000000;0.381815
9467.000000;0.381515
9466.000000;0.381143
9465.000000;0.380872
9464.000000;0.380817
9463.000000;0.380841
9462.000000;0.380695
9461.000000;0.380285
9460.000000;0.379704
9459.000000;0.379097
9458.000000;0.378564
9457.000000;0.378139
9456.000000;0.377777
9455.000000;0.377382
9454.000000;0.376920
9453.000000;0.376444
9452.000000;0.375993
9451.000000;0.375529
9450.000000;0.375039
9449.000000;0.374609
9448.000000;0.374319
9447.000000;0.374111
9446.000000;0.373846
9445.000000;0.373468
9444.000000;0.373063
9443.000000;0.372769
9442.000000;0.372656
9441.000000;0.372645
9440.000000;0.372549
9439.000000;0.372229
9438.000000;0.371744
9437.000000;0.371296
9436.000000;0.371003
9435.000000;0.370790
9434.000000;0.370512
9433.000000;0.370106
9432.000000;0.369581
9431.000000;0.368956
9430.000000;0.368268
9429.000000;0.367626
9428.000000;0.367150
9427.000000;0.366874
9426.000000;0.366720
9425.000000;0.366575
9424.000000;0.366370
9423.000000;0.366093
9422.000000;0.365760
9421.000000;0.365375
9420.000000;0.364944
9419.000000;0.364515
9418.000000;0.364173
9417.000000;0.363977
9416.000000;0.363905
9415.000000;0.363866
9414.000000;0.363736
9413.000000;0.363390
9412.000000;0.362799
9411.000000;0.362105
9410.000000;0.361537
9409.000000;0.361163
9408.000000;0.360827
9407.000000;0.360367
9406.000000;0.359825
9405.000000;0.359336
9404.000000;0.358919
9403.000000;0.358513
9402.000000;0.358178
9401.000000;0.358060
9400.000000;0.358133
9399.000000;0.358122
9398.000000;0.357750
9397.000000;0.357025
9396.000000;0.356240
9395.000000;0.355717
9394.000000;0.355560
9393.000000;0.355584
9392.000000;0.355484
9391.000000;0.355105
9390.000000;0.354537
9389.000000;0.353972
9388.000000;0.353549
9387.000000;0.353339
9386.000000;0.353345
9385.000000;0.353419
9384.000000;0.353284
9383.000000;0.352792
9382.000000;0.352106
9381.000000;0.351502
9380.000000;0.351074
9379.000000;0.350750
9378.000000;0.350504
9377.000000;0.350372
9376.000000;0.350267
9375.000000;0.349981
9374.000000;0.349420
9373.000000;0.348720
9372.000000;0.348096
9371.000000;0.347671
9370.000000;0.347463
9369.000000;0.347424
9368.000000;0.347445
9367.000000;0.347418
9366.000000;0.347294
9365.000000;0.347061
9364.000000;0.346698
9363.000000;0.346226
9362.000000;0.345776
9361.000000;0.345479
9360.000000;0.345304
9359.000000;0.345096
9358.000000;0.344776
9357.000000;0.344409
9356.000000;0.344087
9355.000000;0.343823
9354.000000;0.343560
9353.000000;0.343226
9352.000000;0.342797
9351.000000;0.342344
9350.000000;0.341980
9349.000000;0.341705
9348.000000;0.341396
9347.000000;0.341023
9346.000000;0.340757
9345.000000;0.340709
9344.000000;0.340673
9343.000000;0.340309
9342.000000;0.339547
9341.000000;0.338652
9340.000000;0.337913
9339.000000;0.337427
9338.000000;0.337150
9337.000000;0.336985
9336.000000;0.336803
9335.000000;0.336557
9334.000000;0.336380
9333.000000;0.336428
9332.000000;0.336615
9331.000000;0.336658
9330.000000;0.336410
9329.000000;0.335999
9328.000000;0.335609
9327.000000;0.335276
9326.000000;0.334942
9325.000000;0.334563
9324.000000;0.334095
9323.000000;0.333493
9322.000000;0.332790
9321.000000;0.332104
9320.000000;0.331547
9319.000000;0.331169
9318.000000;0.331004
9317.000000;0.331039
9316.000000;0.331130
9315.000000;0.331063
9314.000000;0.330747
9313.000000;0.330285
9312.000000;0.329833
9311.000000;0.329479
9310.000000;0.329251
9309.000000;0.329139
9308.000000;0.329061
9307.000000;0.328892
9306.000000;0.328563
9305.000000;0.328086
9304.000000;0.327507
9303.000000;0.326905
9302.000000;0.326408
9301.000000;0.326107
9300.000000;0.325944
9299.000000;0.325783
9298.000000;0.325581
9297.000000;0.325393
9296.000000;0.325215
9295.000000;0.324956
9294.000000;0.324586
9293.000000;0.324215
9292.000000;0.323962
9291.000000;0.323816
9290.000000;0.323659
9289.000000;0.323395
9288.000000;0.323037
9287.000000;0.322699
9286.000000;0.322486
9285.000000;0.322361
9284.000000;0.322170
9283.000000;0.321817
9282.000000;0.321368
9281.000000;0.320945
9280.000000;0.320584
9279.000000;0.320270
9278.000000;0.320002
9277.000000;0.319740
9276.000000;0.319393
9275.000000;0.318961
9274.000000;0.318599
9273.000000;0.318402
9272.000000;0.318230
9271.000000;0.317893
9270.000000;0.317437
9269.000000;0.317067
9268.000000;0.316864
9267.000000;0.316753
9266.000000;0.316690
9265.000000;0.316679
9264.000000;0.316633
9263.000000;0.316423
9262.000000;0.316087
9261.000000;0.315791
9260.000000;0.315558
9259.000000;0.315222
9258.000000;0.314682
9257.000000;0.314043
9256.000000;0.313474
9255.000000;0.313065
9254.000000;0.312858
9253.000000;0.312839
9252.000000;0.312860
9251.000000;0.312718
9250.000000;0.312374
9249.000000;0.311991
9248.000000;0.311714
9247.000000;0.311522
9246.000000;0.311327
9245.000000;0.311095
9244.000000;0.310831
9243.000000;0.310556
9242.000000;0.310329
9241.000000;0.310190
9240.000000;0.310054
9239.000000;0.309789
9238.000000;0.309404
9237.000000;0.309051
9236.000000;0.308809
9235.000000;0.308598
9234.000000;0.308325
9233.000000;0.308013
9232.000000;0.307725
9231.000000;0.307476
9230.000000;0.307253
9229.000000;0.307027
9228.000000;0.306723
9227.000000;0.306281
9226.000000;0.305774
9225.000000;0.305362
9224.000000;0.305111
9223.000000;0.304932
9222.000000;0.304720
9221.000000;0.304468
9220.000000;0.304215
9219.000000;0.303993
9218.000000;0.303822
9217.000000;0.303690
9216.000000;0.303515
9215.000000;0.303228
9214.000000;0.302884
9213.000000;0.302596
9212.000000;0.302374
9211.000000;0.302138
9210.000000;0.301871
9209.000000;0.301639
9208.000000;0.301463
9207.000000;0.301294
9206.000000;0.301122
9205.000000;0.300976
9204.000000;0.300820
9203.000000;0.300587
9202.000000;0.300311
9201.000000;0.300087
9200.000000;0.299880
9199.000000;0.299540
9198.000000;0.299042
9197.000000;0.298562
9196.000000;0.298240
9195.000000;0.298027
9194.000000;0.297810
9193.000000;0.297566
9192.000000;0.297316
9191.000000;0.297050
9190.000000;0.296774
9189.000000;0.296545
9188.000000;0.296391
9187.000000;0.296266
9186.000000;0.296132
9185.000000;0.295999
9184.000000;0.295844
9183.000000;0.295592
9182.000000;0.295237
9181.000000;0.294880
9180.000000;0.294588
9179.000000;0.294306
9178.000000;0.293966
9177.000000;0.293604
9176.000000;0.293281
9175.000000;0.292979
9174.000000;0.292649
9173.000000;0.292326
9172.000000;0.292119
9171.000000;0.292076
9170.000000;0.292118
9169.000000;0.292096
9168.000000;0.291912
9167.000000;0.291612
9166.000000;0.291337
9165.000000;0.291150
9164.000000;0.290935
9163.000000;0.290545
9162.000000;0.290006
9161.000000;0.289491
9160.000000;0.289113
9159.000000;0.288838
9158.000000;0.288613
9157.000000;0.288445
9156.000000;0.288350
9155.000000;0.288303
9154.000000;0.288269
9153.000000;0.288203
9152.000000;0.288025
9151.000000;0.287683
9150.000000;0.287266
9149.000000;0.286958
9148.000000;0.286845
9147.000000;0.286849
9146.000000;0.286856
9145.000000;0.286824
9144.000000;0.286730
9143.000000;0.286537
9142.000000;0.286240
9141.000000;0.285894
9140.000000;0.285545
9139.000000;0.285211
9138.000000;0.284921
9137.000000;0.284715
9136.000000;0.284575
9135.000000;0.284428
9134.000000;0.284241
9133.000000;0.284032
9132.000000;0.283780
9131.000000;0.283418
9130.000000;0.282947
9129.000000;0.282469
9128.000000;0.282067
9127.000000;0.281725
9126.000000;0.281404
9125.000000;0.281131
9124.000000;0.280962
9123.000000;0.280890
9122.000000;0.280834
9121.000000;0.280699
9120.000000;0.280464
9119.000000;0.280201
9118.000000;0.280009
9117.000000;0.279875
9116.000000;0.279665
9115.000000;0.279292
9114.000000;0.278863
9113.000000;0.278561
9112.000000;0.278438
9111.000000;0.278391
9110.000000;0.278319
9109.000000;0.278194
9108.000000;0.278016
9107.000000;0.277801
9106.000000;0.277596
9105.000000;0.277423
9104.000000;0.277214
9103.000000;0.276923
9102.000000;0.276644
9101.000000;0.276511
9100.000000;0.276476
9099.000000;0.276344
9098.000000;0.276044
9097.000000;0.275725
9096.000000;0.275549
9095.000000;0.275497
9094.000000;0.275428
9093.000000;0.275238
9092.000000;0.274904
9091.000000;0.274459
9090.000000;0.273986
9089.000000;0.273579
9088.000000;0.273261
9087.000000;0.272999
9086.000000;0.272800
9085.000000;0.272723
9084.000000;0.272769
9083.000000;0.272832
9082.000000;0.272795
9081.000000;0.272632
9080.000000;0.272399
9079.000000;0.272156
9078.000000;0.271918
9077.000000;0.271639
9076.000000;0.271265
9075.000000;0.270833
9074.000000;0.270492
9073.000000;0.270358
9072.000000;0.270382
9071.000000;0.270415
9070.000000;0.270364
9069.000000;0.270209
9068.000000;0.269933
9067.000000;0.269554
9066.000000;0.269195
9065.000000;0.268996
9064.000000;0.268936
9063.000000;0.268853
9062.000000;0.268641
9061.000000;0.268356
9060.000000;0.268099
9059.000000;0.267913
9058.000000;0.267793
9057.000000;0.267719
9056.000000;0.267637
9055.000000;0.267481
9054.000000;0.267236
9053.000000;0.266931
