Criado como novo conjunto de dados;"e2410_daniel_v2.spp","20342.8 Secs"
cm-1;Abs
10000.000000;0.493239
9999.000000;0.492667
9998.000000;0.492095
9997.000000;0.491524
9996.000000;0.490953
9995.000000;0.490384
9994.000000;0.489815
9993.000000;0.489247
9992.000000;0.488678
9991.000000;0.488175
9990.000000;0.487821
9989.000000;0.487619
9988.000000;0.487555
9987.000000;0.487573
9986.000000;0.487478
9985.000000;0.487034
9984.000000;0.486198
9983.000000;0.485159
9982.000000;0.484147
9981.000000;0.483349
9980.000000;0.482939
9979.000000;0.482944
9978.000000;0.483070
9977.000000;0.482900
9976.000000;0.482317
9975.000000;0.481577
9974.000000;0.480910
9973.000000;0.480297
9972.000000;0.479674
9971.000000;0.479128
9970.000000;0.478737
9969.000000;0.478406
9968.000000;0.478014
9967.000000;0.477604
9966.000000;0.477274
9965.000000;0.476973
9964.000000;0.476536
9963.000000;0.475914
9962.000000;0.475247
9961.000000;0.474720
9960.000000;0.474385
9959.000000;0.474115
9958.000000;0.473713
9957.000000;0.473084
9956.000000;0.472306
9955.000000;0.471525
9954.000000;0.470830
9953.000000;0.470279
9952.000000;0.469947
9951.000000;0.469808
9950.000000;0.469665
9949.000000;0.469312
9948.000000;0.468739
9947.000000;0.468051
9946.000000;0.467272
9945.000000;0.466406
9944.000000;0.465618
9943.000000;0.465118
9942.000000;0.464840
9941.000000;0.464481
9940.000000;0.463891
9939.000000;0.463220
9938.000000;0.462626
9937.000000;0.462075
9936.000000;0.461487
9935.000000;0.460902
9934.000000;0.460378
9933.000000;0.459918
9932.000000;0.459591
9931.000000;0.459541
9930.000000;0.459753
9929.000000;0.459926
9928.000000;0.459725
9927.000000;0.459076
9926.000000;0.458134
9925.000000;0.457100
9924.000000;0.456166
9923.000000;0.455491
9922.000000;0.455060
9921.000000;0.454649
9920.000000;0.454058
9919.000000;0.453361
9918.000000;0.452813
9917.000000;0.452546
9916.000000;0.452460
9915.000000;0.452366
9914.000000;0.452147
9913.000000;0.451787
9912.000000;0.451325
9911.000000;0.450790
9910.000000;0.450167
9909.000000;0.449467
9908.000000;0.448793
9907.000000;0.448270
9906.000000;0.447888
9905.000000;0.447500
9904.000000;0.447013
9903.000000;0.446482
9902.000000;0.445985
9901.000000;0.445489
9900.000000;0.444924
9899.000000;0.444309
9898.000000;0.443727
9897.000000;0.443196
9896.000000;0.442639
9895.000000;0.441970
9894.000000;0.441226
9893.000000;0.440579
9892.000000;0.440198
9891.000000;0.440052
9890.000000;0.439876
9889.000000;0.439437
9888.000000;0.438798
9887.000000;0.438232
9886.000000;0.437874
9885.000000;0.437576
9884.000000;0.437124
9883.000000;0.436496
9882.000000;0.435839
9881.000000;0.435288
9880.000000;0.434862
9879.000000;0.434488
9878.000000;0.434087
9877.000000;0.433650
9876.000000;0.433244
9875.000000;0.432910
9874.000000;0.432588
9873.000000;0.432200
9872.000000;0.431780
9871.000000;0.431416
9870.000000;0.431077
9869.000000;0.430599
9868.000000;0.429877
9867.000000;0.428998
9866.000000;0.428163
9865.000000;0.427530
9864.000000;0.427124
9863.000000;0.426832
9862.000000;0.426484
9861.000000;0.426013
9860.000000;0.425505
9859.000000;0.425043
9858.000000;0.424565
9857.000000;0.423972
9856.000000;0.423337
9855.000000;0.422847
9854.000000;0.422537
9853.000000;0.422225
9852.000000;0.421744
9851.000000;0.421133
9850.000000;0.420559
9849.000000;0.420143
9848.000000;0.419876
9847.000000;0.419633
9846.000000;0.419239
9845.000000;0.418619
9844.000000;0.417924
9843.000000;0.417410
9842.000000;0.417173
9841.000000;0.417056
9840.000000;0.416809
9839.000000;0.416286
9838.000000;0.415515
9837.000000;0.414661
9836.000000;0.413951
9835.000000;0.413509
9834.000000;0.413243
9833.000000;0.412952
9832.000000;0.412548
9831.000000;0.412105
9830.000000;0.411699
9829.000000;0.411301
9828.000000;0.410832
9827.000000;0.410247
9826.000000;0.409570
9825.000000;0.408897
9824.000000;0.408354
9823.000000;0.407961
9822.000000;0.407580
9821.000000;0.407100
9820.000000;0.406621
9819.000000;0.406317
9818.000000;0.406155
9817.000000;0.405908
9816.000000;0.405472
9815.000000;0.405015
9814.000000;0.404717
9813.000000;0.404498
9812.000000;0.404075
9811.000000;0.403269
9810.000000;0.402213
9809.000000;0.401278
9808.000000;0.400762
9807.000000;0.400620
9806.000000;0.400517
9805.000000;0.400218
9804.000000;0.399830
9803.000000;0.399554
9802.000000;0.399319
9801.000000;0.398865
9800.000000;0.398153
9799.000000;0.397458
9798.000000;0.397001
9797.000000;0.396688
9796.000000;0.396287
9795.000000;0.395718
9794.000000;0.395071
9793.000000;0.394448
9792.000000;0.393908
9791.000000;0.393477
9790.000000;0.393135
9789.000000;0.392822
9788.000000;0.392501
9787.000000;0.392160
9786.000000;0.391737
9785.000000;0.391140
9784.000000;0.390380
9783.000000;0.389627
9782.000000;0.389079
9781.000000;0.388821
9780.000000;0.388796
9779.000000;0.388845
9778.000000;0.388748
9777.000000;0.388337
9776.000000;0.387626
9775.000000;0.386779
9774.000000;0.385968
9773.000000;0.385292
9772.000000;0.384815
9771.000000;0.384555
9770.000000;0.384408
9769.000000;0.384173
9768.000000;0.383724
9767.000000;0.383111
9766.000000;0.382481
9765.000000;0.381953
9764.000000;0.381556
9763.000000;0.381211
9762.000000;0.380766
9761.000000;0.380124
9760.000000;0.379359
9759.000000;0.378635
9758.000000;0.378031
9757.000000;0.377503
9756.000000;0.377008
9755.000000;0.376577
9754.000000;0.376242
9753.000000;0.375971
9752.000000;0.375685
9751.000000;0.375305
9750.000000;0.374786
9749.000000;0.374169
9748.000000;0.373578
9747.000000;0.373081
9746.000000;0.372596
9745.000000;0.372005
9744.000000;0.371347
9743.000000;0.370798
9742.000000;0.370488
9741.000000;0.370404
9740.000000;0.370438
9739.000000;0.370428
9738.000000;0.370194
9737.000000;0.369678
9736.000000;0.369051
9735.000000;0.368551
9734.000000;0.368196
9733.000000;0.367768
9732.000000;0.367083
9731.000000;0.366189
9730.000000;0.365277
9729.000000;0.364524
9728.000000;0.364046
9727.000000;0.363859
9726.000000;0.363828
9725.000000;0.363725
9724.000000;0.363396
9723.000000;0.362861
9722.000000;0.362244
9721.000000;0.361667
9720.000000;0.361195
9719.000000;0.360803
9718.000000;0.360382
9717.000000;0.359858
9716.000000;0.359292
9715.000000;0.358822
9714.000000;0.358510
9713.000000;0.358310
9712.000000;0.358138
9711.000000;0.357901
9710.000000;0.357502
9709.000000;0.356930
9708.000000;0.356306
9707.000000;0.355765
9706.000000;0.355299
9705.000000;0.354853
9704.000000;0.354486
9703.000000;0.354309
9702.000000;0.354264
9701.000000;0.354145
9700.000000;0.353840
9699.000000;0.353413
9698.000000;0.352939
9697.000000;0.352402
9696.000000;0.351808
9695.000000;0.351245
9694.000000;0.350773
9693.000000;0.350352
9692.000000;0.349928
9691.000000;0.349494
9690.000000;0.349035
9689.000000;0.348512
9688.000000;0.347939
9687.000000;0.347385
9686.000000;0.346857
9685.000000;0.346282
9684.000000;0.345640
9683.000000;0.345030
9682.000000;0.344548
9681.000000;0.344185
9680.000000;0.343869
9679.000000;0.343545
9678.000000;0.343180
9677.000000;0.342762
9676.000000;0.342324
9675.000000;0.341912
9674.000000;0.341532
9673.000000;0.341176
9672.000000;0.340870
9671.000000;0.340617
9670.000000;0.340320
9669.000000;0.339877
9668.000000;0.339354
9667.000000;0.338914
9666.000000;0.338579
9665.000000;0.338194
9664.000000;0.337686
9663.000000;0.337178
9662.000000;0.336801
9661.000000;0.336492
9660.000000;0.336096
9659.000000;0.335584
9658.000000;0.335057
9657.000000;0.334581
9656.000000;0.334104
9655.000000;0.333537
9654.000000;0.332880
9653.000000;0.332253
9652.000000;0.331803
9651.000000;0.331539
9650.000000;0.331288
9649.000000;0.330882
9648.000000;0.330355
9647.000000;0.329875
9646.000000;0.329490
9645.000000;0.329070
9644.000000;0.328512
9643.000000;0.327906
9642.000000;0.327415
9641.000000;0.327058
9640.000000;0.326700
9639.000000;0.326215
9638.000000;0.325616
9637.000000;0.325018
9636.000000;0.324529
9635.000000;0.324167
9634.000000;0.323882
9633.000000;0.323630
9632.000000;0.323402
9631.000000;0.323171
9630.000000;0.322873
9629.000000;0.322489
9628.000000;0.322098
9627.000000;0.321776
9626.000000;0.321481
9625.000000;0.321103
9624.000000;0.320608
9623.000000;0.320068
9622.000000;0.319576
9621.000000;0.319185
9620.000000;0.318898
9619.000000;0.318642
9618.000000;0.318300
9617.000000;0.317830
9616.000000;0.317337
9615.000000;0.316940
9614.000000;0.316618
9613.000000;0.316249
9612.000000;0.315779
9611.000000;0.315264
9610.000000;0.314780
9609.000000;0.314384
9608.000000;0.314115
9607.000000;0.313924
9606.000000;0.313650
9605.000000;0.313194
9604.000000;0.312674
9603.000000;0.312288
9602.000000;0.312039
9601.000000;0.311734
9600.000000;0.311247
9599.000000;0.310658
9598.000000;0.310096
9597.000000;0.309607
9596.000000;0.309186
9595.000000;0.308835
9594.000000;0.308521
9593.000000;0.308153
9592.000000;0.307678
9591.000000;0.307141
9590.000000;0.306644
9589.000000;0.306258
9588.000000;0.305983
9587.000000;0.305735
9586.000000;0.305397
9585.000000;0.304949
9584.000000;0.304513
9583.000000;0.304201
9582.000000;0.303944
9581.000000;0.303573
9580.000000;0.303042
9579.000000;0.302472
9578.000000;0.301986
9577.000000;0.301604
9576.000000;0.301283
9575.000000;0.300963
9574.000000;0.300580
9573.000000;0.300139
9572.000000;0.299748
9571.000000;0.299476
9570.000000;0.299202
9569.000000;0.298736
9568.000000;0.298082
9567.000000;0.297448
9566.000000;0.296972
9565.000000;0.296599
9564.000000;0.296242
9563.000000;0.295921
9562.000000;0.295682
9561.000000;0.295475
9560.000000;0.295209
9559.000000;0.294855
9558.000000;0.294435
9557.000000;0.293974
9556.000000;0.293498
9555.000000;0.293032
9554.000000;0.292562
9553.000000;0.292051
9552.000000;0.291530
9551.000000;0.291119
9550.000000;0.290915
9549.000000;0.290878
9548.000000;0.290830
9547.000000;0.290571
9546.000000;0.290026
9545.000000;0.289317
9544.000000;0.288682
9543.000000;0.288262
9542.000000;0.288014
9541.000000;0.287824
9540.000000;0.287646
9539.000000;0.287441
9538.000000;0.287094
9537.000000;0.286541
9536.000000;0.285910
9535.000000;0.285403
9534.000000;0.285047
9533.000000;0.284694
9532.000000;0.284274
9531.000000;0.283880
9530.000000;0.283598
9529.000000;0.283377
9528.000000;0.283104
9527.000000;0.282712
9526.000000;0.282180
9525.000000;0.281545
9524.000000;0.280927
9523.000000;0.280452
9522.000000;0.280129
9521.000000;0.279879
9520.000000;0.279675
9519.000000;0.279542
9518.000000;0.279410
9517.000000;0.279110
9516.000000;0.278562
9515.000000;0.277884
9514.000000;0.277258
9513.000000;0.276780
9512.000000;0.276462
9511.000000;0.276268
9510.000000;0.276093
9509.000000;0.275804
9508.000000;0.275381
9507.000000;0.274929
9506.000000;0.274512
9505.000000;0.274062
9504.000000;0.273526
9503.000000;0.273030
9502.000000;0.272768
9501.000000;0.272748
9500.000000;0.272727
9499.000000;0.272450
9498.000000;0.271920
9497.000000;0.271383
9496.000000;0.271043
9495.000000;0.270828
9494.000000;0.270490
9493.000000;0.269925
9492.000000;0.269302
9491.000000;0.268863
9490.000000;0.268664
9489.000000;0.268576
9488.000000;0.268425
9487.000000;0.268075
9486.000000;0.267468
9485.000000;0.266716
9484.000000;0.266087
9483.000000;0.265766
9482.000000;0.265655
9481.000000;0.265510
9480.000000;0.265217
9479.000000;0.264834
9478.000000;0.264411
9477.000000;0.263949
9476.000000;0.263514
9475.000000;0.263226
9474.000000;0.263075
9473.000000;0.262904
9472.000000;0.262607
9471.000000;0.262241
9470.000000;0.261886
9469.000000;0.261519
9468.000000;0.261074
9467.000000;0.260544
9466.000000;0.259987
9465.000000;0.259481
9464.000000;0.259097
9463.000000;0.258843
9462.000000;0.258629
9461.000000;0.258344
9460.000000;0.257981
9459.000000;0.257606
9458.000000;0.257237
9457.000000;0.256846
9456.000000;0.256443
9455.000000;0.256065
9454.000000;0.255677
9453.000000;0.255227
9452.000000;0.254788
9451.000000;0.254516
9450.000000;0.254422
9449.000000;0.254324
9448.000000;0.254087
9447.000000;0.253779
9446.000000;0.253529
9445.000000;0.253336
9444.000000;0.253106
9443.000000;0.252791
9442.000000;0.252400
9441.000000;0.251930
9440.000000;0.251385
9439.000000;0.250832
9438.000000;0.250353
9437.000000;0.249961
9436.000000;0.249601
9435.000000;0.249237
9434.000000;0.248894
9433.000000;0.248602
9432.000000;0.248338
9431.000000;0.248029
9430.000000;0.247630
9429.000000;0.247192
9428.000000;0.246822
9427.000000;0.246559
9426.000000;0.246335
9425.000000;0.246072
9424.000000;0.245796
9423.000000;0.245568
9422.000000;0.245373
9421.000000;0.245120
9420.000000;0.244749
9419.000000;0.244284
9418.000000;0.243790
9417.000000;0.243334
9416.000000;0.242949
9415.000000;0.242600
9414.000000;0.242212
9413.000000;0.241791
9412.000000;0.241440
9411.000000;0.241207
9410.000000;0.240971
9409.000000;0.240597
9408.000000;0.240130
9407.000000;0.239728
9406.000000;0.239446
9405.000000;0.239210
9404.000000;0.238969
9403.000000;0.238738
9402.000000;0.238496
9401.000000;0.238181
9400.000000;0.237809
9399.000000;0.237491
9398.000000;0.237286
9397.000000;0.237135
9396.000000;0.236941
9395.000000;0.236649
9394.000000;0.236238
9393.000000;0.235724
9392.000000;0.235186
9391.000000;0.234706
9390.000000;0.234277
9389.000000;0.233855
9388.000000;0.233482
9387.000000;0.233256
9386.000000;0.233161
9385.000000;0.233038
9384.000000;0.232755
9383.000000;0.232331
9382.000000;0.231872
9381.000000;0.231471
9380.000000;0.231171
9379.000000;0.230947
9378.000000;0.230708
9377.000000;0.230387
9376.000000;0.230038
9375.000000;0.229762
9374.000000;0.229549
9373.000000;0.229285
9372.000000;0.228933
9371.000000;0.228588
9370.000000;0.228327
9369.000000;0.228091
9368.000000;0.227789
9367.000000;0.227414
9366.000000;0.227021
9365.000000;0.226627
9364.000000;0.226211
9363.000000;0.225766
9362.000000;0.225328
9361.000000;0.224959
9360.000000;0.224714
9359.000000;0.224581
9358.000000;0.224476
9357.000000;0.224318
9356.000000;0.224121
9355.000000;0.223928
9354.000000;0.223712
9353.000000;0.223375
9352.000000;0.222877
9351.000000;0.222293
9350.000000;0.221754
9349.000000;0.221384
9348.000000;0.221235
9347.000000;0.221224
9346.000000;0.221147
9345.000000;0.220845
9344.000000;0.220357
9343.000000;0.219841
9342.000000;0.219384
9341.000000;0.218970
9340.000000;0.218606
9339.000000;0.218351
9338.000000;0.218201
9337.000000;0.218048
9336.000000;0.217787
9335.000000;0.217404
9334.000000;0.216941
9333.000000;0.216454
9332.000000;0.216010
9331.000000;0.215672
9330.000000;0.215467
9329.000000;0.215382
9328.000000;0.215363
9327.000000;0.215286
9326.000000;0.214984
9325.000000;0.214425
9324.000000;0.213828
9323.000000;0.213479
9322.000000;0.213450
9321.000000;0.213556
9320.000000;0.213568
9319.000000;0.213368
9318.000000;0.212942
9317.000000;0.212363
9316.000000;0.211790
9315.000000;0.211363
9314.000000;0.211064
9313.000000;0.210767
9312.000000;0.210431
9311.000000;0.210125
9310.000000;0.209876
9309.000000;0.209614
9308.000000;0.209303
9307.000000;0.209003
9306.000000;0.208757
9305.000000;0.208521
9304.000000;0.208251
9303.000000;0.207969
9302.000000;0.207701
9301.000000;0.207435
9300.000000;0.207180
9299.000000;0.206978
9298.000000;0.206815
9297.000000;0.206596
9296.000000;0.206266
9295.000000;0.205883
9294.000000;0.205530
9293.000000;0.205213
9292.000000;0.204901
9291.000000;0.204609
9290.000000;0.204394
9289.000000;0.204286
9288.000000;0.204234
9287.000000;0.204129
9286.000000;0.203879
9285.000000;0.203502
9284.000000;0.203127
9283.000000;0.202835
9282.000000;0.202546
9281.000000;0.202140
9280.000000;0.201661
9279.000000;0.201289
9278.000000;0.201104
9277.000000;0.201008
9276.000000;0.200884
9275.000000;0.200716
9274.000000;0.200511
9273.000000;0.200209
9272.000000;0.199762
9271.000000;0.199236
9270.000000;0.198770
9269.000000;0.198466
9268.000000;0.198336
9267.000000;0.198297
9266.000000;0.198212
9265.000000;0.197981
9264.000000;0.197646
9263.000000;0.197350
9262.000000;0.197166
9261.000000;0.197019
9260.000000;0.196791
9259.000000;0.196457
9258.000000;0.196074
9257.000000;0.195702
9256.000000;0.195372
9255.000000;0.195077
9254.000000;0.194774
9253.000000;0.194421
9252.000000;0.194051
9251.000000;0.193743
9250.000000;0.193524
9249.000000;0.193343
9248.000000;0.193168
9247.000000;0.193050
9246.000000;0.193033
9245.000000;0.193045
9244.000000;0.192919
9243.000000;0.192547
9242.000000;0.191983
9241.000000;0.191412
9240.000000;0.191006
9239.000000;0.190797
9238.000000;0.190686
9237.000000;0.190563
9236.000000;0.190399
9235.000000;0.190191
9234.000000;0.189903
9233.000000;0.189509
9232.000000;0.189073
9231.000000;0.188694
9230.000000;0.188383
9229.000000;0.188082
9228.000000;0.187778
9227.000000;0.187526
9226.000000;0.187347
9225.000000;0.187181
9224.000000;0.186966
9223.000000;0.186704
9222.000000;0.186412
9221.000000;0.186071
9220.000000;0.185689
9219.000000;0.185349
9218.000000;0.185151
9217.000000;0.185105
9216.000000;0.185117
9215.000000;0.185066
9214.000000;0.184895
9213.000000;0.184634
9212.000000;0.184337
9211.000000;0.184023
9210.000000;0.183682
9209.000000;0.183344
9208.000000;0.183093
9207.000000;0.182969
9206.000000;0.182884
9205.000000;0.182693
9204.000000;0.182344
9203.000000;0.181915
9202.000000;0.181514
9201.000000;0.181181
9200.000000;0.180891
9199.000000;0.180623
9198.000000;0.180398
9197.000000;0.180267
9196.000000;0.180230
9195.000000;0.180180
9194.000000;0.179979
9193.000000;0.179613
9192.000000;0.179225
9191.000000;0.178945
9190.000000;0.178748
9189.000000;0.178522
9188.000000;0.178230
9187.000000;0.177945
9186.000000;0.177761
9185.000000;0.177718
9184.000000;0.177779
9183.000000;0.177820
9182.000000;0.177677
9181.000000;0.177276
9180.000000;0.176721
9179.000000;0.176190
9178.000000;0.175790
9177.000000;0.175527
9176.000000;0.175373
9175.000000;0.175278
9174.000000;0.175149
9173.000000;0.174903
9172.000000;0.174568
9171.000000;0.174256
9170.000000;0.174043
9169.000000;0.173918
9168.000000;0.173816
9167.000000;0.173669
9166.000000;0.173438
9165.000000;0.173138
9164.000000;0.172827
9163.000000;0.172528
9162.000000;0.172212
9161.000000;0.171865
9160.000000;0.171550
9159.000000;0.171338
9158.000000;0.171223
9157.000000;0.171142
9156.000000;0.171041
9155.000000;0.170873
9154.000000;0.170592
9153.000000;0.170215
9152.000000;0.169848
9151.000000;0.169593
9150.000000;0.169457
9149.000000;0.169376
9148.000000;0.169285
9147.000000;0.169118
9146.000000;0.168839
9145.000000;0.168515
9144.000000;0.168285
9143.000000;0.168179
9142.000000;0.168061
9141.000000;0.167821
9140.000000;0.167534
9139.000000;0.167327
9138.000000;0.167172
9137.000000;0.166957
9136.000000;0.166677
9135.000000;0.166428
9134.000000;0.166232
9133.000000;0.166028
9132.000000;0.165805
9131.000000;0.165607
9130.000000;0.165421
9129.000000;0.165189
9128.000000;0.164931
9127.000000;0.164749
9126.000000;0.164667
9125.000000;0.164606
9124.000000;0.164501
9123.000000;0.164371
9122.000000;0.164236
9121.000000;0.164062
9120.000000;0.163827
9119.000000;0.163545
9118.000000;0.163237
9117.000000;0.162921
9116.000000;0.162646
9115.000000;0.162446
9114.000000;0.162291
9113.000000;0.162120
9112.000000;0.161935
9111.000000;0.161760
9110.000000;0.161565
9109.000000;0.161297
9108.000000;0.160975
9107.000000;0.160653
9106.000000;0.160321
9105.000000;0.159944
9104.000000;0.159586
9103.000000;0.159367
9102.000000;0.159285
9101.000000;0.159209
9100.000000;0.159046
9099.000000;0.158837
9098.000000;0.158641
9097.000000;0.158451
9096.000000;0.158257
9095.000000;0.158094
9094.000000;0.157962
9093.000000;0.157785
9092.000000;0.157502
9091.000000;0.157160
9090.000000;0.156870
9089.000000;0.156711
9088.000000;0.156683
9087.000000;0.156732
9086.000000;0.156778
9085.000000;0.156748
9084.000000;0.156598
9083.000000;0.156304
9082.000000;0.155870
9081.000000;0.155372
9080.000000;0.154943
9079.000000;0.154672
9078.000000;0.154526
9077.000000;0.154417
9076.000000;0.154310
9075.000000;0.154207
9074.000000;0.154085
9073.000000;0.153908
9072.000000;0.153690
9071.000000;0.153458
9070.000000;0.153208
9069.000000;0.152947
9068.000000;0.152741
9067.000000;0.152634
9066.000000;0.152551
9065.000000;0.152371
9064.000000;0.152091
9063.000000;0.151824
9062.000000;0.151658
9061.000000;0.151581
9060.000000;0.151534
9059.000000;0.151453
9058.000000;0.151290
9057.000000;0.151051
9056.000000;0.150824
9055.000000;0.150676
9054.000000;0.150571
9053.000000;0.150421
