Criado como novo conjunto de dados;"e2410_daniel_v2.spp","41223.7 Secs"
cm-1;Abs
10000.000000;0.516530
9999.000000;0.515873
9998.000000;0.515216
9997.000000;0.514561
9996.000000;0.513906
9995.000000;0.513253
9994.000000;0.512600
9993.000000;0.511949
9992.000000;0.511298
9991.000000;0.510649
9990.000000;0.509998
9989.000000;0.509372
9988.000000;0.508845
9987.000000;0.508400
9986.000000;0.507935
9985.000000;0.507458
9984.000000;0.507096
9983.000000;0.506891
9982.000000;0.506699
9981.000000;0.506371
9980.000000;0.505922
9979.000000;0.505437
9978.000000;0.504900
9977.000000;0.504242
9976.000000;0.503530
9975.000000;0.502943
9974.000000;0.502546
9973.000000;0.502183
9972.000000;0.501656
9971.000000;0.500955
9970.000000;0.500257
9969.000000;0.499723
9968.000000;0.499343
9967.000000;0.498967
9966.000000;0.498471
9965.000000;0.497872
9964.000000;0.497279
9963.000000;0.496763
9962.000000;0.496312
9961.000000;0.495904
9960.000000;0.495548
9959.000000;0.495235
9958.000000;0.494900
9957.000000;0.494484
9956.000000;0.493987
9955.000000;0.493449
9954.000000;0.492893
9953.000000;0.492342
9952.000000;0.491814
9951.000000;0.491294
9950.000000;0.490745
9949.000000;0.490181
9948.000000;0.489641
9947.000000;0.489063
9946.000000;0.488309
9945.000000;0.487413
9944.000000;0.486659
9943.000000;0.486264
9942.000000;0.486036
9941.000000;0.485569
9940.000000;0.484753
9939.000000;0.483902
9938.000000;0.483343
9937.000000;0.483073
9936.000000;0.482899
9935.000000;0.482734
9934.000000;0.482600
9933.000000;0.482432
9932.000000;0.482080
9931.000000;0.481508
9930.000000;0.480836
9929.000000;0.480158
9928.000000;0.479438
9927.000000;0.478635
9926.000000;0.477865
9925.000000;0.477333
9924.000000;0.477107
9923.000000;0.477041
9922.000000;0.476916
9921.000000;0.476625
9920.000000;0.476211
9919.000000;0.475770
9918.000000;0.475374
9917.000000;0.475044
9916.000000;0.474735
9915.000000;0.474325
9914.000000;0.473693
9913.000000;0.472831
9912.000000;0.471855
9911.000000;0.470916
9910.000000;0.470135
9909.000000;0.469600
9908.000000;0.469325
9907.000000;0.469188
9906.000000;0.468983
9905.000000;0.468593
9904.000000;0.468070
9903.000000;0.467513
9902.000000;0.466949
9901.000000;0.466370
9900.000000;0.465822
9899.000000;0.465341
9898.000000;0.464884
9897.000000;0.464386
9896.000000;0.463868
9895.000000;0.463367
9894.000000;0.462818
9893.000000;0.462118
9892.000000;0.461299
9891.000000;0.460546
9890.000000;0.460011
9889.000000;0.459684
9888.000000;0.459464
9887.000000;0.459268
9886.000000;0.459038
9885.000000;0.458719
9884.000000;0.458288
9883.000000;0.457777
9882.000000;0.457240
9881.000000;0.456699
9880.000000;0.456135
9879.000000;0.455522
9878.000000;0.454858
9877.000000;0.454201
9876.000000;0.453646
9875.000000;0.453249
9874.000000;0.452958
9873.000000;0.452665
9872.000000;0.452296
9871.000000;0.451833
9870.000000;0.451273
9869.000000;0.450626
9868.000000;0.449946
9867.000000;0.449317
9866.000000;0.448787
9865.000000;0.448319
9864.000000;0.447830
9863.000000;0.447264
9862.000000;0.446650
9861.000000;0.446096
9860.000000;0.445690
9859.000000;0.445421
9858.000000;0.445217
9857.000000;0.445042
9856.000000;0.444882
9855.000000;0.444634
9854.000000;0.444136
9853.000000;0.443368
9852.000000;0.442543
9851.000000;0.441916
9850.000000;0.441564
9849.000000;0.441370
9848.000000;0.441158
9847.000000;0.440764
9846.000000;0.440095
9845.000000;0.439249
9844.000000;0.438507
9843.000000;0.438071
9842.000000;0.437854
9841.000000;0.437622
9840.000000;0.437277
9839.000000;0.436874
9838.000000;0.436431
9837.000000;0.435883
9836.000000;0.435226
9835.000000;0.434530
9834.000000;0.433810
9833.000000;0.433047
9832.000000;0.432330
9831.000000;0.431839
9830.000000;0.431607
9829.000000;0.431439
9828.000000;0.431131
9827.000000;0.430659
9826.000000;0.430105
9825.000000;0.429509
9824.000000;0.428891
9823.000000;0.428322
9822.000000;0.427864
9821.000000;0.427463
9820.000000;0.427001
9819.000000;0.426437
9818.000000;0.425873
9817.000000;0.425448
9816.000000;0.425198
9815.000000;0.424972
9814.000000;0.424544
9813.000000;0.423840
9812.000000;0.423056
9811.000000;0.422473
9810.000000;0.422183
9809.000000;0.422061
9808.000000;0.421966
9807.000000;0.421836
9806.000000;0.421585
9805.000000;0.421089
9804.000000;0.420335
9803.000000;0.419484
9802.000000;0.418704
9801.000000;0.418031
9800.000000;0.417455
9799.000000;0.417012
9798.000000;0.416719
9797.000000;0.416485
9796.000000;0.416199
9795.000000;0.415838
9794.000000;0.415422
9793.000000;0.414931
9792.000000;0.414370
9791.000000;0.413851
9790.000000;0.413484
9789.000000;0.413206
9788.000000;0.412835
9787.000000;0.412279
9786.000000;0.411628
9785.000000;0.411016
9784.000000;0.410482
9783.000000;0.409963
9782.000000;0.409377
9781.000000;0.408677
9780.000000;0.407908
9779.000000;0.407218
9778.000000;0.406787
9777.000000;0.406683
9776.000000;0.406785
9775.000000;0.406851
9774.000000;0.406668
9773.000000;0.406187
9772.000000;0.405547
9771.000000;0.404940
9770.000000;0.404449
9769.000000;0.403994
9768.000000;0.403454
9767.000000;0.402802
9766.000000;0.402106
9765.000000;0.401439
9764.000000;0.400816
9763.000000;0.400217
9762.000000;0.399630
9761.000000;0.399083
9760.000000;0.398640
9759.000000;0.398342
9758.000000;0.398136
9757.000000;0.397886
9756.000000;0.397485
9755.000000;0.396942
9754.000000;0.396340
9753.000000;0.395752
9752.000000;0.395224
9751.000000;0.394817
9750.000000;0.394582
9749.000000;0.394476
9748.000000;0.394333
9747.000000;0.393974
9746.000000;0.393364
9745.000000;0.392662
9744.000000;0.392101
9743.000000;0.391793
9742.000000;0.391655
9741.000000;0.391504
9740.000000;0.391217
9739.000000;0.390773
9738.000000;0.390194
9737.000000;0.389503
9736.000000;0.388753
9735.000000;0.388037
9734.000000;0.387425
9733.000000;0.386919
9732.000000;0.386465
9731.000000;0.386003
9730.000000;0.385501
9729.000000;0.384978
9728.000000;0.384500
9727.000000;0.384100
9726.000000;0.383714
9725.000000;0.383239
9724.000000;0.382675
9723.000000;0.382139
9722.000000;0.381730
9721.000000;0.381424
9720.000000;0.381141
9719.000000;0.380841
9718.000000;0.380502
9717.000000;0.380071
9716.000000;0.379532
9715.000000;0.378962
9714.000000;0.378450
9713.000000;0.377998
9712.000000;0.377567
9711.000000;0.377191
9710.000000;0.376930
9709.000000;0.376729
9708.000000;0.376427
9707.000000;0.375944
9706.000000;0.375369
9705.000000;0.374820
9704.000000;0.374291
9703.000000;0.373712
9702.000000;0.373082
9701.000000;0.372474
9700.000000;0.371943
9699.000000;0.371489
9698.000000;0.371094
9697.000000;0.370735
9696.000000;0.370374
9695.000000;0.369970
9694.000000;0.369507
9693.000000;0.368976
9692.000000;0.368358
9691.000000;0.367679
9690.000000;0.367057
9689.000000;0.366612
9688.000000;0.366337
9687.000000;0.366124
9686.000000;0.365893
9685.000000;0.365641
9684.000000;0.365350
9683.000000;0.364970
9682.000000;0.364507
9681.000000;0.364060
9680.000000;0.363692
9679.000000;0.363344
9678.000000;0.362926
9677.000000;0.362451
9676.000000;0.361992
9675.000000;0.361566
9674.000000;0.361138
9673.000000;0.360696
9672.000000;0.360242
9671.000000;0.359738
9670.000000;0.359167
9669.000000;0.358626
9668.000000;0.358256
9667.000000;0.358050
9666.000000;0.357842
9665.000000;0.357505
9664.000000;0.357060
9663.000000;0.356557
9662.000000;0.355960
9661.000000;0.355238
9660.000000;0.354486
9659.000000;0.353886
9658.000000;0.353534
9657.000000;0.353373
9656.000000;0.353237
9655.000000;0.352952
9654.000000;0.352447
9653.000000;0.351832
9652.000000;0.351306
9651.000000;0.350947
9650.000000;0.350614
9649.000000;0.350127
9648.000000;0.349483
9647.000000;0.348825
9646.000000;0.348250
9645.000000;0.347750
9644.000000;0.347325
9643.000000;0.347027
9642.000000;0.346863
9641.000000;0.346726
9640.000000;0.346486
9639.000000;0.346115
9638.000000;0.345681
9637.000000;0.345243
9636.000000;0.344800
9635.000000;0.344331
9634.000000;0.343872
9633.000000;0.343493
9632.000000;0.343205
9631.000000;0.342910
9630.000000;0.342496
9629.000000;0.341953
9628.000000;0.341370
9627.000000;0.340815
9626.000000;0.340294
9625.000000;0.339828
9624.000000;0.339483
9623.000000;0.339273
9622.000000;0.339106
9621.000000;0.338886
9620.000000;0.338596
9619.000000;0.338239
9618.000000;0.337741
9617.000000;0.337054
9616.000000;0.336298
9615.000000;0.335707
9614.000000;0.335407
9613.000000;0.335317
9612.000000;0.335257
9611.000000;0.335094
9610.000000;0.334772
9609.000000;0.334288
9608.000000;0.333696
9607.000000;0.333094
9606.000000;0.332558
9605.000000;0.332094
9604.000000;0.331635
9603.000000;0.331096
9602.000000;0.330452
9601.000000;0.329793
9600.000000;0.329274
9599.000000;0.328964
9598.000000;0.328759
9597.000000;0.328494
9596.000000;0.328131
9595.000000;0.327765
9594.000000;0.327456
9593.000000;0.327139
9592.000000;0.326728
9591.000000;0.326240
9590.000000;0.325778
9589.000000;0.325409
9588.000000;0.325093
9587.000000;0.324726
9586.000000;0.324233
9585.000000;0.323649
9584.000000;0.323102
9583.000000;0.322693
9582.000000;0.322378
9581.000000;0.322009
9580.000000;0.321516
9579.000000;0.321009
9578.000000;0.320665
9577.000000;0.320507
9576.000000;0.320356
9575.000000;0.320012
9574.000000;0.319453
9573.000000;0.318843
9572.000000;0.318344
9571.000000;0.317958
9570.000000;0.317578
9569.000000;0.317144
9568.000000;0.316706
9567.000000;0.316337
9566.000000;0.316039
9565.000000;0.315765
9564.000000;0.315476
9563.000000;0.315147
9562.000000;0.314750
9561.000000;0.314287
9560.000000;0.313812
9559.000000;0.313387
9558.000000;0.313023
9557.000000;0.312690
9556.000000;0.312366
9555.000000;0.312040
9554.000000;0.311673
9553.000000;0.311209
9552.000000;0.310632
9551.000000;0.309992
9550.000000;0.309368
9549.000000;0.308809
9548.000000;0.308334
9547.000000;0.307946
9546.000000;0.307657
9545.000000;0.307457
9544.000000;0.307282
9543.000000;0.307016
9542.000000;0.306586
9541.000000;0.306043
9540.000000;0.305524
9539.000000;0.305130
9538.000000;0.304855
9537.000000;0.304631
9536.000000;0.304385
9535.000000;0.304060
9534.000000;0.303633
9533.000000;0.303154
9532.000000;0.302707
9531.000000;0.302324
9530.000000;0.301956
9529.000000;0.301565
9528.000000;0.301175
9527.000000;0.300819
9526.000000;0.300464
9525.000000;0.300047
9524.000000;0.299552
9523.000000;0.299021
9522.000000;0.298508
9521.000000;0.298061
9520.000000;0.297725
9519.000000;0.297496
9518.000000;0.297298
9517.000000;0.297036
9516.000000;0.296670
9515.000000;0.296232
9514.000000;0.295793
9513.000000;0.295405
9512.000000;0.295063
9511.000000;0.294725
9510.000000;0.294383
9509.000000;0.294105
9508.000000;0.293936
9507.000000;0.293782
9506.000000;0.293474
9505.000000;0.292960
9504.000000;0.292342
9503.000000;0.291721
9502.000000;0.291101
9501.000000;0.290486
9500.000000;0.289960
9499.000000;0.289581
9498.000000;0.289286
9497.000000;0.288975
9496.000000;0.288638
9495.000000;0.288332
9494.000000;0.288074
9493.000000;0.287836
9492.000000;0.287579
9491.000000;0.287252
9490.000000;0.286816
9489.000000;0.286338
9488.000000;0.285966
9487.000000;0.285732
9486.000000;0.285473
9485.000000;0.285043
9484.000000;0.284528
9483.000000;0.284106
9482.000000;0.283797
9481.000000;0.283490
9480.000000;0.283168
9479.000000;0.282912
9478.000000;0.282705
9477.000000;0.282412
9476.000000;0.281975
9475.000000;0.281486
9474.000000;0.281033
9473.000000;0.280605
9472.000000;0.280193
9471.000000;0.279859
9470.000000;0.279631
9469.000000;0.279426
9468.000000;0.279143
9467.000000;0.278766
9466.000000;0.278323
9465.000000;0.277829
9464.000000;0.277307
9463.000000;0.276825
9462.000000;0.276434
9461.000000;0.276109
9460.000000;0.275790
9459.000000;0.275442
9458.000000;0.275060
9457.000000;0.274657
9456.000000;0.274278
9455.000000;0.273962
9454.000000;0.273686
9453.000000;0.273377
9452.000000;0.273005
9451.000000;0.272616
9450.000000;0.272266
9449.000000;0.271956
9448.000000;0.271658
9447.000000;0.271348
9446.000000;0.271019
9445.000000;0.270693
9444.000000;0.270424
9443.000000;0.270238
9442.000000;0.270065
9441.000000;0.269785
9440.000000;0.269364
9439.000000;0.268899
9438.000000;0.268485
9437.000000;0.268109
9436.000000;0.267688
9435.000000;0.267200
9434.000000;0.266709
9433.000000;0.266303
9432.000000;0.266008
9431.000000;0.265776
9430.000000;0.265521
9429.000000;0.265183
9428.000000;0.264757
9427.000000;0.264265
9426.000000;0.263739
9425.000000;0.263234
9424.000000;0.262838
9423.000000;0.262619
9422.000000;0.262560
9421.000000;0.262572
9420.000000;0.262551
9419.000000;0.262405
9418.000000;0.262088
9417.000000;0.261643
9416.000000;0.261189
9415.000000;0.260818
9414.000000;0.260511
9413.000000;0.260195
9412.000000;0.259839
9411.000000;0.259434
9410.000000;0.258954
9409.000000;0.258407
9408.000000;0.257880
9407.000000;0.257428
9406.000000;0.256981
9405.000000;0.256474
9404.000000;0.256032
9403.000000;0.255852
9402.000000;0.255887
9401.000000;0.255834
9400.000000;0.255489
9399.000000;0.254979
9398.000000;0.254547
9397.000000;0.254225
9396.000000;0.253858
9395.000000;0.253366
9394.000000;0.252842
9393.000000;0.252409
9392.000000;0.252084
9391.000000;0.251816
9390.000000;0.251566
9389.000000;0.251325
9388.000000;0.251092
9387.000000;0.250860
9386.000000;0.250596
9385.000000;0.250258
9384.000000;0.249834
9383.000000;0.249368
9382.000000;0.248922
9381.000000;0.248523
9380.000000;0.248156
9379.000000;0.247805
9378.000000;0.247478
9377.000000;0.247190
9376.000000;0.246937
9375.000000;0.246696
9374.000000;0.246450
9373.000000;0.246205
9372.000000;0.245972
9371.000000;0.245727
9370.000000;0.245426
9369.000000;0.245067
9368.000000;0.244704
9367.000000;0.244370
9366.000000;0.244035
9365.000000;0.243668
9364.000000;0.243314
9363.000000;0.243046
9362.000000;0.242871
9361.000000;0.242726
9360.000000;0.242559
9359.000000;0.242347
9358.000000;0.242067
9357.000000;0.241721
9356.000000;0.241386
9355.000000;0.241134
9354.000000;0.240904
9353.000000;0.240553
9352.000000;0.240047
9351.000000;0.239536
9350.000000;0.239173
9349.000000;0.238934
9348.000000;0.238672
9347.000000;0.238309
9346.000000;0.237902
9345.000000;0.237549
9344.000000;0.237291
9343.000000;0.237080
9342.000000;0.236825
9341.000000;0.236449
9340.000000;0.235956
9339.000000;0.235434
9338.000000;0.234977
9337.000000;0.234594
9336.000000;0.234222
9335.000000;0.233853
9334.000000;0.233584
9333.000000;0.233518
9332.000000;0.233587
9331.000000;0.233554
9330.000000;0.233236
9329.000000;0.232708
9328.000000;0.232213
9327.000000;0.231881
9326.000000;0.231626
9325.000000;0.231345
9324.000000;0.231088
9323.000000;0.230954
9322.000000;0.230897
9321.000000;0.230742
9320.000000;0.230367
9319.000000;0.229796
9318.000000;0.229136
9317.000000;0.228528
9316.000000;0.228118
9315.000000;0.227955
9314.000000;0.227926
9313.000000;0.227865
9312.000000;0.227717
9311.000000;0.227519
9310.000000;0.227274
9309.000000;0.226945
9308.000000;0.226586
9307.000000;0.226304
9306.000000;0.226089
9305.000000;0.225807
9304.000000;0.225403
9303.000000;0.224987
9302.000000;0.224658
9301.000000;0.224346
9300.000000;0.223940
9299.000000;0.223462
9298.000000;0.223036
9297.000000;0.222728
9296.000000;0.222512
9295.000000;0.222335
9294.000000;0.222149
9293.000000;0.221893
9292.000000;0.221543
9291.000000;0.221164
9290.000000;0.220843
9289.000000;0.220602
9288.000000;0.220413
9287.000000;0.220263
9286.000000;0.220148
9285.000000;0.220013
9284.000000;0.219785
9283.000000;0.219462
9282.000000;0.219113
9281.000000;0.218786
9280.000000;0.218453
9279.000000;0.218063
9278.000000;0.217614
9277.000000;0.217173
9276.000000;0.216831
9275.000000;0.216634
9274.000000;0.216528
9273.000000;0.216389
9272.000000;0.216134
9271.000000;0.215790
9270.000000;0.215456
9269.000000;0.215196
9268.000000;0.214991
9267.000000;0.214772
9266.000000;0.214486
9265.000000;0.214131
9264.000000;0.213749
9263.000000;0.213383
9262.000000;0.213037
9261.000000;0.212690
9260.000000;0.212340
9259.000000;0.212017
9258.000000;0.211748
9257.000000;0.211537
9256.000000;0.211383
9255.000000;0.211264
9254.000000;0.211117
9253.000000;0.210874
9252.000000;0.210530
9251.000000;0.210154
9250.000000;0.209795
9249.000000;0.209441
9248.000000;0.209090
9247.000000;0.208820
9246.000000;0.208728
9245.000000;0.208789
9244.000000;0.208831
9243.000000;0.208678
9242.000000;0.208306
9241.000000;0.207863
9240.000000;0.207525
9239.000000;0.207328
9238.000000;0.207148
9237.000000;0.206878
9236.000000;0.206557
9235.000000;0.206304
9234.000000;0.206115
9233.000000;0.205850
9232.000000;0.205427
9231.000000;0.204954
9230.000000;0.204598
9229.000000;0.204379
9228.000000;0.204171
9227.000000;0.203885
9226.000000;0.203567
9225.000000;0.203303
9224.000000;0.203096
9223.000000;0.202890
9222.000000;0.202646
9221.000000;0.202368
9220.000000;0.202056
9219.000000;0.201705
9218.000000;0.201352
9217.000000;0.201081
9216.000000;0.200956
9215.000000;0.200925
9214.000000;0.200839
9213.000000;0.200592
9212.000000;0.200216
9211.000000;0.199848
9210.000000;0.199585
9209.000000;0.199420
9208.000000;0.199293
9207.000000;0.199164
9206.000000;0.199018
9205.000000;0.198838
9204.000000;0.198608
9203.000000;0.198330
9202.000000;0.198022
9201.000000;0.197696
9200.000000;0.197357
9199.000000;0.197026
9198.000000;0.196756
9197.000000;0.196581
9196.000000;0.196447
9195.000000;0.196222
9194.000000;0.195814
9193.000000;0.195291
9192.000000;0.194840
9191.000000;0.194581
9190.000000;0.194449
9189.000000;0.194278
9188.000000;0.193985
9187.000000;0.193626
9186.000000;0.193316
9185.000000;0.193118
9184.000000;0.193013
9183.000000;0.192930
9182.000000;0.192796
9181.000000;0.192595
9180.000000;0.192377
9179.000000;0.192180
9178.000000;0.191963
9177.000000;0.191640
9176.000000;0.191201
9175.000000;0.190748
9174.000000;0.190403
9173.000000;0.190195
9172.000000;0.190053
9171.000000;0.189878
9170.000000;0.189630
9169.000000;0.189348
9168.000000;0.189111
9167.000000;0.188959
9166.000000;0.188860
9165.000000;0.188746
9164.000000;0.188573
9163.000000;0.188333
9162.000000;0.188035
9161.000000;0.187722
9160.000000;0.187469
9159.000000;0.187319
9158.000000;0.187220
9157.000000;0.187061
9156.000000;0.186801
9155.000000;0.186519
9154.000000;0.186327
9153.000000;0.186258
9152.000000;0.186251
9151.000000;0.186205
9150.000000;0.186051
9149.000000;0.185779
9148.000000;0.185435
9147.000000;0.185085
9146.000000;0.184783
9145.000000;0.184547
9144.000000;0.184351
9143.000000;0.184124
9142.000000;0.183800
9141.000000;0.183409
9140.000000;0.183071
9139.000000;0.182884
9138.000000;0.182804
9137.000000;0.182698
9136.000000;0.182490
9135.000000;0.182205
9134.000000;0.181903
9133.000000;0.181617
9132.000000;0.181367
9131.000000;0.181164
9130.000000;0.180985
9129.000000;0.180775
9128.000000;0.180511
9127.000000;0.180214
9126.000000;0.179898
9125.000000;0.179542
9124.000000;0.179151
9123.000000;0.178801
9122.000000;0.178590
9121.000000;0.178538
9120.000000;0.178559
9119.000000;0.178526
9118.000000;0.178365
9117.000000;0.178091
9116.000000;0.177785
9115.000000;0.177532
9114.000000;0.177373
9113.000000;0.177279
9112.000000;0.177172
9111.000000;0.176971
9110.000000;0.176658
9109.000000;0.176304
9108.000000;0.176026
9107.000000;0.175880
9106.000000;0.175828
9105.000000;0.175790
9104.000000;0.175708
9103.000000;0.175549
9102.000000;0.175308
9101.000000;0.175021
9100.000000;0.174765
9099.000000;0.174575
9098.000000;0.174408
9097.000000;0.174200
9096.000000;0.173954
9095.000000;0.173722
9094.000000;0.173528
9093.000000;0.173355
9092.000000;0.173183
9091.000000;0.173012
9090.000000;0.172852
9089.000000;0.172720
9088.000000;0.172631
9087.000000;0.172561
9086.000000;0.172433
9085.000000;0.172169
9084.000000;0.171758
9083.000000;0.171260
9082.000000;0.170765
9081.000000;0.170384
9080.000000;0.170205
9079.000000;0.170195
9078.000000;0.170191
9077.000000;0.170049
9076.000000;0.169791
9075.000000;0.169548
9074.000000;0.169378
9073.000000;0.169219
9072.000000;0.169002
9071.000000;0.168731
9070.000000;0.168443
9069.000000;0.168173
9068.000000;0.167955
9067.000000;0.167806
9066.000000;0.167691
9065.000000;0.167559
9064.000000;0.167417
9063.000000;0.167294
9062.000000;0.167165
9061.000000;0.166956
9060.000000;0.166642
9059.000000;0.166281
9058.000000;0.165947
9057.000000;0.165684
9056.000000;0.165542
9055.000000;0.165543
9054.000000;0.165605
9053.000000;0.165569
