Criado como novo conjunto de dados;"e2410_daniel_v2.spp","72725.6 Secs"
cm-1;Abs
10000.000000;1.377437
9999.000000;1.376037
9998.000000;1.374640
9997.000000;1.373249
9996.000000;1.371862
9995.000000;1.370476
9994.000000;1.369102
9993.000000;1.367719
9992.000000;1.366365
9991.000000;1.364972
9990.000000;1.363667
9989.000000;1.362072
9988.000000;1.360578
9987.000000;1.360001
9986.000000;1.360193
9985.000000;1.360756
9984.000000;1.361273
9983.000000;1.361489
9982.000000;1.361235
9981.000000;1.360656
9980.000000;1.360220
9979.000000;1.360241
9978.000000;1.360468
9977.000000;1.360361
9976.000000;1.359725
9975.000000;1.358772
9974.000000;1.357629
9973.000000;1.356159
9972.000000;1.354453
9971.000000;1.353120
9970.000000;1.352683
9969.000000;1.352862
9968.000000;1.352806
9967.000000;1.352023
9966.000000;1.350812
9965.000000;1.349806
9964.000000;1.349397
9963.000000;1.349602
9962.000000;1.350098
9961.000000;1.350252
9960.000000;1.349506
9959.000000;1.347994
9958.000000;1.346569
9957.000000;1.345943
9956.000000;1.345993
9955.000000;1.346091
9954.000000;1.345860
9953.000000;1.345339
9952.000000;1.344619
9951.000000;1.343733
9950.000000;1.342845
9949.000000;1.342199
9948.000000;1.341813
9947.000000;1.341480
9946.000000;1.341044
9945.000000;1.340455
9944.000000;1.339606
9943.000000;1.338440
9942.000000;1.337264
9941.000000;1.336641
9940.000000;1.336789
9939.000000;1.337259
9938.000000;1.337309
9937.000000;1.336575
9936.000000;1.335348
9935.000000;1.334302
9934.000000;1.333909
9933.000000;1.334003
9932.000000;1.333926
9931.000000;1.333236
9930.000000;1.332193
9929.000000;1.331388
9928.000000;1.331031
9927.000000;1.330909
9926.000000;1.330913
9925.000000;1.331167
9924.000000;1.331534
9923.000000;1.331436
9922.000000;1.330488
9921.000000;1.329105
9920.000000;1.328128
9919.000000;1.327901
9918.000000;1.327980
9917.000000;1.327762
9916.000000;1.327235
9915.000000;1.326940
9914.000000;1.327223
9913.000000;1.327714
9912.000000;1.327687
9911.000000;1.326926
9910.000000;1.325963
9909.000000;1.325303
9908.000000;1.324683
9907.000000;1.323448
9906.000000;1.321611
9905.000000;1.320094
9904.000000;1.319738
9903.000000;1.320336
9902.000000;1.320874
9901.000000;1.320645
9900.000000;1.319875
9899.000000;1.319277
9898.000000;1.319204
9897.000000;1.319387
9896.000000;1.319348
9895.000000;1.318875
9894.000000;1.318070
9893.000000;1.317105
9892.000000;1.316105
9891.000000;1.315195
9890.000000;1.314471
9889.000000;1.313886
9888.000000;1.313325
9887.000000;1.312823
9886.000000;1.312544
9885.000000;1.312478
9884.000000;1.312336
9883.000000;1.311849
9882.000000;1.311021
9881.000000;1.310024
9880.000000;1.309019
9879.000000;1.308173
9878.000000;1.307593
9877.000000;1.307139
9876.000000;1.306519
9875.000000;1.305753
9874.000000;1.305275
9873.000000;1.305360
9872.000000;1.305675
9871.000000;1.305714
9870.000000;1.305481
9869.000000;1.305355
9868.000000;1.305427
9867.000000;1.305371
9866.000000;1.304936
9865.000000;1.304145
9864.000000;1.303005
9863.000000;1.301472
9862.000000;1.299860
9861.000000;1.298831
9860.000000;1.298683
9859.000000;1.298825
9858.000000;1.298253
9857.000000;1.296592
9856.000000;1.294548
9855.000000;1.293267
9854.000000;1.293284
9853.000000;1.294081
9852.000000;1.294672
9851.000000;1.294602
9850.000000;1.294235
9849.000000;1.294061
9848.000000;1.294049
9847.000000;1.293873
9846.000000;1.293475
9845.000000;1.292992
9844.000000;1.292294
9843.000000;1.291080
9842.000000;1.289468
9841.000000;1.288063
9840.000000;1.287295
9839.000000;1.286975
9838.000000;1.286656
9837.000000;1.286166
9836.000000;1.285639
9835.000000;1.285210
9834.000000;1.284853
9833.000000;1.284423
9832.000000;1.283784
9831.000000;1.283054
9830.000000;1.282695
9829.000000;1.283102
9828.000000;1.284031
9827.000000;1.284695
9826.000000;1.284544
9825.000000;1.283771
9824.000000;1.282889
9823.000000;1.282044
9822.000000;1.280944
9821.000000;1.279350
9820.000000;1.277479
9819.000000;1.275942
9818.000000;1.275326
9817.000000;1.275727
9816.000000;1.276613
9815.000000;1.277223
9814.000000;1.277154
9813.000000;1.276474
9812.000000;1.275380
9811.000000;1.274014
9810.000000;1.272710
9809.000000;1.272064
9808.000000;1.272453
9807.000000;1.273535
9806.000000;1.274412
9805.000000;1.274322
9804.000000;1.273200
9803.000000;1.271674
9802.000000;1.270545
9801.000000;1.270136
9800.000000;1.270095
9799.000000;1.269948
9798.000000;1.269765
9797.000000;1.269986
9796.000000;1.270547
9795.000000;1.270634
9794.000000;1.269622
9793.000000;1.267968
9792.000000;1.266766
9791.000000;1.266544
9790.000000;1.266874
9789.000000;1.267040
9788.000000;1.266705
9787.000000;1.265920
9786.000000;1.264888
9785.000000;1.263866
9784.000000;1.263000
9783.000000;1.262095
9782.000000;1.260773
9781.000000;1.259044
9780.000000;1.257508
9779.000000;1.256783
9778.000000;1.256856
9777.000000;1.257213
9776.000000;1.257516
9775.000000;1.257855
9774.000000;1.258339
9773.000000;1.258731
9772.000000;1.258680
9771.000000;1.258162
9770.000000;1.257508
9769.000000;1.257016
9768.000000;1.256665
9767.000000;1.256182
9766.000000;1.255258
9765.000000;1.253744
9764.000000;1.251817
9763.000000;1.250028
9762.000000;1.249049
9761.000000;1.249159
9760.000000;1.249888
9759.000000;1.250279
9758.000000;1.249660
9757.000000;1.248242
9756.000000;1.246901
9755.000000;1.246320
9754.000000;1.246377
9753.000000;1.246406
9752.000000;1.246002
9751.000000;1.245420
9750.000000;1.245148
9749.000000;1.245281
9748.000000;1.245442
9747.000000;1.245211
9746.000000;1.244495
9745.000000;1.243538
9744.000000;1.242763
9743.000000;1.242525
9742.000000;1.242779
9741.000000;1.242980
9740.000000;1.242525
9739.000000;1.241388
9738.000000;1.240163
9737.000000;1.239438
9736.000000;1.239288
9735.000000;1.239417
9734.000000;1.239588
9733.000000;1.239718
9732.000000;1.239657
9731.000000;1.239089
9730.000000;1.237785
9729.000000;1.235965
9728.000000;1.234383
9727.000000;1.233879
9726.000000;1.234624
9725.000000;1.235807
9724.000000;1.236286
9723.000000;1.235649
9722.000000;1.234473
9721.000000;1.233522
9720.000000;1.232965
9719.000000;1.232484
9718.000000;1.231837
9717.000000;1.231069
9716.000000;1.230321
9715.000000;1.229732
9714.000000;1.229466
9713.000000;1.229607
9712.000000;1.230008
9711.000000;1.230397
9710.000000;1.230611
9709.000000;1.230599
9708.000000;1.230260
9707.000000;1.229466
9706.000000;1.228270
9705.000000;1.227011
9704.000000;1.226155
9703.000000;1.225961
9702.000000;1.226207
9701.000000;1.226266
9700.000000;1.225651
9699.000000;1.224506
9698.000000;1.223378
9697.000000;1.222554
9696.000000;1.221898
9695.000000;1.221383
9694.000000;1.221321
9693.000000;1.221784
9692.000000;1.222151
9691.000000;1.221701
9690.000000;1.220505
9689.000000;1.219291
9688.000000;1.218479
9687.000000;1.217798
9686.000000;1.216896
9685.000000;1.215906
9684.000000;1.215258
9683.000000;1.215147
9682.000000;1.215352
9681.000000;1.215413
9680.000000;1.214967
9679.000000;1.214068
9678.000000;1.213238
9677.000000;1.212990
9676.000000;1.213274
9675.000000;1.213548
9674.000000;1.213349
9673.000000;1.212601
9672.000000;1.211419
9671.000000;1.209967
9670.000000;1.208601
9669.000000;1.207766
9668.000000;1.207542
9667.000000;1.207539
9666.000000;1.207453
9665.000000;1.207440
9664.000000;1.207670
9663.000000;1.207753
9662.000000;1.207066
9661.000000;1.205618
9660.000000;1.204200
9659.000000;1.203553
9658.000000;1.203662
9657.000000;1.203990
9656.000000;1.204181
9655.000000;1.204326
9654.000000;1.204624
9653.000000;1.204988
9652.000000;1.205071
9651.000000;1.204570
9650.000000;1.203468
9649.000000;1.202023
9648.000000;1.200615
9647.000000;1.199555
9646.000000;1.198931
9645.000000;1.198554
9644.000000;1.198075
9643.000000;1.197279
9642.000000;1.196283
9641.000000;1.195376
9640.000000;1.194666
9639.000000;1.193989
9638.000000;1.193214
9637.000000;1.192524
9636.000000;1.192218
9635.000000;1.192267
9634.000000;1.192256
9633.000000;1.191893
9632.000000;1.191407
9631.000000;1.191268
9630.000000;1.191579
9629.000000;1.191982
9628.000000;1.192154
9627.000000;1.192166
9626.000000;1.192195
9625.000000;1.192095
9624.000000;1.191502
9623.000000;1.190340
9622.000000;1.189007
9621.000000;1.188013
9620.000000;1.187547
9619.000000;1.187375
9618.000000;1.187097
9617.000000;1.186563
9616.000000;1.186061
9615.000000;1.186021
9614.000000;1.186416
9613.000000;1.186648
9612.000000;1.186195
9611.000000;1.185251
9610.000000;1.184438
9609.000000;1.184023
9608.000000;1.183784
9607.000000;1.183558
9606.000000;1.183456
9605.000000;1.183416
9604.000000;1.182973
9603.000000;1.181775
9602.000000;1.180083
9601.000000;1.178533
9600.000000;1.177591
9599.000000;1.177379
9598.000000;1.177769
9597.000000;1.178342
9596.000000;1.178491
9595.000000;1.177921
9594.000000;1.177003
9593.000000;1.176366
9592.000000;1.176239
9591.000000;1.176353
9590.000000;1.176330
9589.000000;1.175918
9588.000000;1.174989
9587.000000;1.173696
9586.000000;1.172568
9585.000000;1.172128
9584.000000;1.172351
9583.000000;1.172694
9582.000000;1.172683
9581.000000;1.172274
9580.000000;1.171662
9579.000000;1.171033
9578.000000;1.170517
9577.000000;1.170120
9576.000000;1.169653
9575.000000;1.168937
9574.000000;1.168146
9573.000000;1.167676
9572.000000;1.167612
9571.000000;1.167579
9570.000000;1.167282
9569.000000;1.166886
9568.000000;1.166661
9567.000000;1.166420
9566.000000;1.165696
9565.000000;1.164459
9564.000000;1.163357
9563.000000;1.163054
9562.000000;1.163470
9561.000000;1.163817
9560.000000;1.163415
9559.000000;1.162390
9558.000000;1.161461
9557.000000;1.161122
9556.000000;1.161222
9555.000000;1.161336
9554.000000;1.161303
9553.000000;1.161223
9552.000000;1.161080
9551.000000;1.160675
9550.000000;1.159978
9549.000000;1.159283
9548.000000;1.158883
9547.000000;1.158759
9546.000000;1.158679
9545.000000;1.158485
9544.000000;1.158175
9543.000000;1.157808
9542.000000;1.157437
9541.000000;1.157046
9540.000000;1.156502
9539.000000;1.155656
9538.000000;1.154586
9537.000000;1.153611
9536.000000;1.152969
9535.000000;1.152571
9534.000000;1.152184
9533.000000;1.151728
9532.000000;1.151239
9531.000000;1.150649
9530.000000;1.149864
9529.000000;1.149057
9528.000000;1.148601
9527.000000;1.148626
9526.000000;1.148821
9525.000000;1.148809
9524.000000;1.148525
9523.000000;1.148084
9522.000000;1.147461
9521.000000;1.146566
9520.000000;1.145551
9519.000000;1.144731
9518.000000;1.144185
9517.000000;1.143729
9516.000000;1.143380
9515.000000;1.143540
9514.000000;1.144466
9513.000000;1.145702
9512.000000;1.146395
9511.000000;1.146206
9510.000000;1.145639
9509.000000;1.145361
9508.000000;1.145447
9507.000000;1.145419
9506.000000;1.144859
9505.000000;1.143778
9504.000000;1.142455
9503.000000;1.141183
9502.000000;1.140207
9501.000000;1.139677
9500.000000;1.139490
9499.000000;1.139264
9498.000000;1.138660
9497.000000;1.137736
9496.000000;1.136888
9495.000000;1.136406
9494.000000;1.136228
9493.000000;1.136163
9492.000000;1.136145
9491.000000;1.136107
9490.000000;1.135804
9489.000000;1.135075
9488.000000;1.134216
9487.000000;1.133725
9486.000000;1.133641
9485.000000;1.133452
9484.000000;1.132820
9483.000000;1.132069
9482.000000;1.131665
9481.000000;1.131494
9480.000000;1.131017
9479.000000;1.130065
9478.000000;1.129101
9477.000000;1.128652
9476.000000;1.128802
9475.000000;1.129266
9474.000000;1.129713
9473.000000;1.129893
9472.000000;1.129707
9471.000000;1.129303
9470.000000;1.128964
9469.000000;1.128747
9468.000000;1.128348
9467.000000;1.127451
9466.000000;1.126151
9465.000000;1.124917
9464.000000;1.124148
9463.000000;1.123827
9462.000000;1.123624
9461.000000;1.123289
9460.000000;1.122885
9459.000000;1.122600
9458.000000;1.122422
9457.000000;1.122147
9456.000000;1.121751
9455.000000;1.121474
9454.000000;1.121399
9453.000000;1.121214
9452.000000;1.120676
9451.000000;1.120108
9450.000000;1.120036
9449.000000;1.120413
9448.000000;1.120611
9447.000000;1.120219
9446.000000;1.119461
9445.000000;1.118728
9444.000000;1.118096
9443.000000;1.117500
9442.000000;1.117027
9441.000000;1.116728
9440.000000;1.116391
9439.000000;1.115802
9438.000000;1.115102
9437.000000;1.114625
9436.000000;1.114479
9435.000000;1.114490
9434.000000;1.114499
9433.000000;1.114497
9432.000000;1.114500
9431.000000;1.114466
9430.000000;1.114352
9429.000000;1.114107
9428.000000;1.113612
9427.000000;1.112779
9426.000000;1.111748
9425.000000;1.110871
9424.000000;1.110434
9423.000000;1.110391
9422.000000;1.110418
9421.000000;1.110254
9420.000000;1.109977
9419.000000;1.109907
9418.000000;1.110150
9417.000000;1.110348
9416.000000;1.109969
9415.000000;1.108836
9414.000000;1.107288
9413.000000;1.105861
9412.000000;1.104939
9411.000000;1.104613
9410.000000;1.104694
9409.000000;1.104828
9408.000000;1.104762
9407.000000;1.104534
9406.000000;1.104287
9405.000000;1.103979
9404.000000;1.103474
9403.000000;1.102879
9402.000000;1.102509
9401.000000;1.102472
9400.000000;1.102517
9399.000000;1.102387
9398.000000;1.102118
9397.000000;1.101889
9396.000000;1.101786
9395.000000;1.101782
9394.000000;1.101771
9393.000000;1.101555
9392.000000;1.101038
9391.000000;1.100504
9390.000000;1.100410
9389.000000;1.100759
9388.000000;1.100924
9387.000000;1.100359
9386.000000;1.099293
9385.000000;1.098469
9384.000000;1.098309
9383.000000;1.098570
9382.000000;1.098732
9381.000000;1.098493
9380.000000;1.097908
9379.000000;1.097253
9378.000000;1.096794
9377.000000;1.096595
9376.000000;1.096479
9375.000000;1.096161
9374.000000;1.095411
9373.000000;1.094177
9372.000000;1.092749
9371.000000;1.091766
9370.000000;1.091773
9369.000000;1.092627
9368.000000;1.093507
9367.000000;1.093656
9366.000000;1.093021
9365.000000;1.092088
9364.000000;1.091316
9363.000000;1.090875
9362.000000;1.090728
9361.000000;1.090690
9360.000000;1.090537
9359.000000;1.090211
9358.000000;1.089857
9357.000000;1.089528
9356.000000;1.089063
9355.000000;1.088400
9354.000000;1.087805
9353.000000;1.087547
9352.000000;1.087496
9351.000000;1.087294
9350.000000;1.086816
9349.000000;1.086206
9348.000000;1.085565
9347.000000;1.084924
9346.000000;1.084453
9345.000000;1.084345
9344.000000;1.084429
9343.000000;1.084205
9342.000000;1.083425
9341.000000;1.082427
9340.000000;1.081730
9339.000000;1.081428
9338.000000;1.081144
9337.000000;1.080507
9336.000000;1.079566
9335.000000;1.078709
9334.000000;1.078268
9333.000000;1.078228
9332.000000;1.078350
9331.000000;1.078505
9330.000000;1.078798
9329.000000;1.079284
9328.000000;1.079712
9327.000000;1.079684
9326.000000;1.079072
9325.000000;1.078162
9324.000000;1.077349
9323.000000;1.076780
9322.000000;1.076348
9321.000000;1.075977
9320.000000;1.075790
9319.000000;1.075919
9318.000000;1.076179
9317.000000;1.076111
9316.000000;1.075466
9315.000000;1.074539
9314.000000;1.073831
9313.000000;1.073449
9312.000000;1.073076
9311.000000;1.072534
9310.000000;1.072090
9309.000000;1.072079
9308.000000;1.072418
9307.000000;1.072672
9306.000000;1.072492
9305.000000;1.071854
9304.000000;1.070969
9303.000000;1.070110
9302.000000;1.069465
9301.000000;1.069054
9300.000000;1.068808
9299.000000;1.068752
9298.000000;1.068969
9297.000000;1.069337
9296.000000;1.069479
9295.000000;1.069129
9294.000000;1.068427
9293.000000;1.067709
9292.000000;1.067111
9291.000000;1.066568
9290.000000;1.066091
9289.000000;1.065823
9288.000000;1.065821
9287.000000;1.065955
9286.000000;1.066061
9285.000000;1.066118
9284.000000;1.066226
9283.000000;1.066446
9282.000000;1.066637
9281.000000;1.066494
9280.000000;1.065844
9279.000000;1.064899
9278.000000;1.064083
9277.000000;1.063592
9276.000000;1.063269
9275.000000;1.062962
9274.000000;1.062767
9273.000000;1.062767
9272.000000;1.062749
9271.000000;1.062414
9270.000000;1.061790
9269.000000;1.061200
9268.000000;1.060864
9267.000000;1.060704
9266.000000;1.060543
9265.000000;1.060292
9264.000000;1.059933
9263.000000;1.059475
9262.000000;1.059000
9261.000000;1.058662
9260.000000;1.058572
9259.000000;1.058680
9258.000000;1.058775
9257.000000;1.058595
9256.000000;1.058017
9255.000000;1.057185
9254.000000;1.056406
9253.000000;1.055890
9252.000000;1.055613
9251.000000;1.055451
9250.000000;1.055357
9249.000000;1.055376
9248.000000;1.055506
9247.000000;1.055612
9246.000000;1.055473
9245.000000;1.054937
9244.000000;1.054074
9243.000000;1.053149
9242.000000;1.052392
9241.000000;1.051846
9240.000000;1.051529
9239.000000;1.051620
9238.000000;1.052256
9237.000000;1.053170
9236.000000;1.053773
9235.000000;1.053679
9234.000000;1.052991
9233.000000;1.052047
9232.000000;1.051114
9231.000000;1.050362
9230.000000;1.049866
9229.000000;1.049470
9228.000000;1.048883
9227.000000;1.048050
9226.000000;1.047284
9225.000000;1.046937
9224.000000;1.047076
9223.000000;1.047553
9222.000000;1.048132
9221.000000;1.048467
9220.000000;1.048245
9219.000000;1.047574
9218.000000;1.046993
9217.000000;1.046885
9216.000000;1.047075
9215.000000;1.047202
9214.000000;1.047252
9213.000000;1.047406
9212.000000;1.047543
9211.000000;1.047279
9210.000000;1.046477
9209.000000;1.045425
9208.000000;1.044494
9207.000000;1.043824
9206.000000;1.043341
9205.000000;1.042892
9204.000000;1.042373
9203.000000;1.041890
9202.000000;1.041731
9201.000000;1.042039
9200.000000;1.042534
9199.000000;1.042722
9198.000000;1.042326
9197.000000;1.041422
9196.000000;1.040277
9195.000000;1.039249
9194.000000;1.038694
9193.000000;1.038708
9192.000000;1.038984
9191.000000;1.039156
9190.000000;1.039222
9189.000000;1.039439
9188.000000;1.039836
9187.000000;1.040100
9186.000000;1.039945
9185.000000;1.039367
9184.000000;1.038501
9183.000000;1.037459
9182.000000;1.036393
9181.000000;1.035558
9180.000000;1.035192
9179.000000;1.035369
9178.000000;1.035930
9177.000000;1.036485
9176.000000;1.036597
9175.000000;1.036136
9174.000000;1.035421
9173.000000;1.034852
9172.000000;1.034445
9171.000000;1.033923
9170.000000;1.033233
9169.000000;1.032707
9168.000000;1.032645
9167.000000;1.032944
9166.000000;1.033272
9165.000000;1.033460
9164.000000;1.033585
9163.000000;1.033710
9162.000000;1.033703
9161.000000;1.033374
9160.000000;1.032763
9159.000000;1.032235
9158.000000;1.032158
9157.000000;1.032470
9156.000000;1.032644
9155.000000;1.032179
9154.000000;1.031065
9153.000000;1.029713
9152.000000;1.028567
9151.000000;1.027918
9150.000000;1.027922
9149.000000;1.028523
9148.000000;1.029339
9147.000000;1.029828
9146.000000;1.029670
9145.000000;1.028938
9144.000000;1.027940
9143.000000;1.027033
9142.000000;1.026517
9141.000000;1.026529
9140.000000;1.026931
9139.000000;1.027400
9138.000000;1.027684
9137.000000;1.027718
9136.000000;1.027529
9135.000000;1.027149
9134.000000;1.026654
9133.000000;1.026162
9132.000000;1.025704
9131.000000;1.025154
9130.000000;1.024336
9129.000000;1.023229
9128.000000;1.022071
9127.000000;1.021258
9126.000000;1.021078
9125.000000;1.021482
9124.000000;1.022118
9123.000000;1.022605
9122.000000;1.022740
9121.000000;1.022498
9120.000000;1.021993
9119.000000;1.021477
9118.000000;1.021198
9117.000000;1.021137
9116.000000;1.021007
9115.000000;1.020655
9114.000000;1.020311
9113.000000;1.020267
9112.000000;1.020440
9111.000000;1.020485
9110.000000;1.020246
9109.000000;1.019860
9108.000000;1.019435
9107.000000;1.018888
9106.000000;1.018159
9105.000000;1.017395
9104.000000;1.016859
9103.000000;1.016769
9102.000000;1.017218
9101.000000;1.018059
9100.000000;1.018833
9099.000000;1.019061
9098.000000;1.018687
9097.000000;1.018126
9096.000000;1.017753
9095.000000;1.017492
9094.000000;1.017018
9093.000000;1.016251
9092.000000;1.015492
9091.000000;1.015081
9090.000000;1.015057
9089.000000;1.015183
9088.000000;1.015243
9087.000000;1.015215
9086.000000;1.015148
9085.000000;1.014943
9084.000000;1.014425
9083.000000;1.013659
9082.000000;1.013033
9081.000000;1.012908
9080.000000;1.013237
9079.000000;1.013685
9078.000000;1.014034
9077.000000;1.014262
9076.000000;1.014256
9075.000000;1.013770
9074.000000;1.012815
9073.000000;1.011899
9072.000000;1.011588
9071.000000;1.011863
9070.000000;1.012099
9069.000000;1.011745
9068.000000;1.010933
9067.000000;1.010286
9066.000000;1.010215
9065.000000;1.010506
9064.000000;1.010627
9063.000000;1.010316
9062.000000;1.009771
9061.000000;1.009320
9060.000000;1.009070
9059.000000;1.008939
9058.000000;1.008865
9057.000000;1.008828
9056.000000;1.008729
9055.000000;1.008425
9054.000000;1.007955
9053.000000;1.007618
