Criado como novo conjunto de dados;"e2410_daniel_v2.spp","65345.2 Secs"
cm-1;Abs
10000.000000;1.232392
9999.000000;1.231193
9998.000000;1.229973
9997.000000;1.228807
9996.000000;1.227422
9995.000000;1.226072
9994.000000;1.225497
9993.000000;1.225723
9992.000000;1.226151
9991.000000;1.226203
9990.000000;1.225746
9989.000000;1.224899
9988.000000;1.223927
9987.000000;1.223193
9986.000000;1.222753
9985.000000;1.222044
9984.000000;1.220474
9983.000000;1.218354
9982.000000;1.216761
9981.000000;1.216445
9980.000000;1.217228
9979.000000;1.218411
9978.000000;1.219320
9977.000000;1.219456
9976.000000;1.218678
9975.000000;1.217409
9974.000000;1.216299
9973.000000;1.215559
9972.000000;1.214971
9971.000000;1.214525
9970.000000;1.214554
9969.000000;1.215081
9968.000000;1.215535
9967.000000;1.215344
9966.000000;1.214483
9965.000000;1.213274
9964.000000;1.212022
9963.000000;1.211029
9962.000000;1.210560
9961.000000;1.210510
9960.000000;1.210402
9959.000000;1.209941
9958.000000;1.209325
9957.000000;1.208827
9956.000000;1.208381
9955.000000;1.207829
9954.000000;1.207290
9953.000000;1.206988
9952.000000;1.206852
9951.000000;1.206519
9950.000000;1.205653
9949.000000;1.204187
9948.000000;1.202386
9947.000000;1.200778
9946.000000;1.199823
9945.000000;1.199523
9944.000000;1.199472
9943.000000;1.199372
9942.000000;1.199348
9941.000000;1.199665
9940.000000;1.200317
9939.000000;1.200987
9938.000000;1.201277
9937.000000;1.200934
9936.000000;1.200033
9935.000000;1.198987
9934.000000;1.198210
9933.000000;1.197706
9932.000000;1.197140
9931.000000;1.196315
9930.000000;1.195348
9929.000000;1.194362
9928.000000;1.193296
9927.000000;1.192150
9926.000000;1.191187
9925.000000;1.190732
9924.000000;1.190869
9923.000000;1.191406
9922.000000;1.191967
9921.000000;1.192106
9920.000000;1.191568
9919.000000;1.190580
9918.000000;1.189673
9917.000000;1.189090
9916.000000;1.188569
9915.000000;1.187799
9914.000000;1.186907
9913.000000;1.186322
9912.000000;1.186283
9911.000000;1.186583
9910.000000;1.186733
9909.000000;1.186307
9908.000000;1.185246
9907.000000;1.183914
9906.000000;1.182765
9905.000000;1.181949
9904.000000;1.181323
9903.000000;1.180784
9902.000000;1.180360
9901.000000;1.179985
9900.000000;1.179445
9899.000000;1.178672
9898.000000;1.177870
9897.000000;1.177168
9896.000000;1.176296
9895.000000;1.174875
9894.000000;1.173030
9893.000000;1.171473
9892.000000;1.170878
9891.000000;1.171221
9890.000000;1.171807
9889.000000;1.171964
9888.000000;1.171660
9887.000000;1.171363
9886.000000;1.171386
9885.000000;1.171547
9884.000000;1.171448
9883.000000;1.170876
9882.000000;1.169852
9881.000000;1.168552
9880.000000;1.167358
9879.000000;1.166808
9878.000000;1.167187
9877.000000;1.168216
9876.000000;1.169274
9875.000000;1.169875
9874.000000;1.169835
9873.000000;1.169179
9872.000000;1.168146
9871.000000;1.167152
9870.000000;1.166474
9869.000000;1.165995
9868.000000;1.165455
9867.000000;1.164848
9866.000000;1.164306
9865.000000;1.163741
9864.000000;1.162946
9863.000000;1.162020
9862.000000;1.161320
9861.000000;1.160924
9860.000000;1.160441
9859.000000;1.159503
9858.000000;1.158242
9857.000000;1.157156
9856.000000;1.156588
9855.000000;1.156410
9854.000000;1.156160
9853.000000;1.155504
9852.000000;1.154603
9851.000000;1.153939
9850.000000;1.153691
9849.000000;1.153469
9848.000000;1.152851
9847.000000;1.152026
9846.000000;1.151596
9845.000000;1.151817
9844.000000;1.152338
9843.000000;1.152630
9842.000000;1.152416
9841.000000;1.151696
9840.000000;1.150710
9839.000000;1.149913
9838.000000;1.149672
9837.000000;1.149828
9836.000000;1.149769
9835.000000;1.149060
9834.000000;1.147863
9833.000000;1.146680
9832.000000;1.145876
9831.000000;1.145510
9830.000000;1.145421
9829.000000;1.145326
9828.000000;1.144967
9827.000000;1.144272
9826.000000;1.143374
9825.000000;1.142473
9824.000000;1.141728
9823.000000;1.141205
9822.000000;1.140856
9821.000000;1.140585
9820.000000;1.140401
9819.000000;1.140384
9818.000000;1.140366
9817.000000;1.139867
9816.000000;1.138631
9815.000000;1.137104
9814.000000;1.136047
9813.000000;1.135701
9812.000000;1.135662
9811.000000;1.135527
9810.000000;1.135317
9809.000000;1.135194
9808.000000;1.135075
9807.000000;1.134753
9806.000000;1.134214
9805.000000;1.133625
9804.000000;1.133088
9803.000000;1.132548
9802.000000;1.131902
9801.000000;1.131134
9800.000000;1.130409
9799.000000;1.130012
9798.000000;1.130088
9797.000000;1.130393
9796.000000;1.130400
9795.000000;1.129710
9794.000000;1.128328
9793.000000;1.126618
9792.000000;1.125109
9791.000000;1.124283
9790.000000;1.124294
9789.000000;1.124801
9788.000000;1.125176
9787.000000;1.125000
9786.000000;1.124341
9785.000000;1.123570
9784.000000;1.122954
9783.000000;1.122420
9782.000000;1.121682
9781.000000;1.120616
9780.000000;1.119535
9779.000000;1.118967
9778.000000;1.119115
9777.000000;1.119619
9776.000000;1.119913
9775.000000;1.119683
9774.000000;1.118925
9773.000000;1.117798
9772.000000;1.116629
9771.000000;1.115864
9770.000000;1.115719
9769.000000;1.115936
9768.000000;1.116077
9767.000000;1.115972
9766.000000;1.115702
9765.000000;1.115317
9764.000000;1.114806
9763.000000;1.114229
9762.000000;1.113601
9761.000000;1.112750
9760.000000;1.111598
9759.000000;1.110492
9758.000000;1.109916
9757.000000;1.109859
9756.000000;1.109773
9755.000000;1.109220
9754.000000;1.108272
9753.000000;1.107245
9752.000000;1.106392
9751.000000;1.105940
9750.000000;1.106113
9749.000000;1.106836
9748.000000;1.107579
9747.000000;1.107721
9746.000000;1.107067
9745.000000;1.105926
9744.000000;1.104761
9743.000000;1.103855
9742.000000;1.103241
9741.000000;1.102798
9740.000000;1.102382
9739.000000;1.101880
9738.000000;1.101224
9737.000000;1.100464
9736.000000;1.099823
9735.000000;1.099506
9734.000000;1.099384
9733.000000;1.099034
9732.000000;1.098228
9731.000000;1.097221
9730.000000;1.096396
9729.000000;1.095808
9728.000000;1.095287
9727.000000;1.094829
9726.000000;1.094593
9725.000000;1.094581
9724.000000;1.094644
9723.000000;1.094761
9722.000000;1.095035
9721.000000;1.095324
9720.000000;1.095174
9719.000000;1.094247
9718.000000;1.092739
9717.000000;1.091275
9716.000000;1.090412
9715.000000;1.090206
9714.000000;1.090192
9713.000000;1.089867
9712.000000;1.089270
9711.000000;1.088956
9710.000000;1.089269
9709.000000;1.089820
9708.000000;1.089897
9707.000000;1.089268
9706.000000;1.088311
9705.000000;1.087430
9704.000000;1.086657
9703.000000;1.085840
9702.000000;1.084962
9701.000000;1.084180
9700.000000;1.083667
9699.000000;1.083436
9698.000000;1.083223
9697.000000;1.082676
9696.000000;1.081797
9695.000000;1.081040
9694.000000;1.080775
9693.000000;1.080805
9692.000000;1.080670
9691.000000;1.080270
9690.000000;1.079852
9689.000000;1.079516
9688.000000;1.079152
9687.000000;1.078842
9686.000000;1.078820
9685.000000;1.078925
9684.000000;1.078507
9683.000000;1.077139
9682.000000;1.075205
9681.000000;1.073596
9680.000000;1.072985
9679.000000;1.073416
9678.000000;1.074324
9677.000000;1.074850
9676.000000;1.074463
9675.000000;1.073421
9674.000000;1.072426
9673.000000;1.071757
9672.000000;1.071070
9671.000000;1.070127
9670.000000;1.069302
9669.000000;1.069045
9668.000000;1.069138
9667.000000;1.068918
9666.000000;1.068154
9665.000000;1.067296
9664.000000;1.066846
9663.000000;1.066807
9662.000000;1.066841
9661.000000;1.066703
9660.000000;1.066373
9659.000000;1.065927
9658.000000;1.065465
9657.000000;1.065091
9656.000000;1.064830
9655.000000;1.064577
9654.000000;1.064216
9653.000000;1.063797
9652.000000;1.063476
9651.000000;1.063265
9650.000000;1.062946
9649.000000;1.062330
9648.000000;1.061545
9647.000000;1.060912
9646.000000;1.060545
9645.000000;1.060223
9644.000000;1.059746
9643.000000;1.059270
9642.000000;1.059128
9641.000000;1.059320
9640.000000;1.059345
9639.000000;1.058631
9638.000000;1.057108
9637.000000;1.055336
9636.000000;1.054037
9635.000000;1.053517
9634.000000;1.053510
9633.000000;1.053574
9632.000000;1.053521
9631.000000;1.053424
9630.000000;1.053290
9629.000000;1.052957
9628.000000;1.052339
9627.000000;1.051572
9626.000000;1.050867
9625.000000;1.050347
9624.000000;1.050086
9623.000000;1.050083
9622.000000;1.050088
9621.000000;1.049667
9620.000000;1.048681
9619.000000;1.047604
9618.000000;1.047107
9617.000000;1.047321
9616.000000;1.047690
9615.000000;1.047562
9614.000000;1.046795
9613.000000;1.045754
9612.000000;1.044852
9611.000000;1.044236
9610.000000;1.043852
9609.000000;1.043658
9608.000000;1.043631
9607.000000;1.043630
9606.000000;1.043404
9605.000000;1.042856
9604.000000;1.042188
9603.000000;1.041654
9602.000000;1.041286
9601.000000;1.041024
9600.000000;1.040974
9599.000000;1.041199
9598.000000;1.041330
9597.000000;1.040784
9596.000000;1.039520
9595.000000;1.038217
9594.000000;1.037543
9593.000000;1.037480
9592.000000;1.037538
9591.000000;1.037366
9590.000000;1.036914
9589.000000;1.036210
9588.000000;1.035277
9587.000000;1.034215
9586.000000;1.033144
9585.000000;1.032154
9584.000000;1.031375
9583.000000;1.030971
9582.000000;1.030914
9581.000000;1.030929
9580.000000;1.030778
9579.000000;1.030463
9578.000000;1.030067
9577.000000;1.029620
9576.000000;1.029239
9575.000000;1.029091
9574.000000;1.029019
9573.000000;1.028490
9572.000000;1.027257
9571.000000;1.025889
9570.000000;1.025258
9569.000000;1.025599
9568.000000;1.026356
9567.000000;1.026838
9566.000000;1.026768
9565.000000;1.026265
9564.000000;1.025630
9563.000000;1.025164
9562.000000;1.024911
9561.000000;1.024552
9560.000000;1.023759
9559.000000;1.022667
9558.000000;1.021804
9557.000000;1.021556
9556.000000;1.021847
9555.000000;1.022272
9554.000000;1.022358
9553.000000;1.021774
9552.000000;1.020556
9551.000000;1.019162
9550.000000;1.018175
9549.000000;1.017903
9548.000000;1.018298
9547.000000;1.019087
9546.000000;1.019847
9545.000000;1.020135
9544.000000;1.019815
9543.000000;1.019177
9542.000000;1.018558
9541.000000;1.017936
9540.000000;1.017108
9539.000000;1.016119
9538.000000;1.015208
9537.000000;1.014421
9536.000000;1.013601
9535.000000;1.012773
9534.000000;1.012200
9533.000000;1.011989
9532.000000;1.011877
9531.000000;1.011523
9530.000000;1.010870
9529.000000;1.010134
9528.000000;1.009571
9527.000000;1.009303
9526.000000;1.009258
9525.000000;1.009217
9524.000000;1.008977
9523.000000;1.008498
9522.000000;1.007863
9521.000000;1.007154
9520.000000;1.006438
9519.000000;1.005819
9518.000000;1.005382
9517.000000;1.005126
9516.000000;1.005006
9515.000000;1.004984
9514.000000;1.004996
9513.000000;1.004979
9512.000000;1.004944
9511.000000;1.004899
9510.000000;1.004679
9509.000000;1.004078
9508.000000;1.003248
9507.000000;1.002637
9506.000000;1.002372
9505.000000;1.001996
9504.000000;1.001119
9503.000000;1.000050
9502.000000;0.999412
9501.000000;0.999335
9500.000000;0.999404
9499.000000;0.999325
9498.000000;0.999196
9497.000000;0.999107
9496.000000;0.998883
9495.000000;0.998374
9494.000000;0.997721
9493.000000;0.997213
9492.000000;0.997017
9491.000000;0.997069
9490.000000;0.997078
9489.000000;0.996651
9488.000000;0.995647
9487.000000;0.994437
9486.000000;0.993639
9485.000000;0.993563
9484.000000;0.994014
9483.000000;0.994547
9482.000000;0.994698
9481.000000;0.994097
9480.000000;0.992721
9479.000000;0.991108
9478.000000;0.990044
9477.000000;0.989837
9476.000000;0.990044
9475.000000;0.989967
9474.000000;0.989314
9473.000000;0.988337
9472.000000;0.987474
9471.000000;0.986985
9470.000000;0.986839
9469.000000;0.986860
9468.000000;0.986944
9467.000000;0.987100
9466.000000;0.987273
9465.000000;0.987244
9464.000000;0.986830
9463.000000;0.986109
9462.000000;0.985314
9461.000000;0.984600
9460.000000;0.984041
9459.000000;0.983755
9458.000000;0.983812
9457.000000;0.984033
9456.000000;0.984076
9455.000000;0.983734
9454.000000;0.983040
9453.000000;0.982114
9452.000000;0.981074
9451.000000;0.980093
9450.000000;0.979407
9449.000000;0.979195
9448.000000;0.979462
9447.000000;0.979983
9446.000000;0.980332
9445.000000;0.980122
9444.000000;0.979345
9443.000000;0.978422
9442.000000;0.977799
9441.000000;0.977591
9440.000000;0.977657
9439.000000;0.977827
9438.000000;0.977912
9437.000000;0.977668
9436.000000;0.976997
9435.000000;0.976116
9434.000000;0.975326
9433.000000;0.974697
9432.000000;0.974128
9431.000000;0.973616
9430.000000;0.973239
9429.000000;0.972973
9428.000000;0.972703
9427.000000;0.972374
9426.000000;0.971974
9425.000000;0.971436
9424.000000;0.970751
9423.000000;0.970063
9422.000000;0.969527
9421.000000;0.969170
9420.000000;0.969046
9419.000000;0.969325
9418.000000;0.969959
9417.000000;0.970435
9416.000000;0.970209
9415.000000;0.969346
9414.000000;0.968411
9413.000000;0.967778
9412.000000;0.967341
9411.000000;0.966879
9410.000000;0.966390
9409.000000;0.965974
9408.000000;0.965649
9407.000000;0.965367
9406.000000;0.965071
9405.000000;0.964715
9404.000000;0.964370
9403.000000;0.964244
9402.000000;0.964400
9401.000000;0.964514
9400.000000;0.964190
9399.000000;0.963471
9398.000000;0.962754
9397.000000;0.962209
9396.000000;0.961622
9395.000000;0.960896
9394.000000;0.960347
9393.000000;0.960296
9392.000000;0.960560
9391.000000;0.960571
9390.000000;0.959954
9389.000000;0.958859
9388.000000;0.957778
9387.000000;0.957150
9386.000000;0.957068
9385.000000;0.957275
9384.000000;0.957381
9383.000000;0.957137
9382.000000;0.956568
9381.000000;0.955941
9380.000000;0.955619
9379.000000;0.955787
9378.000000;0.956242
9377.000000;0.956526
9376.000000;0.956379
9375.000000;0.955948
9374.000000;0.955471
9373.000000;0.954935
9372.000000;0.954210
9371.000000;0.953345
9370.000000;0.952545
9369.000000;0.951922
9368.000000;0.951450
9367.000000;0.951079
9366.000000;0.950728
9365.000000;0.950292
9364.000000;0.949850
9363.000000;0.949706
9362.000000;0.950006
9361.000000;0.950434
9360.000000;0.950543
9359.000000;0.950267
9358.000000;0.949814
9357.000000;0.949216
9356.000000;0.948379
9355.000000;0.947515
9354.000000;0.947082
9353.000000;0.947191
9352.000000;0.947393
9351.000000;0.947230
9350.000000;0.946754
9349.000000;0.946312
9348.000000;0.946033
9347.000000;0.945731
9346.000000;0.945191
9345.000000;0.944408
9344.000000;0.943581
9343.000000;0.942957
9342.000000;0.942655
9341.000000;0.942614
9340.000000;0.942711
9339.000000;0.942851
9338.000000;0.942894
9337.000000;0.942644
9336.000000;0.942050
9335.000000;0.941338
9334.000000;0.940756
9333.000000;0.940266
9332.000000;0.939688
9331.000000;0.939055
9330.000000;0.938600
9329.000000;0.938402
9328.000000;0.938316
9327.000000;0.938241
9326.000000;0.938234
9325.000000;0.938293
9324.000000;0.938264
9323.000000;0.938037
9322.000000;0.937689
9321.000000;0.937353
9320.000000;0.937078
9319.000000;0.936898
9318.000000;0.936875
9317.000000;0.936974
9316.000000;0.936981
9315.000000;0.936644
9314.000000;0.935898
9313.000000;0.934944
9312.000000;0.934116
9311.000000;0.933609
9310.000000;0.933329
9309.000000;0.933084
9308.000000;0.932895
9307.000000;0.932939
9306.000000;0.933133
9305.000000;0.933033
9304.000000;0.932376
9303.000000;0.931495
9302.000000;0.930916
9301.000000;0.930716
9300.000000;0.930583
9299.000000;0.930365
9298.000000;0.930194
9297.000000;0.930122
9296.000000;0.930019
9295.000000;0.929854
9294.000000;0.929722
9293.000000;0.929519
9292.000000;0.928936
9291.000000;0.927945
9290.000000;0.927003
9289.000000;0.926591
9288.000000;0.926730
9287.000000;0.927058
9286.000000;0.927215
9285.000000;0.927032
9284.000000;0.926491
9283.000000;0.925707
9282.000000;0.924888
9281.000000;0.924194
9280.000000;0.923663
9279.000000;0.923293
9278.000000;0.923118
9277.000000;0.923146
9276.000000;0.923275
9275.000000;0.923302
9274.000000;0.923015
9273.000000;0.922341
9272.000000;0.921504
9271.000000;0.920961
9270.000000;0.920988
9269.000000;0.921338
9268.000000;0.921439
9267.000000;0.920976
9266.000000;0.920164
9265.000000;0.919457
9264.000000;0.919140
9263.000000;0.919221
9262.000000;0.919534
9261.000000;0.919852
9260.000000;0.919960
9259.000000;0.919715
9258.000000;0.919066
9257.000000;0.918107
9256.000000;0.917139
9255.000000;0.916553
9254.000000;0.916489
9253.000000;0.916673
9252.000000;0.916713
9251.000000;0.916517
9250.000000;0.916280
9249.000000;0.916153
9248.000000;0.916104
9247.000000;0.916038
9246.000000;0.915871
9245.000000;0.915499
9244.000000;0.914859
9243.000000;0.914032
9242.000000;0.913175
9241.000000;0.912385
9240.000000;0.911776
9239.000000;0.911556
9238.000000;0.911805
9237.000000;0.912187
9236.000000;0.912174
9235.000000;0.911628
9234.000000;0.910966
9233.000000;0.910660
9232.000000;0.910717
9231.000000;0.910763
9230.000000;0.910516
9229.000000;0.910076
9228.000000;0.909781
9227.000000;0.909808
9226.000000;0.909931
9225.000000;0.909723
9224.000000;0.909025
9223.000000;0.908152
9222.000000;0.907569
9221.000000;0.907462
9220.000000;0.907664
9219.000000;0.907859
9218.000000;0.907742
9217.000000;0.907184
9216.000000;0.906433
9215.000000;0.906033
9214.000000;0.906295
9213.000000;0.906887
9212.000000;0.907157
9211.000000;0.906803
9210.000000;0.906057
9209.000000;0.905315
9208.000000;0.904841
9207.000000;0.904767
9206.000000;0.905052
9205.000000;0.905405
9204.000000;0.905444
9203.000000;0.905014
9202.000000;0.904216
9201.000000;0.903188
9200.000000;0.902086
9199.000000;0.901203
9198.000000;0.900813
9197.000000;0.900831
9196.000000;0.900870
9195.000000;0.900693
9194.000000;0.900408
9193.000000;0.900198
9192.000000;0.900086
9191.000000;0.900034
9190.000000;0.900041
9189.000000;0.900028
9188.000000;0.899805
9187.000000;0.899269
9186.000000;0.898545
9185.000000;0.897853
9184.000000;0.897363
9183.000000;0.897178
9182.000000;0.897313
9181.000000;0.897607
9180.000000;0.897797
9179.000000;0.897706
9178.000000;0.897299
9177.000000;0.896600
9176.000000;0.895753
9175.000000;0.895107
9174.000000;0.894993
9173.000000;0.895329
9172.000000;0.895630
9171.000000;0.895513
9170.000000;0.895043
9169.000000;0.894544
9168.000000;0.894224
9167.000000;0.894079
9166.000000;0.893989
9165.000000;0.893799
9164.000000;0.893432
9163.000000;0.893003
9162.000000;0.892740
9161.000000;0.892695
9160.000000;0.892642
9159.000000;0.892326
9158.000000;0.891746
9157.000000;0.891134
9156.000000;0.890726
9155.000000;0.890609
9154.000000;0.890705
9153.000000;0.890841
9152.000000;0.890854
9151.000000;0.890682
9150.000000;0.890366
9149.000000;0.890008
9148.000000;0.889718
9147.000000;0.889544
9146.000000;0.889414
9145.000000;0.889206
9144.000000;0.888913
9143.000000;0.888640
9142.000000;0.888397
9141.000000;0.888050
9140.000000;0.887576
9139.000000;0.887191
9138.000000;0.887055
9137.000000;0.886991
9136.000000;0.886725
9135.000000;0.886300
9134.000000;0.886011
9133.000000;0.886005
9132.000000;0.886158
9131.000000;0.886259
9130.000000;0.886123
9129.000000;0.885616
9128.000000;0.884839
9127.000000;0.884195
9126.000000;0.883968
9125.000000;0.883903
9124.000000;0.883512
9123.000000;0.882769
9122.000000;0.882128
9121.000000;0.881844
9120.000000;0.881709
9119.000000;0.881554
9118.000000;0.881567
9117.000000;0.881873
9116.000000;0.882167
9115.000000;0.882098
9114.000000;0.881796
9113.000000;0.881662
9112.000000;0.881791
9111.000000;0.881908
9110.000000;0.881803
9109.000000;0.881538
9108.000000;0.881220
9107.000000;0.880832
9106.000000;0.880336
9105.000000;0.879790
9104.000000;0.879297
9103.000000;0.878949
9102.000000;0.878809
9101.000000;0.878848
9100.000000;0.878855
9099.000000;0.878535
9098.000000;0.877788
9097.000000;0.876866
9096.000000;0.876193
9095.000000;0.876002
9094.000000;0.876143
9093.000000;0.876269
9092.000000;0.876205
9091.000000;0.876075
9090.000000;0.876074
9089.000000;0.876181
9088.000000;0.876201
9087.000000;0.876018
9086.000000;0.875730
9085.000000;0.875545
9084.000000;0.875587
9083.000000;0.875778
9082.000000;0.875848
9081.000000;0.875535
9080.000000;0.874864
9079.000000;0.874161
9078.000000;0.873729
9077.000000;0.873558
9076.000000;0.873431
9075.000000;0.873228
9074.000000;0.872973
9073.000000;0.872684
9072.000000;0.872365
9071.000000;0.872106
9070.000000;0.872013
9069.000000;0.872051
9068.000000;0.872079
9067.000000;0.872040
9066.000000;0.871956
9065.000000;0.871788
9064.000000;0.871475
9063.000000;0.871097
9062.000000;0.870818
9061.000000;0.870650
9060.000000;0.870452
9059.000000;0.870170
9058.000000;0.869899
9057.000000;0.869675
9056.000000;0.869405
9055.000000;0.869038
9054.000000;0.868660
9053.000000;0.868351
