Criado como novo conjunto de dados;"e2410_daniel_v2.spp","90546.5 Secs"
cm-1;Abs
10000.000000;0.099787
9999.000000;0.100668
9998.000000;0.101593
9997.000000;0.102360
9996.000000;0.102891
9995.000000;0.103295
9994.000000;0.103774
9993.000000;0.104442
9992.000000;0.105230
9991.000000;0.105941
9990.000000;0.106423
9989.000000;0.106688
9988.000000;0.106881
9987.000000;0.107154
9986.000000;0.107596
9985.000000;0.108243
9984.000000;0.109092
9983.000000;0.110069
9982.000000;0.111036
9981.000000;0.111875
9980.000000;0.112567
9979.000000;0.113153
9978.000000;0.113638
9977.000000;0.113973
9976.000000;0.114146
9975.000000;0.114255
9974.000000;0.114460
9973.000000;0.114876
9972.000000;0.115520
9971.000000;0.116315
9970.000000;0.117144
9969.000000;0.117933
9968.000000;0.118704
9967.000000;0.119539
9966.000000;0.120439
9965.000000;0.121237
9964.000000;0.121719
9963.000000;0.121876
9962.000000;0.121993
9961.000000;0.122414
9960.000000;0.123217
9959.000000;0.124160
9958.000000;0.124969
9957.000000;0.125587
9956.000000;0.126128
9955.000000;0.126653
9954.000000;0.127130
9953.000000;0.127570
9952.000000;0.128078
9951.000000;0.128732
9950.000000;0.129505
9949.000000;0.130365
9948.000000;0.131318
9947.000000;0.132278
9946.000000;0.133014
9945.000000;0.133378
9944.000000;0.133536
9943.000000;0.133814
9942.000000;0.134329
9941.000000;0.134918
9940.000000;0.135439
9939.000000;0.135970
9938.000000;0.136652
9937.000000;0.137472
9936.000000;0.138303
9935.000000;0.139079
9934.000000;0.139820
9933.000000;0.140547
9932.000000;0.141250
9931.000000;0.141904
9930.000000;0.142470
9929.000000;0.142918
9928.000000;0.143303
9927.000000;0.143760
9926.000000;0.144380
9925.000000;0.145098
9924.000000;0.145797
9923.000000;0.146455
9922.000000;0.147149
9921.000000;0.147931
9920.000000;0.148777
9919.000000;0.149619
9918.000000;0.150348
9917.000000;0.150844
9916.000000;0.151119
9915.000000;0.151380
9914.000000;0.151865
9913.000000;0.152566
9912.000000;0.153250
9911.000000;0.153757
9910.000000;0.154194
9909.000000;0.154755
9908.000000;0.155459
9907.000000;0.156150
9906.000000;0.156725
9905.000000;0.157268
9904.000000;0.157942
9903.000000;0.158809
9902.000000;0.159792
9901.000000;0.160757
9900.000000;0.161582
9899.000000;0.162183
9898.000000;0.162545
9897.000000;0.162772
9896.000000;0.163081
9895.000000;0.163650
9894.000000;0.164466
9893.000000;0.165349
9892.000000;0.166127
9891.000000;0.166762
9890.000000;0.167308
9889.000000;0.167823
9888.000000;0.168373
9887.000000;0.169037
9886.000000;0.169829
9885.000000;0.170638
9884.000000;0.171341
9883.000000;0.171945
9882.000000;0.172570
9881.000000;0.173286
9880.000000;0.174042
9879.000000;0.174777
9878.000000;0.175536
9877.000000;0.176438
9876.000000;0.177548
9875.000000;0.178788
9874.000000;0.179940
9873.000000;0.180748
9872.000000;0.181101
9871.000000;0.181148
9870.000000;0.181213
9869.000000;0.181557
9868.000000;0.182217
9867.000000;0.183078
9866.000000;0.184034
9865.000000;0.185017
9864.000000;0.185915
9863.000000;0.186543
9862.000000;0.186776
9861.000000;0.186712
9860.000000;0.186671
9859.000000;0.186986
9858.000000;0.187752
9857.000000;0.188773
9856.000000;0.189746
9855.000000;0.190510
9854.000000;0.191132
9853.000000;0.191778
9852.000000;0.192537
9851.000000;0.193363
9850.000000;0.194150
9849.000000;0.194856
9848.000000;0.195531
9847.000000;0.196246
9846.000000;0.196983
9845.000000;0.197649
9844.000000;0.198215
9843.000000;0.198809
9842.000000;0.199618
9841.000000;0.200674
9840.000000;0.201779
9839.000000;0.202681
9838.000000;0.203298
9837.000000;0.203772
9836.000000;0.204313
9835.000000;0.205029
9834.000000;0.205882
9833.000000;0.206753
9832.000000;0.207528
9831.000000;0.208156
9830.000000;0.208699
9829.000000;0.209298
9828.000000;0.210054
9827.000000;0.210930
9826.000000;0.211794
9825.000000;0.212561
9824.000000;0.213257
9823.000000;0.213947
9822.000000;0.214637
9821.000000;0.215303
9820.000000;0.215951
9819.000000;0.216617
9818.000000;0.217313
9817.000000;0.218016
9816.000000;0.218695
9815.000000;0.219322
9814.000000;0.219873
9813.000000;0.220365
9812.000000;0.220873
9811.000000;0.221472
9810.000000;0.222185
9809.000000;0.223023
9808.000000;0.224038
9807.000000;0.225237
9806.000000;0.226456
9805.000000;0.227436
9804.000000;0.228048
9803.000000;0.228395
9802.000000;0.228677
9801.000000;0.229013
9800.000000;0.229456
9799.000000;0.230074
9798.000000;0.230936
9797.000000;0.232004
9796.000000;0.233077
9795.000000;0.233904
9794.000000;0.234391
9793.000000;0.234716
9792.000000;0.235202
9791.000000;0.236023
9790.000000;0.237050
9789.000000;0.238059
9788.000000;0.239015
9787.000000;0.240036
9786.000000;0.241112
9785.000000;0.242024
9784.000000;0.242597
9783.000000;0.242895
9782.000000;0.243125
9781.000000;0.243459
9780.000000;0.244030
9779.000000;0.244934
9778.000000;0.246070
9777.000000;0.247098
9776.000000;0.247735
9775.000000;0.248075
9774.000000;0.248474
9773.000000;0.249144
9772.000000;0.249986
9771.000000;0.250816
9770.000000;0.251596
9769.000000;0.252394
9768.000000;0.253233
9767.000000;0.254058
9766.000000;0.254790
9765.000000;0.255380
9764.000000;0.255842
9763.000000;0.256290
9762.000000;0.256895
9761.000000;0.257768
9760.000000;0.258875
9759.000000;0.260073
9758.000000;0.261217
9757.000000;0.262246
9756.000000;0.263178
9755.000000;0.264035
9754.000000;0.264789
9753.000000;0.265405
9752.000000;0.265936
9751.000000;0.266499
9750.000000;0.267132
9749.000000;0.267752
9748.000000;0.268305
9747.000000;0.268871
9746.000000;0.269540
9745.000000;0.270237
9744.000000;0.270798
9743.000000;0.271206
9742.000000;0.271628
9741.000000;0.272235
9740.000000;0.273062
9739.000000;0.274068
9738.000000;0.275186
9737.000000;0.276292
9736.000000;0.277209
9735.000000;0.277861
9734.000000;0.278383
9733.000000;0.279039
9732.000000;0.280013
9731.000000;0.281262
9730.000000;0.282522
9729.000000;0.283458
9728.000000;0.283880
9727.000000;0.283885
9726.000000;0.283795
9725.000000;0.283941
9724.000000;0.284500
9723.000000;0.285473
9722.000000;0.286739
9721.000000;0.288113
9720.000000;0.289449
9719.000000;0.290696
9718.000000;0.291825
9717.000000;0.292696
9716.000000;0.293137
9715.000000;0.293176
9714.000000;0.293134
9713.000000;0.293371
9712.000000;0.293988
9711.000000;0.294841
9710.000000;0.295770
9709.000000;0.296722
9708.000000;0.297656
9707.000000;0.298468
9706.000000;0.299102
9705.000000;0.299673
9704.000000;0.300398
9703.000000;0.301388
9702.000000;0.302541
9701.000000;0.303657
9700.000000;0.304600
9699.000000;0.305340
9698.000000;0.305877
9697.000000;0.306230
9696.000000;0.306520
9695.000000;0.306981
9694.000000;0.307785
9693.000000;0.308825
9692.000000;0.309757
9691.000000;0.310333
9690.000000;0.310680
9689.000000;0.311188
9688.000000;0.312109
9687.000000;0.313325
9686.000000;0.314503
9685.000000;0.315414
9684.000000;0.316059
9683.000000;0.316537
9682.000000;0.316917
9681.000000;0.317259
9680.000000;0.317695
9679.000000;0.318381
9678.000000;0.319345
9677.000000;0.320409
9676.000000;0.321280
9675.000000;0.321770
9674.000000;0.321978
9673.000000;0.322232
9672.000000;0.322836
9671.000000;0.323822
9670.000000;0.324987
9669.000000;0.326104
9668.000000;0.327054
9667.000000;0.327772
9666.000000;0.328233
9665.000000;0.328563
9664.000000;0.329040
9663.000000;0.329861
9662.000000;0.330916
9661.000000;0.331909
9660.000000;0.332653
9659.000000;0.333196
9658.000000;0.333697
9657.000000;0.334303
9656.000000;0.335105
9655.000000;0.336042
9654.000000;0.336879
9653.000000;0.337422
9652.000000;0.337781
9651.000000;0.338269
9650.000000;0.339002
9649.000000;0.339759
9648.000000;0.340291
9647.000000;0.340660
9646.000000;0.341165
9645.000000;0.342017
9644.000000;0.343162
9643.000000;0.344346
9642.000000;0.345287
9641.000000;0.345857
9640.000000;0.346191
9639.000000;0.346579
9638.000000;0.347190
9637.000000;0.347936
9636.000000;0.348612
9635.000000;0.349096
9634.000000;0.349403
9633.000000;0.349662
9632.000000;0.350077
9631.000000;0.350790
9630.000000;0.351686
9629.000000;0.352491
9628.000000;0.353142
9627.000000;0.353917
9626.000000;0.355028
9625.000000;0.356266
9624.000000;0.357253
9623.000000;0.357929
9622.000000;0.358520
9621.000000;0.359103
9620.000000;0.359513
9619.000000;0.359714
9618.000000;0.359945
9617.000000;0.360398
9616.000000;0.360987
9615.000000;0.361580
9614.000000;0.362255
9613.000000;0.363124
9612.000000;0.364056
9611.000000;0.364806
9610.000000;0.365334
9609.000000;0.365829
9608.000000;0.366425
9607.000000;0.367080
9606.000000;0.367735
9605.000000;0.368431
9604.000000;0.369213
9603.000000;0.370031
9602.000000;0.370792
9601.000000;0.371432
9600.000000;0.371905
9599.000000;0.372168
9598.000000;0.372226
9597.000000;0.372167
9596.000000;0.372146
9595.000000;0.372339
9594.000000;0.372881
9593.000000;0.373743
9592.000000;0.374702
9591.000000;0.375498
9590.000000;0.376059
9589.000000;0.376488
9588.000000;0.376884
9587.000000;0.377274
9586.000000;0.377752
9585.000000;0.378490
9584.000000;0.379521
9583.000000;0.380635
9582.000000;0.381591
9581.000000;0.382363
9580.000000;0.383014
9579.000000;0.383456
9578.000000;0.383542
9577.000000;0.383383
9576.000000;0.383343
9575.000000;0.383681
9574.000000;0.384348
9573.000000;0.385141
9572.000000;0.385879
9571.000000;0.386404
9570.000000;0.386629
9569.000000;0.386713
9568.000000;0.387013
9567.000000;0.387719
9566.000000;0.388645
9565.000000;0.389451
9564.000000;0.389959
9563.000000;0.390165
9562.000000;0.390140
9561.000000;0.390108
9560.000000;0.390450
9559.000000;0.391351
9558.000000;0.392481
9557.000000;0.393286
9556.000000;0.393612
9555.000000;0.393850
9554.000000;0.394448
9553.000000;0.395420
9552.000000;0.396365
9551.000000;0.396822
9550.000000;0.396626
9549.000000;0.396052
9548.000000;0.395635
9547.000000;0.395732
9546.000000;0.396250
9545.000000;0.396895
9544.000000;0.397562
9543.000000;0.398318
9542.000000;0.399064
9541.000000;0.399537
9540.000000;0.399682
9539.000000;0.399754
9538.000000;0.399971
9537.000000;0.400308
9536.000000;0.400719
9535.000000;0.401311
9534.000000;0.402104
9533.000000;0.402789
9532.000000;0.402962
9531.000000;0.402573
9530.000000;0.402000
9529.000000;0.401730
9528.000000;0.402027
9527.000000;0.402793
9526.000000;0.403615
9525.000000;0.404047
9524.000000;0.403995
9523.000000;0.403793
9522.000000;0.403868
9521.000000;0.404358
9520.000000;0.405099
9519.000000;0.405840
9518.000000;0.406380
9517.000000;0.406602
9516.000000;0.406525
9515.000000;0.406350
9514.000000;0.406376
9513.000000;0.406809
9512.000000;0.407582
9511.000000;0.408327
9510.000000;0.408621
9509.000000;0.408393
9508.000000;0.408050
9507.000000;0.408022
9506.000000;0.408286
9505.000000;0.408518
9504.000000;0.408680
9503.000000;0.409096
9502.000000;0.409891
9501.000000;0.410697
9500.000000;0.411113
9499.000000;0.411222
9498.000000;0.411439
9497.000000;0.412019
9496.000000;0.412910
9495.000000;0.413879
9494.000000;0.414565
9493.000000;0.414609
9492.000000;0.414001
9491.000000;0.413194
9490.000000;0.412651
9489.000000;0.412399
9488.000000;0.412221
9487.000000;0.412093
9486.000000;0.412140
9485.000000;0.412275
9484.000000;0.412263
9483.000000;0.412156
9482.000000;0.412324
9481.000000;0.412954
9480.000000;0.413732
9479.000000;0.414108
9478.000000;0.413791
9477.000000;0.412984
9476.000000;0.412271
9475.000000;0.412243
9474.000000;0.412999
9473.000000;0.413996
9472.000000;0.414545
9471.000000;0.414484
9470.000000;0.414214
9469.000000;0.414127
9468.000000;0.414243
9467.000000;0.414412
9466.000000;0.414576
9465.000000;0.414730
9464.000000;0.414817
9463.000000;0.414819
9462.000000;0.414821
9461.000000;0.414879
9460.000000;0.414944
9459.000000;0.414992
9458.000000;0.415095
9457.000000;0.415281
9456.000000;0.415458
9455.000000;0.415552
9454.000000;0.415611
9453.000000;0.415671
9452.000000;0.415643
9451.000000;0.415478
9450.000000;0.415323
9449.000000;0.415390
9448.000000;0.415679
9447.000000;0.415970
9446.000000;0.416057
9445.000000;0.415933
9444.000000;0.415729
9443.000000;0.415572
9442.000000;0.415528
9441.000000;0.415637
9440.000000;0.415895
9439.000000;0.416159
9438.000000;0.416121
9437.000000;0.415536
9436.000000;0.414569
9435.000000;0.413804
9434.000000;0.413729
9433.000000;0.414247
9432.000000;0.414821
9431.000000;0.415077
9430.000000;0.415093
9429.000000;0.415093
9428.000000;0.415092
9427.000000;0.414969
9426.000000;0.414683
9425.000000;0.414274
9424.000000;0.413752
9423.000000;0.413166
9422.000000;0.412748
9421.000000;0.412794
9420.000000;0.413354
9419.000000;0.414114
9418.000000;0.414645
9417.000000;0.414724
9416.000000;0.414421
9415.000000;0.413920
9414.000000;0.413304
9413.000000;0.412536
9412.000000;0.411661
9411.000000;0.410967
9410.000000;0.410820
9409.000000;0.411267
9408.000000;0.411859
9407.000000;0.411961
9406.000000;0.411284
9405.000000;0.410116
9404.000000;0.409053
9403.000000;0.408523
9402.000000;0.408521
9401.000000;0.408727
9400.000000;0.408832
9399.000000;0.408753
9398.000000;0.408552
9397.000000;0.408241
9396.000000;0.407771
9395.000000;0.407190
9394.000000;0.406671
9393.000000;0.406336
9392.000000;0.406144
9391.000000;0.406037
9390.000000;0.406077
9389.000000;0.406320
9388.000000;0.406603
9387.000000;0.406612
9386.000000;0.406220
9385.000000;0.405634
9384.000000;0.405151
9383.000000;0.404879
9382.000000;0.404765
9381.000000;0.404810
9380.000000;0.405071
9379.000000;0.405424
9378.000000;0.405477
9377.000000;0.404865
9376.000000;0.403669
9375.000000;0.402458
9374.000000;0.401879
9373.000000;0.402171
9372.000000;0.403019
9371.000000;0.403829
9370.000000;0.404130
9369.000000;0.403794
9368.000000;0.402977
9367.000000;0.401926
9366.000000;0.400869
9365.000000;0.400005
9364.000000;0.399488
9363.000000;0.399333
9362.000000;0.399358
9361.000000;0.399265
9360.000000;0.398829
9359.000000;0.398063
9358.000000;0.397251
9357.000000;0.396763
9356.000000;0.396763
9355.000000;0.397067
9354.000000;0.397350
9353.000000;0.397475
9352.000000;0.397518
9351.000000;0.397452
9350.000000;0.396999
9349.000000;0.395971
9348.000000;0.394637
9347.000000;0.393544
9346.000000;0.392992
9345.000000;0.392828
9344.000000;0.392732
9343.000000;0.392514
9342.000000;0.392152
9341.000000;0.391751
9340.000000;0.391527
9339.000000;0.391625
9338.000000;0.391837
9337.000000;0.391694
9336.000000;0.390998
9335.000000;0.390104
9334.000000;0.389525
9333.000000;0.389348
9332.000000;0.389221
9331.000000;0.388796
9330.000000;0.387983
9329.000000;0.386862
9328.000000;0.385624
9327.000000;0.384644
9326.000000;0.384319
9325.000000;0.384656
9324.000000;0.385136
9323.000000;0.385160
9322.000000;0.384637
9321.000000;0.384004
9320.000000;0.383684
9319.000000;0.383621
9318.000000;0.383403
9317.000000;0.382772
9316.000000;0.381898
9315.000000;0.381155
9314.000000;0.380708
9313.000000;0.380429
9312.000000;0.380159
9311.000000;0.379908
9310.000000;0.379751
9309.000000;0.379622
9308.000000;0.379352
9307.000000;0.378875
9306.000000;0.378298
9305.000000;0.377758
9304.000000;0.377263
9303.000000;0.376700
9302.000000;0.375973
9301.000000;0.375152
9300.000000;0.374481
9299.000000;0.374193
9298.000000;0.374283
9297.000000;0.374473
9296.000000;0.374440
9295.000000;0.374065
9294.000000;0.373445
9293.000000;0.372720
9292.000000;0.371929
9291.000000;0.371036
9290.000000;0.370048
9289.000000;0.369108
9288.000000;0.368441
9287.000000;0.368168
9286.000000;0.368168
9285.000000;0.368188
9284.000000;0.368080
9283.000000;0.367840
9282.000000;0.367423
9281.000000;0.366704
9280.000000;0.365705
9279.000000;0.364734
9278.000000;0.364134
9277.000000;0.363943
9276.000000;0.363894
9275.000000;0.363687
9274.000000;0.363181
9273.000000;0.362410
9272.000000;0.361575
9271.000000;0.360973
9270.000000;0.360743
9269.000000;0.360660
9268.000000;0.360312
9267.000000;0.359540
9266.000000;0.358598
9265.000000;0.357848
9264.000000;0.357411
9263.000000;0.357167
9262.000000;0.356960
9261.000000;0.356713
9260.000000;0.356417
9259.000000;0.356121
9258.000000;0.355897
9257.000000;0.355750
9256.000000;0.355569
9255.000000;0.355248
9254.000000;0.354823
9253.000000;0.354392
9252.000000;0.353911
9251.000000;0.353168
9250.000000;0.352073
9249.000000;0.350890
9248.000000;0.350050
9247.000000;0.349701
9246.000000;0.349557
9245.000000;0.349247
9244.000000;0.348723
9243.000000;0.348229
9242.000000;0.347959
9241.000000;0.347887
9240.000000;0.347884
9239.000000;0.347822
9238.000000;0.347545
9237.000000;0.346945
9236.000000;0.346158
9235.000000;0.345517
9234.000000;0.345200
9233.000000;0.345020
9232.000000;0.344673
9231.000000;0.344093
9230.000000;0.343431
9229.000000;0.342787
9228.000000;0.342117
9227.000000;0.341359
9226.000000;0.340515
9225.000000;0.339626
9224.000000;0.338793
9223.000000;0.338177
9222.000000;0.337864
9221.000000;0.337741
9220.000000;0.337606
9219.000000;0.337393
9218.000000;0.337175
9217.000000;0.336969
9216.000000;0.336654
9215.000000;0.336095
9214.000000;0.335243
9213.000000;0.334131
9212.000000;0.332899
9211.000000;0.331807
9210.000000;0.331083
9209.000000;0.330707
9208.000000;0.330451
9207.000000;0.330166
9206.000000;0.329907
9205.000000;0.329752
9204.000000;0.329638
9203.000000;0.329462
9202.000000;0.329240
9201.000000;0.329052
9200.000000;0.328844
9199.000000;0.328418
9198.000000;0.327640
9197.000000;0.326626
9196.000000;0.325660
9195.000000;0.324954
9194.000000;0.324476
9193.000000;0.324046
9192.000000;0.323578
9191.000000;0.323171
9190.000000;0.322895
9189.000000;0.322579
9188.000000;0.321969
9187.000000;0.321116
9186.000000;0.320449
9185.000000;0.320371
9184.000000;0.320798
9183.000000;0.321175
9182.000000;0.320941
9181.000000;0.319980
9180.000000;0.318657
9179.000000;0.317468
9178.000000;0.316676
9177.000000;0.316225
9176.000000;0.315930
9175.000000;0.315678
9174.000000;0.315477
9173.000000;0.315374
9172.000000;0.315382
9171.000000;0.315436
9170.000000;0.315366
9169.000000;0.314979
9168.000000;0.314249
9167.000000;0.313383
9166.000000;0.312634
9165.000000;0.312064
9164.000000;0.311528
9163.000000;0.310877
9162.000000;0.310103
9161.000000;0.309332
9160.000000;0.308748
9159.000000;0.308467
9158.000000;0.308409
9157.000000;0.308303
9156.000000;0.307938
9155.000000;0.307396
9154.000000;0.306954
9153.000000;0.306745
9152.000000;0.306616
9151.000000;0.306341
9150.000000;0.305853
9149.000000;0.305241
9148.000000;0.304580
9147.000000;0.303861
9146.000000;0.303058
9145.000000;0.302249
9144.000000;0.301624
9143.000000;0.301361
9142.000000;0.301446
9141.000000;0.301628
9140.000000;0.301603
9139.000000;0.301207
9138.000000;0.300450
9137.000000;0.299475
9136.000000;0.298537
9135.000000;0.297910
9134.000000;0.297641
9133.000000;0.297446
9132.000000;0.296998
9131.000000;0.296296
9130.000000;0.295624
9129.000000;0.295154
9128.000000;0.294784
9127.000000;0.294378
9126.000000;0.293999
9125.000000;0.293791
9124.000000;0.293756
9123.000000;0.293749
9122.000000;0.293606
9121.000000;0.293219
9120.000000;0.292562
9119.000000;0.291746
9118.000000;0.290983
9117.000000;0.290438
9116.000000;0.290093
9115.000000;0.289771
9114.000000;0.289268
9113.000000;0.288495
9112.000000;0.287598
9111.000000;0.286933
9110.000000;0.286778
9109.000000;0.286990
9108.000000;0.287060
9107.000000;0.286588
9106.000000;0.285638
9105.000000;0.284571
9104.000000;0.283659
9103.000000;0.282974
9102.000000;0.282533
9101.000000;0.282361
9100.000000;0.282391
9099.000000;0.282412
9098.000000;0.282228
9097.000000;0.281841
9096.000000;0.281467
9095.000000;0.281340
9094.000000;0.281451
9093.000000;0.281500
9092.000000;0.281158
9091.000000;0.280395
9090.000000;0.279483
9089.000000;0.278671
9088.000000;0.277966
9087.000000;0.277281
9086.000000;0.276670
9085.000000;0.276308
9084.000000;0.276263
9083.000000;0.276407
9082.000000;0.276498
9081.000000;0.276298
9080.000000;0.275690
9079.000000;0.274788
9078.000000;0.273910
9077.000000;0.273337
9076.000000;0.273068
9075.000000;0.272898
9074.000000;0.272681
9073.000000;0.272449
9072.000000;0.272246
9071.000000;0.271997
9070.000000;0.271581
9069.000000;0.270999
9068.000000;0.270404
9067.000000;0.269960
9066.000000;0.269678
9065.000000;0.269385
9064.000000;0.268860
9063.000000;0.268049
9062.000000;0.267154
9061.000000;0.266496
9060.000000;0.266258
9059.000000;0.266373
9058.000000;0.266576
9057.000000;0.266564
9056.000000;0.266150
9055.000000;0.265390
9054.000000;0.264555
9053.000000;0.263923
