Criado como novo conjunto de dados;"e2410_daniel_v2.spp","27363.7 Secs"
cm-1;Abs
10000.000000;0.535083
9999.000000;0.534363
9998.000000;0.533880
9997.000000;0.533557
9996.000000;0.533145
9995.000000;0.532477
9994.000000;0.531601
9993.000000;0.530710
9992.000000;0.529970
9991.000000;0.529369
9990.000000;0.528739
9989.000000;0.527982
9988.000000;0.527240
9987.000000;0.526776
9986.000000;0.526661
9985.000000;0.526677
9984.000000;0.526556
9983.000000;0.526240
9982.000000;0.525847
9981.000000;0.525447
9980.000000;0.524953
9979.000000;0.524275
9978.000000;0.523498
9977.000000;0.522867
9976.000000;0.522545
9975.000000;0.522426
9974.000000;0.522217
9973.000000;0.521700
9972.000000;0.520903
9971.000000;0.520058
9970.000000;0.519457
9969.000000;0.519277
9968.000000;0.519404
9967.000000;0.519409
9966.000000;0.518881
9965.000000;0.517877
9964.000000;0.516901
9963.000000;0.516353
9962.000000;0.516124
9961.000000;0.515840
9960.000000;0.515355
9959.000000;0.514839
9958.000000;0.514452
9957.000000;0.514152
9956.000000;0.513808
9955.000000;0.513326
9954.000000;0.512648
9953.000000;0.511797
9952.000000;0.510928
9951.000000;0.510219
9950.000000;0.509659
9949.000000;0.509087
9948.000000;0.508433
9947.000000;0.507809
9946.000000;0.507335
9945.000000;0.507001
9944.000000;0.506744
9943.000000;0.506514
9942.000000;0.506224
9941.000000;0.505771
9940.000000;0.505168
9939.000000;0.504565
9938.000000;0.504056
9937.000000;0.503569
9936.000000;0.503002
9935.000000;0.502373
9934.000000;0.501767
9933.000000;0.501223
9932.000000;0.500775
9931.000000;0.500489
9930.000000;0.500349
9929.000000;0.500165
9928.000000;0.499729
9927.000000;0.499046
9926.000000;0.498319
9925.000000;0.497715
9924.000000;0.497243
9923.000000;0.496863
9922.000000;0.496589
9921.000000;0.496433
9920.000000;0.496314
9919.000000;0.496074
9918.000000;0.495572
9917.000000;0.494757
9916.000000;0.493728
9915.000000;0.492750
9914.000000;0.492127
9913.000000;0.491940
9912.000000;0.491904
9911.000000;0.491582
9910.000000;0.490812
9909.000000;0.489877
9908.000000;0.489188
9907.000000;0.488851
9906.000000;0.488588
9905.000000;0.488093
9904.000000;0.487336
9903.000000;0.486513
9902.000000;0.485793
9901.000000;0.485210
9900.000000;0.484760
9899.000000;0.484449
9898.000000;0.484218
9897.000000;0.483906
9896.000000;0.483363
9895.000000;0.482623
9894.000000;0.481904
9893.000000;0.481417
9892.000000;0.481187
9891.000000;0.481047
9890.000000;0.480788
9889.000000;0.480313
9888.000000;0.479677
9887.000000;0.479038
9886.000000;0.478570
9885.000000;0.478346
9884.000000;0.478264
9883.000000;0.478107
9882.000000;0.477756
9881.000000;0.477290
9880.000000;0.476831
9879.000000;0.476329
9878.000000;0.475624
9877.000000;0.474700
9876.000000;0.473761
9875.000000;0.473033
9874.000000;0.472581
9873.000000;0.472345
9872.000000;0.472226
9871.000000;0.472076
9870.000000;0.471719
9869.000000;0.471100
9868.000000;0.470364
9867.000000;0.469703
9866.000000;0.469163
9865.000000;0.468658
9864.000000;0.468118
9863.000000;0.467557
9862.000000;0.467040
9861.000000;0.466635
9860.000000;0.466357
9859.000000;0.466087
9858.000000;0.465632
9857.000000;0.464961
9856.000000;0.464303
9855.000000;0.463909
9854.000000;0.463761
9853.000000;0.463627
9852.000000;0.463361
9851.000000;0.462990
9850.000000;0.462551
9849.000000;0.462011
9848.000000;0.461402
9847.000000;0.460871
9846.000000;0.460510
9845.000000;0.460220
9844.000000;0.459822
9843.000000;0.459274
9842.000000;0.458690
9841.000000;0.458184
9840.000000;0.457744
9839.000000;0.457283
9838.000000;0.456758
9837.000000;0.456234
9836.000000;0.455786
9835.000000;0.455389
9834.000000;0.454939
9833.000000;0.454423
9832.000000;0.453969
9831.000000;0.453683
9830.000000;0.453467
9829.000000;0.453102
9828.000000;0.452475
9827.000000;0.451664
9826.000000;0.450812
9825.000000;0.450032
9824.000000;0.449415
9823.000000;0.449004
9822.000000;0.448712
9821.000000;0.448356
9820.000000;0.447835
9819.000000;0.447228
9818.000000;0.446671
9817.000000;0.446202
9816.000000;0.445766
9815.000000;0.445308
9814.000000;0.444811
9813.000000;0.444287
9812.000000;0.443785
9811.000000;0.443408
9810.000000;0.443239
9809.000000;0.443233
9808.000000;0.443222
9807.000000;0.443040
9806.000000;0.442647
9805.000000;0.442126
9804.000000;0.441567
9803.000000;0.440962
9802.000000;0.440251
9801.000000;0.439471
9800.000000;0.438791
9799.000000;0.438356
9798.000000;0.438094
9797.000000;0.437759
9796.000000;0.437190
9795.000000;0.436477
9794.000000;0.435823
9793.000000;0.435307
9792.000000;0.434817
9791.000000;0.434230
9790.000000;0.433568
9789.000000;0.432967
9788.000000;0.432517
9787.000000;0.432173
9786.000000;0.431831
9785.000000;0.431448
9784.000000;0.431041
9783.000000;0.430590
9782.000000;0.430019
9781.000000;0.429324
9780.000000;0.428673
9779.000000;0.428290
9778.000000;0.428199
9777.000000;0.428148
9776.000000;0.427838
9775.000000;0.427206
9774.000000;0.426464
9773.000000;0.425864
9772.000000;0.425460
9771.000000;0.425122
9770.000000;0.424719
9769.000000;0.424268
9768.000000;0.423862
9767.000000;0.423516
9766.000000;0.423115
9765.000000;0.422541
9764.000000;0.421818
9763.000000;0.421118
9762.000000;0.420610
9761.000000;0.420323
9760.000000;0.420116
9759.000000;0.419807
9758.000000;0.419315
9757.000000;0.418702
9756.000000;0.418082
9755.000000;0.417509
9754.000000;0.416984
9753.000000;0.416533
9752.000000;0.416199
9751.000000;0.415970
9750.000000;0.415742
9749.000000;0.415420
9748.000000;0.415001
9747.000000;0.414545
9746.000000;0.414081
9745.000000;0.413586
9744.000000;0.413057
9743.000000;0.412544
9742.000000;0.412099
9741.000000;0.411713
9740.000000;0.411316
9739.000000;0.410862
9738.000000;0.410409
9737.000000;0.410079
9736.000000;0.409902
9735.000000;0.409714
9734.000000;0.409268
9733.000000;0.408486
9732.000000;0.407574
9731.000000;0.406841
9730.000000;0.406413
9729.000000;0.406142
9728.000000;0.405786
9727.000000;0.405245
9726.000000;0.404635
9725.000000;0.404145
9724.000000;0.403852
9723.000000;0.403652
9722.000000;0.403365
9721.000000;0.402883
9720.000000;0.402239
9719.000000;0.401562
9718.000000;0.400987
9717.000000;0.400589
9716.000000;0.400356
9715.000000;0.400192
9714.000000;0.399974
9713.000000;0.399609
9712.000000;0.399067
9711.000000;0.398395
9710.000000;0.397698
9709.000000;0.397090
9708.000000;0.396620
9707.000000;0.396247
9706.000000;0.395893
9705.000000;0.395516
9704.000000;0.395115
9703.000000;0.394721
9702.000000;0.394394
9701.000000;0.394183
9700.000000;0.394053
9699.000000;0.393868
9698.000000;0.393494
9697.000000;0.392900
9696.000000;0.392155
9695.000000;0.391389
9694.000000;0.390768
9693.000000;0.390421
9692.000000;0.390296
9691.000000;0.390148
9690.000000;0.389766
9689.000000;0.389174
9688.000000;0.388546
9687.000000;0.387983
9686.000000;0.387489
9685.000000;0.387082
9684.000000;0.386774
9683.000000;0.386460
9682.000000;0.385993
9681.000000;0.385367
9680.000000;0.384725
9679.000000;0.384173
9678.000000;0.383722
9677.000000;0.383375
9676.000000;0.383119
9675.000000;0.382822
9674.000000;0.382325
9673.000000;0.381699
9672.000000;0.381215
9671.000000;0.380999
9670.000000;0.380853
9669.000000;0.380523
9668.000000;0.379999
9667.000000;0.379458
9666.000000;0.379005
9665.000000;0.378623
9664.000000;0.378252
9663.000000;0.377822
9662.000000;0.377284
9661.000000;0.376697
9660.000000;0.376227
9659.000000;0.375958
9658.000000;0.375768
9657.000000;0.375490
9656.000000;0.375096
9655.000000;0.374650
9654.000000;0.374164
9653.000000;0.373604
9652.000000;0.372971
9651.000000;0.372290
9650.000000;0.371586
9649.000000;0.370952
9648.000000;0.370534
9647.000000;0.370352
9646.000000;0.370214
9645.000000;0.369937
9644.000000;0.369574
9643.000000;0.369286
9642.000000;0.369066
9641.000000;0.368745
9640.000000;0.368249
9639.000000;0.367698
9638.000000;0.367239
9637.000000;0.366883
9636.000000;0.366542
9635.000000;0.366106
9634.000000;0.365516
9633.000000;0.364827
9632.000000;0.364191
9631.000000;0.363721
9630.000000;0.363366
9629.000000;0.362999
9628.000000;0.362580
9627.000000;0.362157
9626.000000;0.361760
9625.000000;0.361389
9624.000000;0.361080
9623.000000;0.360866
9622.000000;0.360669
9621.000000;0.360350
9620.000000;0.359872
9619.000000;0.359335
9618.000000;0.358841
9617.000000;0.358409
9616.000000;0.358005
9615.000000;0.357592
9614.000000;0.357135
9613.000000;0.356635
9612.000000;0.356163
9611.000000;0.355809
9610.000000;0.355598
9609.000000;0.355508
9608.000000;0.355512
9607.000000;0.355528
9606.000000;0.355396
9605.000000;0.354997
9604.000000;0.354405
9603.000000;0.353810
9602.000000;0.353304
9601.000000;0.352813
9600.000000;0.352230
9599.000000;0.351528
9598.000000;0.350771
9597.000000;0.350088
9596.000000;0.349618
9595.000000;0.349399
9594.000000;0.349288
9593.000000;0.349089
9592.000000;0.348732
9591.000000;0.348286
9590.000000;0.347816
9589.000000;0.347332
9588.000000;0.346862
9587.000000;0.346446
9586.000000;0.346058
9585.000000;0.345636
9584.000000;0.345198
9583.000000;0.344828
9582.000000;0.344536
9581.000000;0.344217
9580.000000;0.343767
9579.000000;0.343176
9578.000000;0.342496
9577.000000;0.341822
9576.000000;0.341295
9575.000000;0.341015
9574.000000;0.340915
9573.000000;0.340813
9572.000000;0.340606
9571.000000;0.340336
9570.000000;0.340038
9569.000000;0.339640
9568.000000;0.339094
9567.000000;0.338484
9566.000000;0.337951
9565.000000;0.337545
9564.000000;0.337213
9563.000000;0.336884
9562.000000;0.336517
9561.000000;0.336104
9560.000000;0.335679
9559.000000;0.335293
9558.000000;0.334949
9557.000000;0.334590
9556.000000;0.334160
9555.000000;0.333663
9554.000000;0.333159
9553.000000;0.332731
9552.000000;0.332431
9551.000000;0.332216
9550.000000;0.331936
9549.000000;0.331478
9548.000000;0.330902
9547.000000;0.330365
9546.000000;0.329907
9545.000000;0.329435
9544.000000;0.328933
9543.000000;0.328550
9542.000000;0.328391
9541.000000;0.328314
9540.000000;0.328058
9539.000000;0.327545
9538.000000;0.326958
9537.000000;0.326520
9536.000000;0.326277
9535.000000;0.326110
9534.000000;0.325899
9533.000000;0.325635
9532.000000;0.325355
9531.000000;0.325033
9530.000000;0.324580
9529.000000;0.323994
9528.000000;0.323432
9527.000000;0.323060
9526.000000;0.322830
9525.000000;0.322521
9524.000000;0.322011
9523.000000;0.321433
9522.000000;0.320990
9521.000000;0.320703
9520.000000;0.320419
9519.000000;0.320006
9518.000000;0.319500
9517.000000;0.319055
9516.000000;0.318816
9515.000000;0.318798
9514.000000;0.318836
9513.000000;0.318678
9512.000000;0.318194
9511.000000;0.317499
9510.000000;0.316833
9509.000000;0.316338
9508.000000;0.315975
9507.000000;0.315642
9506.000000;0.315306
9505.000000;0.315001
9504.000000;0.314748
9503.000000;0.314516
9502.000000;0.314222
9501.000000;0.313772
9500.000000;0.313131
9499.000000;0.312373
9498.000000;0.311666
9497.000000;0.311149
9496.000000;0.310833
9495.000000;0.310617
9494.000000;0.310418
9493.000000;0.310227
9492.000000;0.310058
9491.000000;0.309881
9490.000000;0.309652
9489.000000;0.309381
9488.000000;0.309100
9487.000000;0.308793
9486.000000;0.308407
9485.000000;0.307957
9484.000000;0.307544
9483.000000;0.307218
9482.000000;0.306904
9481.000000;0.306488
9480.000000;0.305967
9479.000000;0.305433
9478.000000;0.304950
9477.000000;0.304514
9476.000000;0.304102
9475.000000;0.303716
9474.000000;0.303339
9473.000000;0.302925
9472.000000;0.302443
9471.000000;0.301938
9470.000000;0.301519
9469.000000;0.301277
9468.000000;0.301191
9467.000000;0.301111
9466.000000;0.300882
9465.000000;0.300499
9464.000000;0.300121
9463.000000;0.299882
9462.000000;0.299748
9461.000000;0.299574
9460.000000;0.299268
9459.000000;0.298850
9458.000000;0.298384
9457.000000;0.297932
9456.000000;0.297548
9455.000000;0.297244
9454.000000;0.296959
9453.000000;0.296612
9452.000000;0.296192
9451.000000;0.295757
9450.000000;0.295339
9449.000000;0.294922
9448.000000;0.294497
9447.000000;0.294088
9446.000000;0.293715
9445.000000;0.293355
9444.000000;0.292970
9443.000000;0.292543
9442.000000;0.292100
9441.000000;0.291706
9440.000000;0.291430
9439.000000;0.291246
9438.000000;0.291013
9437.000000;0.290606
9436.000000;0.290076
9435.000000;0.289614
9434.000000;0.289342
9433.000000;0.289186
9432.000000;0.288995
9431.000000;0.288716
9430.000000;0.288430
9429.000000;0.288232
9428.000000;0.288106
9427.000000;0.287921
9426.000000;0.287561
9425.000000;0.287056
9424.000000;0.286578
9423.000000;0.286263
9422.000000;0.286070
9421.000000;0.285830
9420.000000;0.285423
9419.000000;0.284879
9418.000000;0.284314
9417.000000;0.283853
9416.000000;0.283570
9415.000000;0.283447
9414.000000;0.283368
9413.000000;0.283200
9412.000000;0.282905
9411.000000;0.282522
9410.000000;0.282079
9409.000000;0.281560
9408.000000;0.280979
9407.000000;0.280418
9406.000000;0.279978
9405.000000;0.279710
9404.000000;0.279598
9403.000000;0.279547
9402.000000;0.279424
9401.000000;0.279152
9400.000000;0.278786
9399.000000;0.278425
9398.000000;0.278055
9397.000000;0.277577
9396.000000;0.276989
9395.000000;0.276451
9394.000000;0.276107
9393.000000;0.275927
9392.000000;0.275779
9391.000000;0.275605
9390.000000;0.275439
9389.000000;0.275283
9388.000000;0.275054
9387.000000;0.274671
9386.000000;0.274153
9385.000000;0.273594
9384.000000;0.273086
9383.000000;0.272666
9382.000000;0.272339
9381.000000;0.272128
9380.000000;0.272059
9379.000000;0.272078
9378.000000;0.272011
9377.000000;0.271690
9376.000000;0.271143
9375.000000;0.270607
9374.000000;0.270296
9373.000000;0.270192
9372.000000;0.270092
9371.000000;0.269831
9370.000000;0.269407
9369.000000;0.268915
9368.000000;0.268434
9367.000000;0.267996
9366.000000;0.267622
9365.000000;0.267329
9364.000000;0.267110
9363.000000;0.266932
9362.000000;0.266750
9361.000000;0.266515
9360.000000;0.266195
9359.000000;0.265807
9358.000000;0.265417
9357.000000;0.265097
9356.000000;0.264856
9355.000000;0.264654
9354.000000;0.264463
9353.000000;0.264299
9352.000000;0.264149
9351.000000;0.263912
9350.000000;0.263465
9349.000000;0.262792
9348.000000;0.262025
9347.000000;0.261345
9346.000000;0.260866
9345.000000;0.260590
9344.000000;0.260415
9343.000000;0.260183
9342.000000;0.259793
9341.000000;0.259318
9340.000000;0.258955
9339.000000;0.258809
9338.000000;0.258760
9337.000000;0.258603
9336.000000;0.258266
9335.000000;0.257840
9334.000000;0.257449
9333.000000;0.257170
9332.000000;0.257045
9331.000000;0.257052
9330.000000;0.257050
9329.000000;0.256857
9328.000000;0.256433
9327.000000;0.255932
9326.000000;0.255523
9325.000000;0.255225
9324.000000;0.254938
9323.000000;0.254596
9322.000000;0.254226
9321.000000;0.253879
9320.000000;0.253566
9319.000000;0.253267
9318.000000;0.252982
9317.000000;0.252752
9316.000000;0.252606
9315.000000;0.252502
9314.000000;0.252335
9313.000000;0.252037
9312.000000;0.251652
9311.000000;0.251259
9310.000000;0.250859
9309.000000;0.250388
9308.000000;0.249854
9307.000000;0.249387
9306.000000;0.249104
9305.000000;0.248988
9304.000000;0.248898
9303.000000;0.248709
9302.000000;0.248395
9301.000000;0.248026
9300.000000;0.247722
9299.000000;0.247564
9298.000000;0.247526
9297.000000;0.247473
9296.000000;0.247281
9295.000000;0.246927
9294.000000;0.246495
9293.000000;0.246075
9292.000000;0.245704
9291.000000;0.245369
9290.000000;0.245042
9289.000000;0.244706
9288.000000;0.244372
9287.000000;0.244075
9286.000000;0.243868
9285.000000;0.243777
9284.000000;0.243758
9283.000000;0.243683
9282.000000;0.243433
9281.000000;0.243004
9280.000000;0.242522
9279.000000;0.242104
9278.000000;0.241743
9277.000000;0.241354
9276.000000;0.240913
9275.000000;0.240510
9274.000000;0.240245
9273.000000;0.240139
9272.000000;0.240141
9271.000000;0.240160
9270.000000;0.240075
9269.000000;0.239776
9268.000000;0.239247
9267.000000;0.238605
9266.000000;0.238013
9265.000000;0.237561
9264.000000;0.237234
9263.000000;0.236980
9262.000000;0.236781
9261.000000;0.236659
9260.000000;0.236633
9259.000000;0.236660
9258.000000;0.236623
9257.000000;0.236423
9256.000000;0.236085
9255.000000;0.235730
9254.000000;0.235437
9253.000000;0.235153
9252.000000;0.234799
9251.000000;0.234399
9250.000000;0.234056
9249.000000;0.233811
9248.000000;0.233598
9247.000000;0.233359
9246.000000;0.233142
9245.000000;0.233026
9244.000000;0.232988
9243.000000;0.232889
9242.000000;0.232607
9241.000000;0.232152
9240.000000;0.231653
9239.000000;0.231256
9238.000000;0.231040
9237.000000;0.230977
9236.000000;0.230937
9235.000000;0.230777
9234.000000;0.230454
9233.000000;0.230063
9232.000000;0.229711
9231.000000;0.229396
9230.000000;0.229037
9229.000000;0.228627
9228.000000;0.228267
9227.000000;0.228043
9226.000000;0.227922
9225.000000;0.227821
9224.000000;0.227721
9223.000000;0.227640
9222.000000;0.227549
9221.000000;0.227374
9220.000000;0.227092
9219.000000;0.226764
9218.000000;0.226455
9217.000000;0.226178
9216.000000;0.225913
9215.000000;0.225650
9214.000000;0.225377
9213.000000;0.225077
9212.000000;0.224733
9211.000000;0.224343
9210.000000;0.223926
9209.000000;0.223530
9208.000000;0.223233
9207.000000;0.223077
9206.000000;0.223011
9205.000000;0.222927
9204.000000;0.222764
9203.000000;0.222543
9202.000000;0.222303
9201.000000;0.222052
9200.000000;0.221794
9199.000000;0.221545
9198.000000;0.221294
9197.000000;0.221003
9196.000000;0.220680
9195.000000;0.220398
9194.000000;0.220188
9193.000000;0.219972
9192.000000;0.219650
9191.000000;0.219246
9190.000000;0.218888
9189.000000;0.218644
9188.000000;0.218460
9187.000000;0.218260
9186.000000;0.218045
9185.000000;0.217861
9184.000000;0.217717
9183.000000;0.217578
9182.000000;0.217430
9181.000000;0.217286
9180.000000;0.217140
9179.000000;0.216952
9178.000000;0.216699
9177.000000;0.216411
9176.000000;0.216141
9175.000000;0.215894
9174.000000;0.215617
9173.000000;0.215251
9172.000000;0.214792
9171.000000;0.214309
9170.000000;0.213910
9169.000000;0.213669
9168.000000;0.213583
9167.000000;0.213586
9166.000000;0.213587
9165.000000;0.213501
9164.000000;0.213269
9163.000000;0.212895
9162.000000;0.212467
9161.000000;0.212105
9160.000000;0.211860
9159.000000;0.211684
9158.000000;0.211527
9157.000000;0.211428
9156.000000;0.211437
9155.000000;0.211470
9154.000000;0.211331
9153.000000;0.210936
9152.000000;0.210441
9151.000000;0.210096
9150.000000;0.209986
9149.000000;0.209972
9148.000000;0.209871
9147.000000;0.209622
9146.000000;0.209282
9145.000000;0.208947
9144.000000;0.208692
9143.000000;0.208556
9142.000000;0.208511
9141.000000;0.208480
9140.000000;0.208398
9139.000000;0.208253
9138.000000;0.208054
9137.000000;0.207791
9136.000000;0.207460
9135.000000;0.207120
9134.000000;0.206859
9133.000000;0.206713
9132.000000;0.206610
9131.000000;0.206438
9130.000000;0.206130
9129.000000;0.205710
9128.000000;0.205267
9127.000000;0.204910
9126.000000;0.204712
9125.000000;0.204664
9124.000000;0.204673
9123.000000;0.204623
9122.000000;0.204454
9121.000000;0.204178
9120.000000;0.203843
9119.000000;0.203489
9118.000000;0.203155
9117.000000;0.202878
9116.000000;0.202675
9115.000000;0.202518
9114.000000;0.202365
9113.000000;0.202202
9112.000000;0.202051
9111.000000;0.201930
9110.000000;0.201811
9109.000000;0.201628
9108.000000;0.201328
9107.000000;0.200942
9106.000000;0.200593
9105.000000;0.200414
9104.000000;0.200424
9103.000000;0.200492
9102.000000;0.200452
9101.000000;0.200244
9100.000000;0.199930
9099.000000;0.199599
9098.000000;0.199284
9097.000000;0.198980
9096.000000;0.198679
9095.000000;0.198380
9094.000000;0.198106
9093.000000;0.197911
9092.000000;0.197836
9091.000000;0.197842
9090.000000;0.197814
9089.000000;0.197654
9088.000000;0.197353
9087.000000;0.196975
9086.000000;0.196616
9085.000000;0.196380
9084.000000;0.196330
9083.000000;0.196400
9082.000000;0.196409
9081.000000;0.196222
9080.000000;0.195906
9079.000000;0.195652
9078.000000;0.195562
9077.000000;0.195544
9076.000000;0.195434
9075.000000;0.195172
9074.000000;0.194838
9073.000000;0.194544
9072.000000;0.194333
9071.000000;0.194145
9070.000000;0.193886
9069.000000;0.193520
9068.000000;0.193121
9067.000000;0.192799
9066.000000;0.192596
9065.000000;0.192458
9064.000000;0.192318
9063.000000;0.192180
9062.000000;0.192089
9061.000000;0.192046
9060.000000;0.191985
9059.000000;0.191833
9058.000000;0.191577
9057.000000;0.191275
9056.000000;0.191007
9055.000000;0.190806
9054.000000;0.190638
9053.000000;0.190438
