Criado como novo conjunto de dados;"e2410_daniel_v2.spp","61745.0 Secs"
cm-1;Abs
10000.000000;1.191502
9999.000000;1.190818
9998.000000;1.190135
9997.000000;1.189454
9996.000000;1.188773
9995.000000;1.188093
9994.000000;1.187415
9993.000000;1.186737
9992.000000;1.186062
9991.000000;1.185383
9990.000000;1.184716
9989.000000;1.184013
9988.000000;1.183279
9987.000000;1.182427
9986.000000;1.181334
9985.000000;1.180209
9984.000000;1.179476
9983.000000;1.179358
9982.000000;1.179560
9981.000000;1.179527
9980.000000;1.178976
9979.000000;1.178087
9978.000000;1.177151
9977.000000;1.176209
9976.000000;1.175169
9975.000000;1.174213
9974.000000;1.173851
9973.000000;1.174407
9972.000000;1.175527
9971.000000;1.176377
9970.000000;1.176379
9969.000000;1.175625
9968.000000;1.174548
9967.000000;1.173420
9966.000000;1.172319
9965.000000;1.171409
9964.000000;1.170921
9963.000000;1.170840
9962.000000;1.170823
9961.000000;1.170527
9960.000000;1.169923
9959.000000;1.169232
9958.000000;1.168651
9957.000000;1.168200
9956.000000;1.167768
9955.000000;1.167221
9954.000000;1.166495
9953.000000;1.165661
9952.000000;1.164922
9951.000000;1.164497
9950.000000;1.164447
9949.000000;1.164541
9948.000000;1.164358
9947.000000;1.163656
9946.000000;1.162649
9945.000000;1.161791
9944.000000;1.161224
9943.000000;1.160623
9942.000000;1.159736
9941.000000;1.158892
9940.000000;1.158672
9939.000000;1.159116
9938.000000;1.159553
9937.000000;1.159328
9936.000000;1.158489
9935.000000;1.157573
9934.000000;1.156901
9933.000000;1.156360
9932.000000;1.155812
9931.000000;1.155403
9930.000000;1.155273
9929.000000;1.155162
9928.000000;1.154610
9927.000000;1.153534
9926.000000;1.152385
9925.000000;1.151583
9924.000000;1.151025
9923.000000;1.150339
9922.000000;1.149487
9921.000000;1.148791
9920.000000;1.148421
9919.000000;1.148201
9918.000000;1.147976
9917.000000;1.147827
9916.000000;1.147747
9915.000000;1.147419
9914.000000;1.146615
9913.000000;1.145575
9912.000000;1.144714
9911.000000;1.144091
9910.000000;1.143512
9909.000000;1.143008
9908.000000;1.142819
9907.000000;1.142878
9906.000000;1.142702
9905.000000;1.141959
9904.000000;1.140904
9903.000000;1.140083
9902.000000;1.139729
9901.000000;1.139625
9900.000000;1.139495
9899.000000;1.139314
9898.000000;1.139204
9897.000000;1.139131
9896.000000;1.138829
9895.000000;1.138109
9894.000000;1.137184
9893.000000;1.136506
9892.000000;1.136242
9891.000000;1.136096
9890.000000;1.135711
9889.000000;1.135069
9888.000000;1.134351
9887.000000;1.133586
9886.000000;1.132644
9885.000000;1.131488
9884.000000;1.130252
9883.000000;1.129156
9882.000000;1.128459
9881.000000;1.128374
9880.000000;1.128824
9879.000000;1.129383
9878.000000;1.129634
9877.000000;1.129523
9876.000000;1.129226
9875.000000;1.128828
9874.000000;1.128337
9873.000000;1.127866
9872.000000;1.127527
9871.000000;1.127230
9870.000000;1.126809
9869.000000;1.126243
9868.000000;1.125506
9867.000000;1.124376
9866.000000;1.122758
9865.000000;1.121117
9864.000000;1.120188
9863.000000;1.120195
9862.000000;1.120613
9861.000000;1.120748
9860.000000;1.120306
9859.000000;1.119424
9858.000000;1.118461
9857.000000;1.117831
9856.000000;1.117700
9855.000000;1.117730
9854.000000;1.117384
9853.000000;1.116577
9852.000000;1.115733
9851.000000;1.115122
9850.000000;1.114455
9849.000000;1.113370
9848.000000;1.112048
9847.000000;1.111066
9846.000000;1.110772
9845.000000;1.110995
9844.000000;1.111288
9843.000000;1.111270
9842.000000;1.110791
9841.000000;1.109956
9840.000000;1.109018
9839.000000;1.108205
9838.000000;1.107647
9837.000000;1.107416
9836.000000;1.107517
9835.000000;1.107821
9834.000000;1.108094
9833.000000;1.108151
9832.000000;1.107932
9831.000000;1.107484
9830.000000;1.106972
9829.000000;1.106611
9828.000000;1.106383
9827.000000;1.105884
9826.000000;1.104723
9825.000000;1.103121
9824.000000;1.101809
9823.000000;1.101252
9822.000000;1.101147
9821.000000;1.100845
9820.000000;1.100091
9819.000000;1.099221
9818.000000;1.098747
9817.000000;1.098857
9816.000000;1.099225
9815.000000;1.099231
9814.000000;1.098504
9813.000000;1.097323
9812.000000;1.096390
9811.000000;1.096128
9810.000000;1.096312
9809.000000;1.096418
9808.000000;1.096177
9807.000000;1.095694
9806.000000;1.095167
9805.000000;1.094640
9804.000000;1.094023
9803.000000;1.093254
9802.000000;1.092426
9801.000000;1.091759
9800.000000;1.091360
9799.000000;1.091097
9798.000000;1.090803
9797.000000;1.090551
9796.000000;1.090518
9795.000000;1.090606
9794.000000;1.090482
9793.000000;1.090045
9792.000000;1.089587
9791.000000;1.089334
9790.000000;1.089060
9789.000000;1.088405
9788.000000;1.087416
9787.000000;1.086520
9786.000000;1.085990
9785.000000;1.085654
9784.000000;1.085185
9783.000000;1.084522
9782.000000;1.083911
9781.000000;1.083559
9780.000000;1.083349
9779.000000;1.082931
9778.000000;1.082122
9777.000000;1.081107
9776.000000;1.080175
9775.000000;1.079342
9774.000000;1.078425
9773.000000;1.077480
9772.000000;1.076903
9771.000000;1.076956
9770.000000;1.077333
9769.000000;1.077398
9768.000000;1.076815
9767.000000;1.075812
9766.000000;1.074847
9765.000000;1.074187
9764.000000;1.073819
9763.000000;1.073613
9762.000000;1.073464
9761.000000;1.073308
9760.000000;1.073084
9759.000000;1.072715
9758.000000;1.072159
9757.000000;1.071468
9756.000000;1.070784
9755.000000;1.070238
9754.000000;1.069843
9753.000000;1.069444
9752.000000;1.068823
9751.000000;1.067904
9750.000000;1.066884
9749.000000;1.066086
9748.000000;1.065652
9747.000000;1.065406
9746.000000;1.065072
9745.000000;1.064583
9744.000000;1.064150
9743.000000;1.064053
9742.000000;1.064375
9741.000000;1.064865
9740.000000;1.065082
9739.000000;1.064763
9738.000000;1.064086
9737.000000;1.063444
9736.000000;1.062918
9735.000000;1.062193
9734.000000;1.061096
9733.000000;1.060005
9732.000000;1.059457
9731.000000;1.059462
9730.000000;1.059464
9729.000000;1.058992
9728.000000;1.058152
9727.000000;1.057379
9726.000000;1.056897
9725.000000;1.056554
9724.000000;1.056105
9723.000000;1.055514
9722.000000;1.054948
9721.000000;1.054507
9720.000000;1.054072
9719.000000;1.053479
9718.000000;1.052792
9717.000000;1.052254
9716.000000;1.051982
9715.000000;1.051886
9714.000000;1.051902
9713.000000;1.052067
9712.000000;1.052272
9711.000000;1.052189
9710.000000;1.051608
9709.000000;1.050639
9708.000000;1.049425
9707.000000;1.047976
9706.000000;1.046537
9705.000000;1.045766
9704.000000;1.046098
9703.000000;1.047032
9702.000000;1.047512
9701.000000;1.047020
9700.000000;1.045948
9699.000000;1.044879
9698.000000;1.043996
9697.000000;1.043269
9696.000000;1.042768
9695.000000;1.042521
9694.000000;1.042335
9693.000000;1.042026
9692.000000;1.041643
9691.000000;1.041286
9690.000000;1.040898
9689.000000;1.040425
9688.000000;1.040007
9687.000000;1.039793
9686.000000;1.039640
9685.000000;1.039248
9684.000000;1.038567
9683.000000;1.037865
9682.000000;1.037353
9681.000000;1.036885
9680.000000;1.036172
9679.000000;1.035233
9678.000000;1.034474
9677.000000;1.034235
9676.000000;1.034360
9675.000000;1.034376
9674.000000;1.034058
9673.000000;1.033586
9672.000000;1.033118
9671.000000;1.032533
9670.000000;1.031759
9669.000000;1.031043
9668.000000;1.030610
9667.000000;1.030283
9666.000000;1.029759
9665.000000;1.029114
9664.000000;1.028650
9663.000000;1.028362
9662.000000;1.027948
9661.000000;1.027344
9660.000000;1.026821
9659.000000;1.026505
9658.000000;1.026199
9657.000000;1.025765
9656.000000;1.025324
9655.000000;1.024937
9654.000000;1.024418
9653.000000;1.023689
9652.000000;1.023042
9651.000000;1.022818
9650.000000;1.022989
9649.000000;1.023206
9648.000000;1.023135
9647.000000;1.022655
9646.000000;1.021940
9645.000000;1.021392
9644.000000;1.021267
9643.000000;1.021263
9642.000000;1.020753
9641.000000;1.019571
9640.000000;1.018323
9639.000000;1.017704
9638.000000;1.017769
9637.000000;1.018056
9636.000000;1.018202
9635.000000;1.018123
9634.000000;1.017788
9633.000000;1.017173
9632.000000;1.016442
9631.000000;1.015882
9630.000000;1.015592
9629.000000;1.015378
9628.000000;1.014978
9627.000000;1.014283
9626.000000;1.013363
9625.000000;1.012409
9624.000000;1.011626
9623.000000;1.011063
9622.000000;1.010553
9621.000000;1.009908
9620.000000;1.009167
9619.000000;1.008561
9618.000000;1.008251
9617.000000;1.008163
9616.000000;1.008106
9615.000000;1.007981
9614.000000;1.007831
9613.000000;1.007659
9612.000000;1.007269
9611.000000;1.006405
9610.000000;1.005140
9609.000000;1.003953
9608.000000;1.003281
9607.000000;1.003064
9606.000000;1.002936
9605.000000;1.002771
9604.000000;1.002741
9603.000000;1.002831
9602.000000;1.002671
9601.000000;1.002016
9600.000000;1.001103
9599.000000;1.000298
9598.000000;0.999621
9597.000000;0.998907
9596.000000;0.998279
9595.000000;0.998089
9594.000000;0.998394
9593.000000;0.998759
9592.000000;0.998681
9591.000000;0.998088
9590.000000;0.997346
9589.000000;0.996880
9588.000000;0.996801
9587.000000;0.996832
9586.000000;0.996578
9585.000000;0.995935
9584.000000;0.995214
9583.000000;0.994793
9582.000000;0.994675
9581.000000;0.994481
9580.000000;0.993868
9579.000000;0.992878
9578.000000;0.991879
9577.000000;0.991225
9576.000000;0.990980
9575.000000;0.990900
9574.000000;0.990672
9573.000000;0.990224
9572.000000;0.989790
9571.000000;0.989634
9570.000000;0.989689
9569.000000;0.989518
9568.000000;0.988690
9567.000000;0.987242
9566.000000;0.985765
9565.000000;0.984994
9564.000000;0.985193
9563.000000;0.985924
9562.000000;0.986423
9561.000000;0.986260
9560.000000;0.985632
9559.000000;0.985031
9558.000000;0.984708
9557.000000;0.984487
9556.000000;0.984018
9555.000000;0.983179
9554.000000;0.982246
9553.000000;0.981660
9552.000000;0.981589
9551.000000;0.981726
9550.000000;0.981592
9549.000000;0.981050
9548.000000;0.980419
9547.000000;0.980081
9546.000000;0.980045
9545.000000;0.979988
9544.000000;0.979633
9543.000000;0.978995
9542.000000;0.978269
9541.000000;0.977583
9540.000000;0.976960
9539.000000;0.976450
9538.000000;0.976204
9537.000000;0.976320
9536.000000;0.976631
9535.000000;0.976765
9534.000000;0.976463
9533.000000;0.975793
9532.000000;0.975010
9531.000000;0.974272
9530.000000;0.973573
9529.000000;0.972914
9528.000000;0.972392
9527.000000;0.972101
9526.000000;0.972009
9525.000000;0.971997
9524.000000;0.971959
9523.000000;0.971842
9522.000000;0.971610
9521.000000;0.971197
9520.000000;0.970509
9519.000000;0.969518
9518.000000;0.968369
9517.000000;0.967354
9516.000000;0.966696
9515.000000;0.966362
9514.000000;0.966092
9513.000000;0.965625
9512.000000;0.964914
9511.000000;0.964146
9510.000000;0.963574
9509.000000;0.963292
9508.000000;0.963212
9507.000000;0.963237
9506.000000;0.963388
9505.000000;0.963649
9504.000000;0.963775
9503.000000;0.963471
9502.000000;0.962799
9501.000000;0.962171
9500.000000;0.961861
9499.000000;0.961713
9498.000000;0.961439
9497.000000;0.961019
9496.000000;0.960634
9495.000000;0.960343
9494.000000;0.960032
9493.000000;0.959626
9492.000000;0.959193
9491.000000;0.958856
9490.000000;0.958681
9489.000000;0.958575
9488.000000;0.958254
9487.000000;0.957467
9486.000000;0.956360
9485.000000;0.955436
9484.000000;0.955012
9483.000000;0.954895
9482.000000;0.954760
9481.000000;0.954582
9480.000000;0.954437
9479.000000;0.954121
9478.000000;0.953384
9477.000000;0.952457
9476.000000;0.951902
9475.000000;0.951873
9474.000000;0.951899
9473.000000;0.951496
9472.000000;0.950689
9471.000000;0.949826
9470.000000;0.949191
9469.000000;0.948936
9468.000000;0.949101
9467.000000;0.949490
9466.000000;0.949703
9465.000000;0.949526
9464.000000;0.949167
9463.000000;0.948935
9462.000000;0.948802
9461.000000;0.948472
9460.000000;0.947815
9459.000000;0.947038
9458.000000;0.946418
9457.000000;0.945992
9456.000000;0.945565
9455.000000;0.944946
9454.000000;0.944151
9453.000000;0.943365
9452.000000;0.942761
9451.000000;0.942384
9450.000000;0.942215
9449.000000;0.942244
9448.000000;0.942387
9447.000000;0.942402
9446.000000;0.942028
9445.000000;0.941251
9444.000000;0.940364
9443.000000;0.939746
9442.000000;0.939579
9441.000000;0.939742
9440.000000;0.939930
9439.000000;0.939902
9438.000000;0.939670
9437.000000;0.939401
9436.000000;0.939126
9435.000000;0.938668
9434.000000;0.937957
9433.000000;0.937236
9432.000000;0.936799
9431.000000;0.936632
9430.000000;0.936488
9429.000000;0.936283
9428.000000;0.936181
9427.000000;0.936311
9426.000000;0.936561
9425.000000;0.936656
9424.000000;0.936345
9423.000000;0.935550
9422.000000;0.934475
9421.000000;0.933522
9420.000000;0.932967
9419.000000;0.932735
9418.000000;0.932584
9417.000000;0.932419
9416.000000;0.932263
9415.000000;0.932060
9414.000000;0.931723
9413.000000;0.931314
9412.000000;0.930941
9411.000000;0.930516
9410.000000;0.929856
9409.000000;0.928979
9408.000000;0.928110
9407.000000;0.927410
9406.000000;0.926952
9405.000000;0.926849
9404.000000;0.927094
9403.000000;0.927300
9402.000000;0.926977
9401.000000;0.926162
9400.000000;0.925439
9399.000000;0.925199
9398.000000;0.925205
9397.000000;0.925049
9396.000000;0.924736
9395.000000;0.924526
9394.000000;0.924410
9393.000000;0.924084
9392.000000;0.923411
9391.000000;0.922670
9390.000000;0.922261
9389.000000;0.922273
9388.000000;0.922354
9387.000000;0.922018
9386.000000;0.921143
9385.000000;0.920164
9384.000000;0.919658
9383.000000;0.919769
9382.000000;0.920131
9381.000000;0.920332
9380.000000;0.920238
9379.000000;0.919878
9378.000000;0.919288
9377.000000;0.918627
9376.000000;0.918214
9375.000000;0.918220
9374.000000;0.918418
9373.000000;0.918399
9372.000000;0.917986
9371.000000;0.917312
9370.000000;0.916558
9369.000000;0.915776
9368.000000;0.914936
9367.000000;0.914060
9366.000000;0.913296
9365.000000;0.912859
9364.000000;0.912820
9363.000000;0.912919
9362.000000;0.912737
9361.000000;0.912131
9360.000000;0.911415
9359.000000;0.910998
9358.000000;0.910916
9357.000000;0.910847
9356.000000;0.910513
9355.000000;0.909968
9354.000000;0.909467
9353.000000;0.909147
9352.000000;0.908892
9351.000000;0.908491
9350.000000;0.907902
9349.000000;0.907327
9348.000000;0.907017
9347.000000;0.907037
9346.000000;0.907226
9345.000000;0.907351
9344.000000;0.907257
9343.000000;0.906963
9342.000000;0.906679
9341.000000;0.906622
9340.000000;0.906728
9339.000000;0.906645
9338.000000;0.906162
9337.000000;0.905529
9336.000000;0.905154
9335.000000;0.905072
9334.000000;0.904954
9333.000000;0.904598
9332.000000;0.904144
9331.000000;0.903766
9330.000000;0.903444
9329.000000;0.903135
9328.000000;0.902916
9327.000000;0.902806
9326.000000;0.902635
9325.000000;0.902239
9324.000000;0.901675
9323.000000;0.901117
9322.000000;0.900667
9321.000000;0.900377
9320.000000;0.900290
9319.000000;0.900314
9318.000000;0.900165
9317.000000;0.899631
9316.000000;0.898835
9315.000000;0.898119
9314.000000;0.897684
9313.000000;0.897451
9312.000000;0.897209
9311.000000;0.896823
9310.000000;0.896325
9309.000000;0.895873
9308.000000;0.895612
9307.000000;0.895511
9306.000000;0.895388
9305.000000;0.895129
9304.000000;0.894833
9303.000000;0.894675
9302.000000;0.894701
9301.000000;0.894799
9300.000000;0.894810
9299.000000;0.894616
9298.000000;0.894175
9297.000000;0.893533
9296.000000;0.892797
9295.000000;0.892098
9294.000000;0.891592
9293.000000;0.891444
9292.000000;0.891666
9291.000000;0.891966
9290.000000;0.891916
9289.000000;0.891348
9288.000000;0.890482
9287.000000;0.889632
9286.000000;0.888935
9285.000000;0.888436
9284.000000;0.888250
9283.000000;0.888451
9282.000000;0.888844
9281.000000;0.889038
9280.000000;0.888771
9279.000000;0.888085
9278.000000;0.887196
9277.000000;0.886285
9276.000000;0.885444
9275.000000;0.884759
9274.000000;0.884355
9273.000000;0.884311
9272.000000;0.884522
9271.000000;0.884674
9270.000000;0.884437
9269.000000;0.883734
9268.000000;0.882842
9267.000000;0.882212
9266.000000;0.882134
9265.000000;0.882498
9264.000000;0.882846
9263.000000;0.882745
9262.000000;0.882178
9261.000000;0.881536
9260.000000;0.881167
9259.000000;0.881024
9258.000000;0.880824
9257.000000;0.880456
9256.000000;0.880053
9255.000000;0.879747
9254.000000;0.879523
9253.000000;0.879315
9252.000000;0.879097
9251.000000;0.878853
9250.000000;0.878585
9249.000000;0.878379
9248.000000;0.878301
9247.000000;0.878233
9246.000000;0.877969
9245.000000;0.877523
9244.000000;0.877156
9243.000000;0.877017
9242.000000;0.876934
9241.000000;0.876711
9240.000000;0.876450
9239.000000;0.876387
9238.000000;0.876484
9237.000000;0.876387
9236.000000;0.875844
9235.000000;0.874994
9234.000000;0.874202
9233.000000;0.873706
9232.000000;0.873483
9231.000000;0.873402
9230.000000;0.873353
9229.000000;0.873232
9228.000000;0.872928
9227.000000;0.872429
9226.000000;0.871922
9225.000000;0.871648
9224.000000;0.871636
9223.000000;0.871673
9222.000000;0.871564
9221.000000;0.871336
9220.000000;0.871109
9219.000000;0.870910
9218.000000;0.870704
9217.000000;0.870514
9216.000000;0.870371
9215.000000;0.870215
9214.000000;0.869974
9213.000000;0.869709
9212.000000;0.869520
9211.000000;0.869361
9210.000000;0.869090
9209.000000;0.868709
9208.000000;0.868410
9207.000000;0.868330
9206.000000;0.868364
9205.000000;0.868273
9204.000000;0.867926
9203.000000;0.867413
9202.000000;0.866984
9201.000000;0.866817
9200.000000;0.866804
9199.000000;0.866621
9198.000000;0.866093
9197.000000;0.865416
9196.000000;0.864901
9195.000000;0.864598
9194.000000;0.864339
9193.000000;0.864085
9192.000000;0.863987
9191.000000;0.864085
9190.000000;0.864174
9189.000000;0.864042
9188.000000;0.863685
9187.000000;0.863204
9186.000000;0.862665
9185.000000;0.862152
9184.000000;0.861829
9183.000000;0.861798
9182.000000;0.861933
9181.000000;0.861970
9180.000000;0.861768
9179.000000;0.861406
9178.000000;0.861019
9177.000000;0.860617
9176.000000;0.860110
9175.000000;0.859504
9174.000000;0.859000
9173.000000;0.858818
9172.000000;0.858955
9171.000000;0.859193
9170.000000;0.859339
9169.000000;0.859342
9168.000000;0.859152
9167.000000;0.858657
9166.000000;0.857866
9165.000000;0.857012
9164.000000;0.856339
9163.000000;0.855895
9162.000000;0.855663
9161.000000;0.855714
9160.000000;0.856042
9159.000000;0.856366
9158.000000;0.856350
9157.000000;0.855976
9156.000000;0.855492
9155.000000;0.855054
9154.000000;0.854649
9153.000000;0.854309
9152.000000;0.854131
9151.000000;0.854043
9150.000000;0.853831
9149.000000;0.853437
9148.000000;0.853031
9147.000000;0.852716
9146.000000;0.852378
9145.000000;0.851922
9144.000000;0.851484
9143.000000;0.851289
9142.000000;0.851367
9141.000000;0.851522
9140.000000;0.851533
9139.000000;0.851349
9138.000000;0.851123
9137.000000;0.851040
9136.000000;0.851052
9135.000000;0.850881
9134.000000;0.850366
9133.000000;0.849753
9132.000000;0.849468
9131.000000;0.849671
9130.000000;0.850184
9129.000000;0.850752
9128.000000;0.851166
9127.000000;0.851187
9126.000000;0.850635
9125.000000;0.849639
9124.000000;0.848595
9123.000000;0.847808
9122.000000;0.847303
9121.000000;0.846959
9120.000000;0.846635
9119.000000;0.846173
9118.000000;0.845523
9117.000000;0.844897
9116.000000;0.844573
9115.000000;0.844521
9114.000000;0.844446
9113.000000;0.844235
9112.000000;0.844102
9111.000000;0.844201
9110.000000;0.844377
9109.000000;0.844444
9108.000000;0.844465
9107.000000;0.844563
9106.000000;0.844618
9105.000000;0.844368
9104.000000;0.843722
9103.000000;0.842862
9102.000000;0.842126
9101.000000;0.841865
9100.000000;0.842230
9099.000000;0.842942
9098.000000;0.843393
9097.000000;0.843153
9096.000000;0.842334
9095.000000;0.841378
9094.000000;0.840614
9093.000000;0.840131
9092.000000;0.839908
9091.000000;0.839888
9090.000000;0.839965
9089.000000;0.840050
9088.000000;0.840124
9087.000000;0.840160
9086.000000;0.840085
9085.000000;0.839883
9084.000000;0.839668
9083.000000;0.839517
9082.000000;0.839324
9081.000000;0.838929
9080.000000;0.838356
9079.000000;0.837822
9078.000000;0.837485
9077.000000;0.837279
9076.000000;0.837020
9075.000000;0.836648
9074.000000;0.836338
9073.000000;0.836313
9072.000000;0.836543
9071.000000;0.836677
9070.000000;0.836403
9069.000000;0.835812
9068.000000;0.835279
9067.000000;0.835000
9066.000000;0.834821
9065.000000;0.834527
9064.000000;0.834129
9063.000000;0.833788
9062.000000;0.833597
9061.000000;0.833539
9060.000000;0.833561
9059.000000;0.833603
9058.000000;0.833617
9057.000000;0.833598
9056.000000;0.833548
9055.000000;0.833405
9054.000000;0.833113
9053.000000;0.832748
