Criado como novo conjunto de dados;"e2410_daniel_v2.spp","48424.2 Secs"
cm-1;Abs
10000.000000;1.093543
9999.000000;1.093903
9998.000000;1.093830
9997.000000;1.093407
9996.000000;1.092940
9995.000000;1.092308
9994.000000;1.091501
9993.000000;1.090986
9992.000000;1.091023
9991.000000;1.091064
9990.000000;1.090436
9989.000000;1.089214
9988.000000;1.087923
9987.000000;1.086784
9986.000000;1.085725
9985.000000;1.084792
9984.000000;1.084119
9983.000000;1.083695
9982.000000;1.083440
9981.000000;1.083299
9980.000000;1.083170
9979.000000;1.082999
9978.000000;1.082960
9977.000000;1.083140
9976.000000;1.083095
9975.000000;1.082240
9974.000000;1.080679
9973.000000;1.079075
9972.000000;1.077759
9971.000000;1.076590
9970.000000;1.075637
9969.000000;1.075255
9968.000000;1.075431
9967.000000;1.075737
9966.000000;1.075999
9965.000000;1.076270
9964.000000;1.076162
9963.000000;1.075076
9962.000000;1.073280
9961.000000;1.071876
9960.000000;1.071442
9959.000000;1.071473
9958.000000;1.071346
9957.000000;1.071091
9956.000000;1.070933
9955.000000;1.070842
9954.000000;1.070809
9953.000000;1.070883
9952.000000;1.070702
9951.000000;1.069716
9950.000000;1.068117
9949.000000;1.066792
9948.000000;1.066103
9947.000000;1.065508
9946.000000;1.064610
9945.000000;1.063805
9944.000000;1.063534
9943.000000;1.063611
9942.000000;1.063664
9941.000000;1.063608
9940.000000;1.063360
9939.000000;1.062738
9938.000000;1.061944
9937.000000;1.061506
9936.000000;1.061472
9935.000000;1.061279
9934.000000;1.060670
9933.000000;1.060021
9932.000000;1.059551
9931.000000;1.058947
9930.000000;1.058093
9929.000000;1.057428
9928.000000;1.057175
9927.000000;1.056890
9926.000000;1.056173
9925.000000;1.055280
9924.000000;1.054652
9923.000000;1.054365
9922.000000;1.054313
9921.000000;1.054376
9920.000000;1.054183
9919.000000;1.053281
9918.000000;1.051851
9917.000000;1.050700
9916.000000;1.050314
9915.000000;1.050419
9914.000000;1.050596
9913.000000;1.050708
9912.000000;1.050536
9911.000000;1.049725
9910.000000;1.048427
9909.000000;1.047401
9908.000000;1.047155
9907.000000;1.047431
9906.000000;1.047699
9905.000000;1.047636
9904.000000;1.047027
9903.000000;1.045828
9902.000000;1.044497
9901.000000;1.043663
9900.000000;1.043280
9899.000000;1.042699
9898.000000;1.041700
9897.000000;1.040808
9896.000000;1.040437
9895.000000;1.040361
9894.000000;1.040266
9893.000000;1.040166
9892.000000;1.040079
9891.000000;1.039854
9890.000000;1.039500
9889.000000;1.039131
9888.000000;1.038503
9887.000000;1.037249
9886.000000;1.035684
9885.000000;1.034680
9884.000000;1.034573
9883.000000;1.034787
9882.000000;1.034659
9881.000000;1.034028
9880.000000;1.032976
9879.000000;1.031729
9878.000000;1.030896
9877.000000;1.031019
9876.000000;1.031676
9875.000000;1.031751
9874.000000;1.030830
9873.000000;1.029637
9872.000000;1.028914
9871.000000;1.028608
9870.000000;1.028378
9869.000000;1.028156
9868.000000;1.027931
9867.000000;1.027607
9866.000000;1.027316
9865.000000;1.027279
9864.000000;1.027201
9863.000000;1.026463
9862.000000;1.025074
9861.000000;1.023756
9860.000000;1.022955
9859.000000;1.022445
9858.000000;1.022045
9857.000000;1.021939
9856.000000;1.022111
9855.000000;1.022149
9854.000000;1.021871
9853.000000;1.021487
9852.000000;1.020989
9851.000000;1.020074
9850.000000;1.018833
9849.000000;1.017801
9848.000000;1.017176
9847.000000;1.016654
9846.000000;1.016147
9845.000000;1.015899
9844.000000;1.015780
9843.000000;1.015280
9842.000000;1.014397
9841.000000;1.013723
9840.000000;1.013449
9839.000000;1.013087
9838.000000;1.012418
9837.000000;1.011845
9836.000000;1.011511
9835.000000;1.010904
9834.000000;1.009759
9833.000000;1.008610
9832.000000;1.008057
9831.000000;1.008099
9830.000000;1.008474
9829.000000;1.008981
9828.000000;1.009235
9827.000000;1.008799
9826.000000;1.007890
9825.000000;1.007290
9824.000000;1.007271
9823.000000;1.007246
9822.000000;1.006704
9821.000000;1.005818
9820.000000;1.004903
9819.000000;1.004012
9818.000000;1.003325
9817.000000;1.003166
9816.000000;1.003296
9815.000000;1.002898
9814.000000;1.001644
9813.000000;1.000161
9812.000000;0.999116
9811.000000;0.998510
9810.000000;0.998110
9809.000000;0.997904
9808.000000;0.997815
9807.000000;0.997589
9806.000000;0.997282
9805.000000;0.997251
9804.000000;0.997405
9803.000000;0.997170
9802.000000;0.996440
9801.000000;0.995837
9800.000000;0.995702
9799.000000;0.995567
9798.000000;0.995006
9797.000000;0.994281
9796.000000;0.993734
9795.000000;0.993172
9794.000000;0.992357
9793.000000;0.991522
9792.000000;0.990959
9791.000000;0.990595
9790.000000;0.990325
9789.000000;0.990249
9788.000000;0.990242
9787.000000;0.989808
9786.000000;0.988758
9785.000000;0.987580
9784.000000;0.986778
9783.000000;0.986286
9782.000000;0.985788
9781.000000;0.985182
9780.000000;0.984489
9779.000000;0.983734
9778.000000;0.983138
9777.000000;0.982999
9776.000000;0.983195
9775.000000;0.983222
9774.000000;0.982865
9773.000000;0.982366
9772.000000;0.981867
9771.000000;0.981224
9770.000000;0.980441
9769.000000;0.979744
9768.000000;0.979114
9767.000000;0.978333
9766.000000;0.977535
9765.000000;0.977100
9764.000000;0.976951
9763.000000;0.976640
9762.000000;0.976192
9761.000000;0.976143
9760.000000;0.976547
9759.000000;0.976724
9758.000000;0.976222
9757.000000;0.975322
9756.000000;0.974338
9755.000000;0.973157
9754.000000;0.971812
9753.000000;0.970802
9752.000000;0.970456
9751.000000;0.970511
9750.000000;0.970651
9749.000000;0.970924
9748.000000;0.971310
9747.000000;0.971403
9746.000000;0.970887
9745.000000;0.969935
9744.000000;0.968911
9743.000000;0.968024
9742.000000;0.967401
9741.000000;0.967033
9740.000000;0.966608
9739.000000;0.965870
9738.000000;0.965121
9737.000000;0.964836
9736.000000;0.964816
9735.000000;0.964386
9734.000000;0.963444
9733.000000;0.962587
9732.000000;0.962128
9731.000000;0.961790
9730.000000;0.961453
9729.000000;0.961404
9728.000000;0.961615
9727.000000;0.961576
9726.000000;0.961135
9725.000000;0.960755
9724.000000;0.960672
9723.000000;0.960494
9722.000000;0.959910
9721.000000;0.959108
9720.000000;0.958221
9719.000000;0.957069
9718.000000;0.955754
9717.000000;0.954779
9716.000000;0.954261
9715.000000;0.953688
9714.000000;0.952806
9713.000000;0.952072
9712.000000;0.951867
9711.000000;0.951897
9710.000000;0.951778
9709.000000;0.951621
9708.000000;0.951607
9707.000000;0.951512
9706.000000;0.951116
9705.000000;0.950634
9704.000000;0.950357
9703.000000;0.950230
9702.000000;0.950075
9701.000000;0.949848
9700.000000;0.949441
9699.000000;0.948658
9698.000000;0.947595
9697.000000;0.946667
9696.000000;0.946100
9695.000000;0.945750
9694.000000;0.945458
9693.000000;0.945156
9692.000000;0.944640
9691.000000;0.943804
9690.000000;0.943106
9689.000000;0.943177
9688.000000;0.943883
9687.000000;0.944382
9686.000000;0.944212
9685.000000;0.943678
9684.000000;0.943083
9683.000000;0.942332
9682.000000;0.941465
9681.000000;0.940847
9680.000000;0.940531
9679.000000;0.940097
9678.000000;0.939362
9677.000000;0.938634
9676.000000;0.938038
9675.000000;0.937223
9674.000000;0.936037
9673.000000;0.934908
9672.000000;0.934267
9671.000000;0.934105
9670.000000;0.934254
9669.000000;0.934541
9668.000000;0.934508
9667.000000;0.933646
9666.000000;0.932187
9665.000000;0.931054
9664.000000;0.930805
9663.000000;0.931137
9662.000000;0.931549
9661.000000;0.931869
9660.000000;0.931946
9659.000000;0.931506
9658.000000;0.930637
9657.000000;0.929829
9656.000000;0.929275
9655.000000;0.928683
9654.000000;0.927956
9653.000000;0.927414
9652.000000;0.927085
9651.000000;0.926455
9650.000000;0.925255
9649.000000;0.923981
9648.000000;0.923272
9647.000000;0.923216
9646.000000;0.923510
9645.000000;0.923841
9644.000000;0.923895
9643.000000;0.923472
9642.000000;0.922805
9641.000000;0.922354
9640.000000;0.922141
9639.000000;0.921739
9638.000000;0.920999
9637.000000;0.920251
9636.000000;0.919729
9635.000000;0.919345
9634.000000;0.919128
9633.000000;0.919243
9632.000000;0.919474
9631.000000;0.919347
9630.000000;0.918862
9629.000000;0.918482
9628.000000;0.918248
9627.000000;0.917629
9626.000000;0.916439
9625.000000;0.915191
9624.000000;0.914288
9623.000000;0.913536
9622.000000;0.912734
9621.000000;0.912098
9620.000000;0.911786
9619.000000;0.911581
9618.000000;0.911350
9617.000000;0.911305
9616.000000;0.911515
9615.000000;0.911649
9614.000000;0.911465
9613.000000;0.911074
9612.000000;0.910546
9611.000000;0.909786
9610.000000;0.908963
9609.000000;0.908497
9608.000000;0.908420
9607.000000;0.908279
9606.000000;0.907803
9605.000000;0.907137
9604.000000;0.906344
9603.000000;0.905323
9602.000000;0.904370
9601.000000;0.904099
9600.000000;0.904543
9599.000000;0.904929
9598.000000;0.904597
9597.000000;0.903646
9596.000000;0.902513
9595.000000;0.901505
9594.000000;0.900925
9593.000000;0.901001
9592.000000;0.901424
9591.000000;0.901499
9590.000000;0.900995
9589.000000;0.900320
9588.000000;0.899789
9587.000000;0.899339
9586.000000;0.899061
9585.000000;0.899249
9584.000000;0.899701
9583.000000;0.899683
9582.000000;0.898888
9581.000000;0.897815
9580.000000;0.896942
9579.000000;0.896213
9578.000000;0.895548
9577.000000;0.895149
9576.000000;0.894959
9575.000000;0.894497
9574.000000;0.893599
9573.000000;0.892756
9572.000000;0.892404
9571.000000;0.892399
9570.000000;0.892447
9569.000000;0.892452
9568.000000;0.892228
9567.000000;0.891510
9566.000000;0.890549
9565.000000;0.890040
9564.000000;0.890154
9563.000000;0.890252
9562.000000;0.889851
9561.000000;0.889240
9560.000000;0.888852
9559.000000;0.888665
9558.000000;0.888559
9557.000000;0.888614
9556.000000;0.888647
9555.000000;0.888098
9554.000000;0.886836
9553.000000;0.885527
9552.000000;0.884793
9551.000000;0.884506
9550.000000;0.884260
9549.000000;0.883979
9548.000000;0.883677
9547.000000;0.883157
9546.000000;0.882396
9545.000000;0.881765
9544.000000;0.881472
9543.000000;0.881209
9542.000000;0.880668
9541.000000;0.879972
9540.000000;0.879294
9539.000000;0.878575
9538.000000;0.877915
9537.000000;0.877705
9536.000000;0.877974
9535.000000;0.878096
9534.000000;0.877555
9533.000000;0.876604
9532.000000;0.875802
9531.000000;0.875332
9530.000000;0.875124
9529.000000;0.875176
9528.000000;0.875338
9527.000000;0.875160
9526.000000;0.874392
9525.000000;0.873352
9524.000000;0.872511
9523.000000;0.872021
9522.000000;0.871819
9521.000000;0.871818
9520.000000;0.871722
9519.000000;0.871134
9518.000000;0.870124
9517.000000;0.869304
9516.000000;0.869034
9515.000000;0.868957
9514.000000;0.868614
9513.000000;0.868141
9512.000000;0.867994
9511.000000;0.868271
9510.000000;0.868630
9509.000000;0.868672
9508.000000;0.868216
9507.000000;0.867453
9506.000000;0.866912
9505.000000;0.866949
9504.000000;0.867171
9503.000000;0.866783
9502.000000;0.865598
9501.000000;0.864282
9500.000000;0.863477
9499.000000;0.863158
9498.000000;0.862996
9497.000000;0.862840
9496.000000;0.862629
9495.000000;0.862290
9494.000000;0.861945
9493.000000;0.861804
9492.000000;0.861682
9491.000000;0.861086
9490.000000;0.859985
9489.000000;0.858990
9488.000000;0.858562
9487.000000;0.858463
9486.000000;0.858227
9485.000000;0.857741
9484.000000;0.857135
9483.000000;0.856521
9482.000000;0.856057
9481.000000;0.855908
9480.000000;0.855935
9479.000000;0.855818
9478.000000;0.855583
9477.000000;0.855583
9476.000000;0.855824
9475.000000;0.855826
9474.000000;0.855319
9473.000000;0.854631
9472.000000;0.854157
9471.000000;0.853915
9470.000000;0.853791
9469.000000;0.853748
9468.000000;0.853620
9467.000000;0.853177
9466.000000;0.852600
9465.000000;0.852378
9464.000000;0.852519
9463.000000;0.852392
9462.000000;0.851593
9461.000000;0.850486
9460.000000;0.849619
9459.000000;0.849077
9458.000000;0.848664
9457.000000;0.848253
9456.000000;0.847708
9455.000000;0.846906
9454.000000;0.846079
9453.000000;0.845695
9452.000000;0.845771
9451.000000;0.845779
9450.000000;0.845453
9449.000000;0.845168
9448.000000;0.845213
9447.000000;0.845244
9446.000000;0.844841
9445.000000;0.844183
9444.000000;0.843724
9443.000000;0.843548
9442.000000;0.843409
9441.000000;0.843134
9440.000000;0.842648
9439.000000;0.841886
9438.000000;0.840971
9437.000000;0.840251
9436.000000;0.839926
9435.000000;0.839856
9434.000000;0.839860
9433.000000;0.839899
9432.000000;0.839829
9431.000000;0.839366
9430.000000;0.838491
9429.000000;0.837560
9428.000000;0.836832
9427.000000;0.836247
9426.000000;0.835805
9425.000000;0.835711
9424.000000;0.835898
9423.000000;0.835863
9422.000000;0.835302
9421.000000;0.834586
9420.000000;0.834275
9419.000000;0.834427
9418.000000;0.834636
9417.000000;0.834522
9416.000000;0.833972
9415.000000;0.833135
9414.000000;0.832375
9413.000000;0.831990
9412.000000;0.831863
9411.000000;0.831624
9410.000000;0.831212
9409.000000;0.830939
9408.000000;0.830898
9407.000000;0.830720
9406.000000;0.830107
9405.000000;0.829277
9404.000000;0.828643
9403.000000;0.828339
9402.000000;0.828251
9401.000000;0.828243
9400.000000;0.828187
9399.000000;0.827976
9398.000000;0.827668
9397.000000;0.827421
9396.000000;0.827221
9395.000000;0.826919
9394.000000;0.826526
9393.000000;0.826190
9392.000000;0.825861
9391.000000;0.825320
9390.000000;0.824606
9389.000000;0.824037
9388.000000;0.823749
9387.000000;0.823535
9386.000000;0.823211
9385.000000;0.822820
9384.000000;0.822407
9383.000000;0.821935
9382.000000;0.821490
9381.000000;0.821237
9380.000000;0.821102
9379.000000;0.820831
9378.000000;0.820415
9377.000000;0.820095
9376.000000;0.819929
9375.000000;0.819692
9374.000000;0.819274
9373.000000;0.818826
9372.000000;0.818457
9371.000000;0.818116
9370.000000;0.817805
9369.000000;0.817576
9368.000000;0.817301
9367.000000;0.816791
9366.000000;0.816136
9365.000000;0.815603
9364.000000;0.815226
9363.000000;0.814844
9362.000000;0.814481
9361.000000;0.814265
9360.000000;0.814045
9359.000000;0.813553
9358.000000;0.812921
9357.000000;0.812572
9356.000000;0.812600
9355.000000;0.812709
9354.000000;0.812731
9353.000000;0.812720
9352.000000;0.812566
9351.000000;0.812061
9350.000000;0.811385
9349.000000;0.810988
9348.000000;0.810911
9347.000000;0.810739
9346.000000;0.810288
9345.000000;0.809818
9344.000000;0.809496
9343.000000;0.809168
9342.000000;0.808760
9341.000000;0.808368
9340.000000;0.807878
9339.000000;0.807063
9338.000000;0.806167
9337.000000;0.805830
9336.000000;0.806239
9335.000000;0.806839
9334.000000;0.807069
9333.000000;0.806909
9332.000000;0.806540
9331.000000;0.805981
9330.000000;0.805319
9329.000000;0.804835
9328.000000;0.804641
9327.000000;0.804524
9326.000000;0.804314
9325.000000;0.804083
9324.000000;0.803857
9323.000000;0.803525
9322.000000;0.803133
9321.000000;0.802893
9320.000000;0.802785
9319.000000;0.802551
9318.000000;0.802168
9317.000000;0.801901
9316.000000;0.801810
9315.000000;0.801614
9314.000000;0.801172
9313.000000;0.800671
9312.000000;0.800243
9311.000000;0.799787
9310.000000;0.799273
9309.000000;0.798823
9308.000000;0.798402
9307.000000;0.797834
9306.000000;0.797201
9305.000000;0.796793
9304.000000;0.796607
9303.000000;0.796303
9302.000000;0.795762
9301.000000;0.795250
9300.000000;0.794977
9299.000000;0.794881
9298.000000;0.794906
9297.000000;0.795050
9296.000000;0.795107
9295.000000;0.794795
9294.000000;0.794220
9293.000000;0.793742
9292.000000;0.793408
9291.000000;0.792976
9290.000000;0.792507
9289.000000;0.792343
9288.000000;0.792440
9287.000000;0.792314
9286.000000;0.791772
9285.000000;0.791152
9284.000000;0.790682
9283.000000;0.790168
9282.000000;0.789497
9281.000000;0.788902
9280.000000;0.788507
9279.000000;0.788108
9278.000000;0.787621
9277.000000;0.787307
9276.000000;0.787346
9275.000000;0.787587
9274.000000;0.787884
9273.000000;0.788238
9272.000000;0.788501
9271.000000;0.788372
9270.000000;0.787866
9269.000000;0.787349
9268.000000;0.786981
9267.000000;0.786590
9266.000000;0.786177
9265.000000;0.786029
9264.000000;0.786174
9263.000000;0.786230
9262.000000;0.785989
9261.000000;0.785673
9260.000000;0.785413
9259.000000;0.784994
9258.000000;0.784342
9257.000000;0.783808
9256.000000;0.783651
9255.000000;0.783642
9254.000000;0.783429
9253.000000;0.782973
9252.000000;0.782428
9251.000000;0.781892
9250.000000;0.781460
9249.000000;0.781164
9248.000000;0.780767
9247.000000;0.779975
9246.000000;0.778974
9245.000000;0.778345
9244.000000;0.778354
9243.000000;0.778687
9242.000000;0.778952
9241.000000;0.779024
9240.000000;0.778816
9239.000000;0.778198
9238.000000;0.777334
9237.000000;0.776689
9236.000000;0.776542
9235.000000;0.776792
9234.000000;0.777261
9233.000000;0.777779
9232.000000;0.777966
9231.000000;0.777482
9230.000000;0.776572
9229.000000;0.775859
9228.000000;0.775503
9227.000000;0.775094
9226.000000;0.774486
9225.000000;0.774107
9224.000000;0.774254
9223.000000;0.774618
9222.000000;0.774782
9221.000000;0.774696
9220.000000;0.774415
9219.000000;0.773875
9218.000000;0.773190
9217.000000;0.772713
9216.000000;0.772526
9215.000000;0.772297
9214.000000;0.771840
9213.000000;0.771407
9212.000000;0.771211
9211.000000;0.771099
9210.000000;0.770926
9209.000000;0.770811
9208.000000;0.770772
9207.000000;0.770545
9206.000000;0.770026
9205.000000;0.769497
9204.000000;0.769170
9203.000000;0.768887
9202.000000;0.768505
9201.000000;0.768178
9200.000000;0.768021
9199.000000;0.767876
9198.000000;0.767623
9197.000000;0.767344
9196.000000;0.766993
9195.000000;0.766342
9194.000000;0.765485
9193.000000;0.764942
9192.000000;0.764992
9191.000000;0.765269
9190.000000;0.765287
9189.000000;0.765009
9188.000000;0.764667
9187.000000;0.764376
9186.000000;0.764195
9185.000000;0.764184
9184.000000;0.764184
9183.000000;0.763881
9182.000000;0.763307
9181.000000;0.762899
9180.000000;0.762856
9179.000000;0.762849
9178.000000;0.762625
9177.000000;0.762445
9176.000000;0.762587
9175.000000;0.762777
9174.000000;0.762530
9173.000000;0.761799
9172.000000;0.760930
9171.000000;0.760225
9170.000000;0.759808
9169.000000;0.759702
9168.000000;0.759752
9167.000000;0.759657
9166.000000;0.759319
9165.000000;0.758961
9164.000000;0.758724
9163.000000;0.758443
9162.000000;0.757993
9161.000000;0.757592
9160.000000;0.757480
9159.000000;0.757526
9158.000000;0.757424
9157.000000;0.757093
9156.000000;0.756682
9155.000000;0.756331
9154.000000;0.756099
9153.000000;0.755998
9152.000000;0.755950
9151.000000;0.755864
9150.000000;0.755816
9149.000000;0.755970
9148.000000;0.756265
9147.000000;0.756402
9146.000000;0.756187
9145.000000;0.755701
9144.000000;0.755109
9143.000000;0.754572
9142.000000;0.754319
9141.000000;0.754475
9140.000000;0.754745
9139.000000;0.754630
9138.000000;0.754018
9137.000000;0.753264
9136.000000;0.752635
9135.000000;0.752069
9134.000000;0.751541
9133.000000;0.751233
9132.000000;0.751198
9131.000000;0.751183
9130.000000;0.750981
9129.000000;0.750683
9128.000000;0.750441
9127.000000;0.750279
9126.000000;0.750217
9125.000000;0.750272
9124.000000;0.750254
9123.000000;0.749887
9122.000000;0.749237
9121.000000;0.748690
9120.000000;0.748411
9119.000000;0.748173
9118.000000;0.747812
9117.000000;0.747473
9116.000000;0.747284
9115.000000;0.747138
9114.000000;0.746955
9113.000000;0.746812
9112.000000;0.746681
9111.000000;0.746380
9110.000000;0.745924
9109.000000;0.745595
9108.000000;0.745511
9107.000000;0.745498
9106.000000;0.745491
9105.000000;0.745673
9104.000000;0.746005
9103.000000;0.746041
9102.000000;0.745488
9101.000000;0.744639
9100.000000;0.743973
9099.000000;0.743602
9098.000000;0.743360
9097.000000;0.743205
9096.000000;0.743233
9095.000000;0.743421
9094.000000;0.743577
9093.000000;0.743468
9092.000000;0.742952
9091.000000;0.742151
9090.000000;0.741491
9089.000000;0.741359
9088.000000;0.741646
9087.000000;0.741866
9086.000000;0.741752
9085.000000;0.741474
9084.000000;0.741263
9083.000000;0.741123
9082.000000;0.741014
9081.000000;0.740988
9080.000000;0.741018
9079.000000;0.740938
9078.000000;0.740676
9077.000000;0.740302
9076.000000;0.739838
9075.000000;0.739270
9074.000000;0.738779
9073.000000;0.738610
9072.000000;0.738653
9071.000000;0.738492
9070.000000;0.737975
9069.000000;0.737418
9068.000000;0.737134
9067.000000;0.737076
9066.000000;0.737056
9065.000000;0.737022
9064.000000;0.736974
9063.000000;0.736857
9062.000000;0.736651
9061.000000;0.736373
9060.000000;0.735961
9059.000000;0.735375
9058.000000;0.734834
9057.000000;0.734624
9056.000000;0.734667
9055.000000;0.734595
9054.000000;0.734293
9053.000000;0.734020
