Criado como novo conjunto de dados;"e2410_daniel_v2.spp","97566.9 Secs"
cm-1;Abs
10000.000000;0.117712
9999.000000;0.118217
9998.000000;0.118572
9997.000000;0.118856
9996.000000;0.119258
9995.000000;0.119959
9994.000000;0.120937
9993.000000;0.121959
9992.000000;0.122784
9991.000000;0.123352
9990.000000;0.123770
9989.000000;0.124213
9988.000000;0.124830
9987.000000;0.125631
9986.000000;0.126435
9985.000000;0.127004
9984.000000;0.127296
9983.000000;0.127524
9982.000000;0.127931
9981.000000;0.128557
9980.000000;0.129272
9979.000000;0.129962
9978.000000;0.130636
9977.000000;0.131393
9976.000000;0.132314
9975.000000;0.133352
9974.000000;0.134275
9973.000000;0.134812
9972.000000;0.134947
9971.000000;0.134989
9970.000000;0.135290
9969.000000;0.135915
9968.000000;0.136675
9967.000000;0.137417
9966.000000;0.138145
9965.000000;0.138884
9964.000000;0.139579
9963.000000;0.140192
9962.000000;0.140794
9961.000000;0.141496
9960.000000;0.142330
9959.000000;0.143241
9958.000000;0.144128
9957.000000;0.144864
9956.000000;0.145360
9955.000000;0.145677
9954.000000;0.146038
9953.000000;0.146668
9952.000000;0.147606
9951.000000;0.148669
9950.000000;0.149585
9949.000000;0.150171
9948.000000;0.150452
9947.000000;0.150649
9946.000000;0.151016
9945.000000;0.151659
9944.000000;0.152520
9943.000000;0.153489
9942.000000;0.154468
9941.000000;0.155333
9940.000000;0.155980
9939.000000;0.156480
9938.000000;0.157062
9937.000000;0.157844
9936.000000;0.158660
9935.000000;0.159269
9934.000000;0.159673
9933.000000;0.160075
9932.000000;0.160570
9931.000000;0.161065
9930.000000;0.161496
9929.000000;0.161976
9928.000000;0.162624
9927.000000;0.163411
9926.000000;0.164239
9925.000000;0.165076
9924.000000;0.165926
9923.000000;0.166754
9922.000000;0.167558
9921.000000;0.168435
9920.000000;0.169448
9919.000000;0.170452
9918.000000;0.171188
9917.000000;0.171536
9916.000000;0.171610
9915.000000;0.171635
9914.000000;0.171842
9913.000000;0.172433
9912.000000;0.173479
9911.000000;0.174796
9910.000000;0.176036
9909.000000;0.176967
9908.000000;0.177604
9907.000000;0.178074
9906.000000;0.178483
9905.000000;0.178969
9904.000000;0.179718
9903.000000;0.180774
9902.000000;0.181890
9901.000000;0.182723
9900.000000;0.183174
9899.000000;0.183439
9898.000000;0.183768
9897.000000;0.184266
9896.000000;0.184925
9895.000000;0.185704
9894.000000;0.186543
9893.000000;0.187399
9892.000000;0.188301
9891.000000;0.189308
9890.000000;0.190367
9889.000000;0.191296
9888.000000;0.191961
9887.000000;0.192409
9886.000000;0.192768
9885.000000;0.193100
9884.000000;0.193427
9883.000000;0.193855
9882.000000;0.194531
9881.000000;0.195470
9880.000000;0.196506
9879.000000;0.197464
9878.000000;0.198307
9877.000000;0.199081
9876.000000;0.199778
9875.000000;0.200354
9874.000000;0.200869
9873.000000;0.201512
9872.000000;0.202411
9871.000000;0.203471
9870.000000;0.204476
9869.000000;0.205350
9868.000000;0.206215
9867.000000;0.207173
9866.000000;0.208136
9865.000000;0.208959
9864.000000;0.209680
9863.000000;0.210483
9862.000000;0.211431
9861.000000;0.212358
9860.000000;0.213076
9859.000000;0.213587
9858.000000;0.214051
9857.000000;0.214619
9856.000000;0.215354
9855.000000;0.216230
9854.000000;0.217123
9853.000000;0.217869
9852.000000;0.218417
9851.000000;0.218905
9850.000000;0.219527
9849.000000;0.220346
9848.000000;0.221276
9847.000000;0.222209
9846.000000;0.223069
9845.000000;0.223804
9844.000000;0.224420
9843.000000;0.225024
9842.000000;0.225729
9841.000000;0.226531
9840.000000;0.227311
9839.000000;0.227976
9838.000000;0.228540
9837.000000;0.229092
9836.000000;0.229727
9835.000000;0.230498
9834.000000;0.231380
9833.000000;0.232297
9832.000000;0.233236
9831.000000;0.234266
9830.000000;0.235382
9829.000000;0.236420
9828.000000;0.237235
9827.000000;0.237894
9826.000000;0.238544
9825.000000;0.239156
9824.000000;0.239605
9823.000000;0.239959
9822.000000;0.240485
9821.000000;0.241306
9820.000000;0.242284
9819.000000;0.243269
9818.000000;0.244266
9817.000000;0.245264
9816.000000;0.246154
9815.000000;0.246965
9814.000000;0.247939
9813.000000;0.249146
9812.000000;0.250240
9811.000000;0.250869
9810.000000;0.251182
9809.000000;0.251623
9808.000000;0.252340
9807.000000;0.253136
9806.000000;0.253961
9805.000000;0.255009
9804.000000;0.256239
9803.000000;0.257225
9802.000000;0.257720
9801.000000;0.258099
9800.000000;0.258898
9799.000000;0.260108
9798.000000;0.261206
9797.000000;0.261844
9796.000000;0.262200
9795.000000;0.262642
9794.000000;0.263314
9793.000000;0.264134
9792.000000;0.265005
9791.000000;0.265896
9790.000000;0.266828
9789.000000;0.267858
9788.000000;0.269021
9787.000000;0.270225
9786.000000;0.271275
9785.000000;0.272098
9784.000000;0.272863
9783.000000;0.273792
9782.000000;0.274887
9781.000000;0.275949
9780.000000;0.276826
9779.000000;0.277537
9778.000000;0.278163
9777.000000;0.278732
9776.000000;0.279279
9775.000000;0.279916
9774.000000;0.280716
9773.000000;0.281596
9772.000000;0.282417
9771.000000;0.283210
9770.000000;0.284165
9769.000000;0.285343
9768.000000;0.286516
9767.000000;0.287378
9766.000000;0.287870
9765.000000;0.288235
9764.000000;0.288797
9763.000000;0.289723
9762.000000;0.290930
9761.000000;0.292131
9760.000000;0.293058
9759.000000;0.293727
9758.000000;0.294443
9757.000000;0.295434
9756.000000;0.296559
9755.000000;0.297510
9754.000000;0.298267
9753.000000;0.299136
9752.000000;0.300302
9751.000000;0.301538
9750.000000;0.302468
9749.000000;0.303007
9748.000000;0.303392
9747.000000;0.303870
9746.000000;0.304485
9745.000000;0.305161
9744.000000;0.305855
9743.000000;0.306619
9742.000000;0.307543
9741.000000;0.308625
9740.000000;0.309675
9739.000000;0.310423
9738.000000;0.310797
9737.000000;0.311074
9736.000000;0.311669
9735.000000;0.312771
9734.000000;0.314206
9733.000000;0.315616
9732.000000;0.316751
9731.000000;0.317604
9730.000000;0.318332
9729.000000;0.319070
9728.000000;0.319839
9727.000000;0.320624
9726.000000;0.321478
9725.000000;0.322474
9724.000000;0.323569
9723.000000;0.324625
9722.000000;0.325577
9721.000000;0.326487
9720.000000;0.327423
9719.000000;0.328393
9718.000000;0.329419
9717.000000;0.330529
9716.000000;0.331604
9715.000000;0.332394
9714.000000;0.332829
9713.000000;0.333203
9712.000000;0.333881
9711.000000;0.334906
9710.000000;0.336015
9709.000000;0.336944
9708.000000;0.337602
9707.000000;0.338027
9706.000000;0.338400
9705.000000;0.339035
9704.000000;0.340148
9703.000000;0.341580
9702.000000;0.342919
9701.000000;0.343929
9700.000000;0.344723
9699.000000;0.345514
9698.000000;0.346365
9697.000000;0.347221
9696.000000;0.348029
9695.000000;0.348747
9694.000000;0.349370
9693.000000;0.350009
9692.000000;0.350808
9691.000000;0.351733
9690.000000;0.352592
9689.000000;0.353324
9688.000000;0.354142
9687.000000;0.355256
9686.000000;0.356565
9685.000000;0.357758
9684.000000;0.358666
9683.000000;0.359384
9682.000000;0.360103
9681.000000;0.360950
9680.000000;0.361971
9679.000000;0.363117
9678.000000;0.364245
9677.000000;0.365233
9676.000000;0.366117
9675.000000;0.367046
9674.000000;0.368060
9673.000000;0.368976
9672.000000;0.369560
9671.000000;0.369785
9670.000000;0.369895
9669.000000;0.370204
9668.000000;0.370879
9667.000000;0.371904
9666.000000;0.373199
9665.000000;0.374705
9664.000000;0.376319
9663.000000;0.377836
9662.000000;0.379035
9661.000000;0.379840
9660.000000;0.380350
9659.000000;0.380750
9658.000000;0.381230
9657.000000;0.381927
9656.000000;0.382856
9655.000000;0.383909
9654.000000;0.384993
9653.000000;0.386120
9652.000000;0.387283
9651.000000;0.388300
9650.000000;0.388983
9649.000000;0.389433
9648.000000;0.389954
9647.000000;0.390628
9646.000000;0.391182
9645.000000;0.391413
9644.000000;0.391544
9643.000000;0.392000
9642.000000;0.392930
9641.000000;0.394118
9640.000000;0.395269
9639.000000;0.396201
9638.000000;0.396854
9637.000000;0.397315
9636.000000;0.397841
9635.000000;0.398663
9634.000000;0.399750
9633.000000;0.400903
9632.000000;0.402072
9631.000000;0.403390
9630.000000;0.404839
9629.000000;0.406102
9628.000000;0.406903
9627.000000;0.407345
9626.000000;0.407729
9625.000000;0.408145
9624.000000;0.408469
9623.000000;0.408729
9622.000000;0.409218
9621.000000;0.410118
9620.000000;0.411189
9619.000000;0.412035
9618.000000;0.412591
9617.000000;0.413178
9616.000000;0.414069
9615.000000;0.415184
9614.000000;0.416270
9613.000000;0.417213
9612.000000;0.418055
9611.000000;0.418812
9610.000000;0.419451
9609.000000;0.420039
9608.000000;0.420774
9607.000000;0.421804
9606.000000;0.423049
9605.000000;0.424220
9604.000000;0.425009
9603.000000;0.425326
9602.000000;0.425452
9601.000000;0.425863
9600.000000;0.426805
9599.000000;0.428048
9598.000000;0.429162
9597.000000;0.429955
9596.000000;0.430539
9595.000000;0.431068
9594.000000;0.431671
9593.000000;0.432614
9592.000000;0.434172
9591.000000;0.436150
9590.000000;0.437779
9589.000000;0.438392
9588.000000;0.438136
9587.000000;0.437781
9586.000000;0.437895
9585.000000;0.438439
9584.000000;0.439101
9583.000000;0.439752
9582.000000;0.440447
9581.000000;0.441212
9580.000000;0.442006
9579.000000;0.442833
9578.000000;0.443741
9577.000000;0.444698
9576.000000;0.445569
9575.000000;0.446256
9574.000000;0.446838
9573.000000;0.447525
9572.000000;0.448439
9571.000000;0.449457
9570.000000;0.450294
9569.000000;0.450753
9568.000000;0.450894
9567.000000;0.450988
9566.000000;0.451331
9565.000000;0.452095
9564.000000;0.453250
9563.000000;0.454599
9562.000000;0.455906
9561.000000;0.457041
9560.000000;0.457934
9559.000000;0.458430
9558.000000;0.458336
9557.000000;0.457740
9556.000000;0.457181
9555.000000;0.457319
9554.000000;0.458362
9553.000000;0.459887
9552.000000;0.461251
9551.000000;0.462162
9550.000000;0.462797
9549.000000;0.463444
9548.000000;0.464098
9547.000000;0.464481
9546.000000;0.464414
9545.000000;0.464137
9544.000000;0.464154
9543.000000;0.464753
9542.000000;0.465746
9541.000000;0.466684
9540.000000;0.467306
9539.000000;0.467702
9538.000000;0.468093
9537.000000;0.468564
9536.000000;0.469058
9535.000000;0.469521
9534.000000;0.469982
9533.000000;0.470507
9532.000000;0.471106
9531.000000;0.471727
9530.000000;0.472298
9529.000000;0.472783
9528.000000;0.473200
9527.000000;0.473617
9526.000000;0.474104
9525.000000;0.474673
9524.000000;0.475264
9523.000000;0.475805
9522.000000;0.476302
9521.000000;0.476795
9520.000000;0.477250
9519.000000;0.477605
9518.000000;0.477912
9517.000000;0.478283
9516.000000;0.478631
9515.000000;0.478677
9514.000000;0.478425
9513.000000;0.478438
9512.000000;0.479290
9511.000000;0.480779
9510.000000;0.482010
9509.000000;0.482364
9508.000000;0.482066
9507.000000;0.481681
9506.000000;0.481385
9505.000000;0.481044
9504.000000;0.480758
9503.000000;0.480909
9502.000000;0.481679
9501.000000;0.482826
9500.000000;0.483946
9499.000000;0.484806
9498.000000;0.485388
9497.000000;0.485829
9496.000000;0.486336
9495.000000;0.486989
9494.000000;0.487565
9493.000000;0.487677
9492.000000;0.487171
9491.000000;0.486272
9490.000000;0.485342
9489.000000;0.484643
9488.000000;0.484355
9487.000000;0.484640
9486.000000;0.485530
9485.000000;0.486787
9484.000000;0.487968
9483.000000;0.488646
9482.000000;0.488616
9481.000000;0.488039
9480.000000;0.487437
9479.000000;0.487410
9478.000000;0.488222
9477.000000;0.489600
9476.000000;0.490966
9475.000000;0.491842
9474.000000;0.492048
9473.000000;0.491643
9472.000000;0.490854
9471.000000;0.490099
9470.000000;0.489890
9469.000000;0.490482
9468.000000;0.491558
9467.000000;0.492382
9466.000000;0.492480
9465.000000;0.492115
9464.000000;0.491929
9463.000000;0.492114
9462.000000;0.492175
9461.000000;0.491611
9460.000000;0.490631
9459.000000;0.489977
9458.000000;0.490102
9457.000000;0.490726
9456.000000;0.491194
9455.000000;0.491111
9454.000000;0.490629
9453.000000;0.490236
9452.000000;0.490347
9451.000000;0.490980
9450.000000;0.491819
9449.000000;0.492573
9448.000000;0.493206
9447.000000;0.493717
9446.000000;0.493875
9445.000000;0.493445
9444.000000;0.492673
9443.000000;0.492232
9442.000000;0.492544
9441.000000;0.493311
9440.000000;0.493817
9439.000000;0.493610
9438.000000;0.492786
9437.000000;0.491743
9436.000000;0.490842
9435.000000;0.490242
9434.000000;0.489909
9433.000000;0.489739
9432.000000;0.489700
9431.000000;0.489847
9430.000000;0.490180
9429.000000;0.490540
9428.000000;0.490707
9427.000000;0.490592
9426.000000;0.490323
9425.000000;0.490165
9424.000000;0.490324
9423.000000;0.490725
9422.000000;0.490995
9421.000000;0.490803
9420.000000;0.490249
9419.000000;0.489771
9418.000000;0.489595
9417.000000;0.489437
9416.000000;0.488894
9415.000000;0.488023
9414.000000;0.487344
9413.000000;0.487295
9412.000000;0.487806
9411.000000;0.488399
9410.000000;0.488618
9409.000000;0.488358
9408.000000;0.487888
9407.000000;0.487590
9406.000000;0.487634
9405.000000;0.487863
9404.000000;0.487964
9403.000000;0.487701
9402.000000;0.486985
9401.000000;0.485875
9400.000000;0.484633
9399.000000;0.483676
9398.000000;0.483279
9397.000000;0.483304
9396.000000;0.483338
9395.000000;0.483091
9394.000000;0.482587
9393.000000;0.482033
9392.000000;0.481658
9391.000000;0.481663
9390.000000;0.482099
9389.000000;0.482705
9388.000000;0.483030
9387.000000;0.482853
9386.000000;0.482413
9385.000000;0.482114
9384.000000;0.482077
9383.000000;0.482102
9382.000000;0.481984
9381.000000;0.481709
9380.000000;0.481340
9379.000000;0.480872
9378.000000;0.480298
9377.000000;0.479708
9376.000000;0.479226
9375.000000;0.478852
9374.000000;0.478437
9373.000000;0.477824
9372.000000;0.476967
9371.000000;0.475926
9370.000000;0.474817
9369.000000;0.473812
9368.000000;0.473133
9367.000000;0.472935
9366.000000;0.473134
9365.000000;0.473406
9364.000000;0.473408
9363.000000;0.473012
9362.000000;0.472311
9361.000000;0.471499
9360.000000;0.470800
9359.000000;0.470437
9358.000000;0.470495
9357.000000;0.470752
9356.000000;0.470803
9355.000000;0.470467
9354.000000;0.469988
9353.000000;0.469724
9352.000000;0.469690
9351.000000;0.469535
9350.000000;0.468955
9349.000000;0.467989
9348.000000;0.466899
9347.000000;0.465904
9346.000000;0.465115
9345.000000;0.464615
9344.000000;0.464422
9343.000000;0.464344
9342.000000;0.464019
9341.000000;0.463198
9340.000000;0.462015
9339.000000;0.460933
9338.000000;0.460330
9337.000000;0.460148
9336.000000;0.459983
9335.000000;0.459552
9334.000000;0.459026
9333.000000;0.458792
9332.000000;0.458916
9331.000000;0.458956
9330.000000;0.458436
9329.000000;0.457397
9328.000000;0.456353
9327.000000;0.455732
9326.000000;0.455491
9325.000000;0.455264
9324.000000;0.454739
9323.000000;0.453851
9322.000000;0.452740
9321.000000;0.451639
9320.000000;0.450722
9319.000000;0.449964
9318.000000;0.449215
9317.000000;0.448475
9316.000000;0.448019
9315.000000;0.448093
9314.000000;0.448500
9313.000000;0.448674
9312.000000;0.448232
9311.000000;0.447361
9310.000000;0.446580
9309.000000;0.446220
9308.000000;0.446212
9307.000000;0.446241
9306.000000;0.445977
9305.000000;0.445217
9304.000000;0.444032
9303.000000;0.442782
9302.000000;0.441849
9301.000000;0.441248
9300.000000;0.440631
9299.000000;0.439747
9298.000000;0.438768
9297.000000;0.438029
9296.000000;0.437561
9295.000000;0.437117
9294.000000;0.436609
9293.000000;0.436266
9292.000000;0.436238
9291.000000;0.436258
9290.000000;0.435882
9289.000000;0.434963
9288.000000;0.433723
9287.000000;0.432491
9286.000000;0.431547
9285.000000;0.431086
9284.000000;0.431042
9283.000000;0.430980
9282.000000;0.430474
9281.000000;0.429665
9280.000000;0.429127
9279.000000;0.429081
9278.000000;0.429037
9277.000000;0.428435
9276.000000;0.427375
9275.000000;0.426394
9274.000000;0.425727
9273.000000;0.425156
9272.000000;0.424473
9271.000000;0.423702
9270.000000;0.422867
9269.000000;0.421944
9268.000000;0.421148
9267.000000;0.420902
9266.000000;0.421288
9265.000000;0.421752
9264.000000;0.421596
9263.000000;0.420618
9262.000000;0.419126
9261.000000;0.417510
9260.000000;0.416033
9259.000000;0.414880
9258.000000;0.414108
9257.000000;0.413581
9256.000000;0.413157
9255.000000;0.412931
9254.000000;0.413088
9253.000000;0.413507
9252.000000;0.413720
9251.000000;0.413364
9250.000000;0.412542
9249.000000;0.411638
9248.000000;0.410897
9247.000000;0.410286
9246.000000;0.409693
9245.000000;0.409109
9244.000000;0.408557
9243.000000;0.407927
9242.000000;0.407038
9241.000000;0.405933
9240.000000;0.404997
9239.000000;0.404590
9238.000000;0.404551
9237.000000;0.404292
9236.000000;0.403467
9235.000000;0.402382
9234.000000;0.401559
9233.000000;0.401101
9232.000000;0.400718
9231.000000;0.400251
9230.000000;0.399845
9229.000000;0.399608
9228.000000;0.399405
9227.000000;0.399084
9226.000000;0.398637
9225.000000;0.398030
9224.000000;0.397131
9223.000000;0.395985
9222.000000;0.394978
9221.000000;0.394479
9220.000000;0.394398
9219.000000;0.394265
9218.000000;0.393712
9217.000000;0.392737
9216.000000;0.391569
9215.000000;0.390449
9214.000000;0.389584
9213.000000;0.389154
9212.000000;0.389206
9211.000000;0.389526
9210.000000;0.389661
9209.000000;0.389154
9208.000000;0.387897
9207.000000;0.386276
9206.000000;0.384889
9205.000000;0.384067
9204.000000;0.383690
9203.000000;0.383447
9202.000000;0.383151
9201.000000;0.382748
9200.000000;0.382197
9199.000000;0.381526
9198.000000;0.380918
9197.000000;0.380532
9196.000000;0.380251
9195.000000;0.379756
9194.000000;0.378894
9193.000000;0.377847
9192.000000;0.376901
9191.000000;0.376149
9190.000000;0.375488
9189.000000;0.374841
9188.000000;0.374287
9187.000000;0.373971
9186.000000;0.373904
9185.000000;0.373874
9184.000000;0.373607
9183.000000;0.373031
9182.000000;0.372335
9181.000000;0.371712
9180.000000;0.371127
9179.000000;0.370405
9178.000000;0.369471
9177.000000;0.368404
9176.000000;0.367322
9175.000000;0.366375
9174.000000;0.365801
9173.000000;0.365788
9172.000000;0.366186
9171.000000;0.366493
9170.000000;0.366257
9169.000000;0.365422
9168.000000;0.364267
9167.000000;0.363110
9166.000000;0.362133
9165.000000;0.361394
9164.000000;0.360831
9163.000000;0.360271
9162.000000;0.359548
9161.000000;0.358667
9160.000000;0.357811
9159.000000;0.357181
9158.000000;0.356817
9157.000000;0.356577
9156.000000;0.356270
9155.000000;0.355871
9154.000000;0.355561
9153.000000;0.355517
9152.000000;0.355652
9151.000000;0.355662
9150.000000;0.355325
9149.000000;0.354681
9148.000000;0.353875
9147.000000;0.352982
9146.000000;0.352074
9145.000000;0.351318
9144.000000;0.350821
9143.000000;0.350438
9142.000000;0.349871
9141.000000;0.348990
9140.000000;0.347949
9139.000000;0.347010
9138.000000;0.346331
9137.000000;0.345902
9136.000000;0.345574
9135.000000;0.345151
9134.000000;0.344582
9133.000000;0.344078
9132.000000;0.343930
9131.000000;0.344172
9130.000000;0.344510
9129.000000;0.344582
9128.000000;0.344192
9127.000000;0.343302
9126.000000;0.341999
9125.000000;0.340564
9124.000000;0.339421
9123.000000;0.338851
9122.000000;0.338756
9121.000000;0.338782
9120.000000;0.338643
9119.000000;0.338239
9118.000000;0.337572
9117.000000;0.336694
9116.000000;0.335773
9115.000000;0.335057
9114.000000;0.334691
9113.000000;0.334568
9112.000000;0.334430
9111.000000;0.334097
9110.000000;0.333609
9109.000000;0.333125
9108.000000;0.332686
9107.000000;0.332152
9106.000000;0.331417
9105.000000;0.330628
9104.000000;0.330060
9103.000000;0.329752
9102.000000;0.329408
9101.000000;0.328758
9100.000000;0.327907
9099.000000;0.327181
9098.000000;0.326717
9097.000000;0.326353
9096.000000;0.325881
9095.000000;0.325264
9094.000000;0.324581
9093.000000;0.323895
9092.000000;0.323213
9091.000000;0.322532
9090.000000;0.321853
9089.000000;0.321222
9088.000000;0.320749
9087.000000;0.320536
9086.000000;0.320543
9085.000000;0.320583
9084.000000;0.320467
9083.000000;0.320114
9082.000000;0.319537
9081.000000;0.318800
9080.000000;0.318008
9079.000000;0.317271
9078.000000;0.316611
9077.000000;0.315944
9076.000000;0.315184
9075.000000;0.314386
9074.000000;0.313778
9073.000000;0.313614
9072.000000;0.313913
9071.000000;0.314333
9070.000000;0.314359
9069.000000;0.313736
9068.000000;0.312673
9067.000000;0.311583
9066.000000;0.310710
9065.000000;0.310097
9064.000000;0.309749
9063.000000;0.309598
9062.000000;0.309373
9061.000000;0.308762
9060.000000;0.307787
9059.000000;0.306828
9058.000000;0.306187
9057.000000;0.305768
9056.000000;0.305309
9055.000000;0.304760
9054.000000;0.304311
9053.000000;0.304140
