Criado como novo conjunto de dados;"e2410_daniel_v2.spp","46264.5 Secs"
cm-1;Abs
10000.000000;0.836653
9999.000000;0.836125
9998.000000;0.835444
9997.000000;0.834753
9996.000000;0.834094
9995.000000;0.833382
9994.000000;0.832749
9993.000000;0.832372
9992.000000;0.832112
9991.000000;0.831649
9990.000000;0.831000
9989.000000;0.830451
9988.000000;0.830024
9987.000000;0.829475
9986.000000;0.828843
9985.000000;0.828462
9984.000000;0.828359
9983.000000;0.828112
9982.000000;0.827451
9981.000000;0.826576
9980.000000;0.825719
9979.000000;0.824809
9978.000000;0.823798
9977.000000;0.822946
9976.000000;0.822545
9975.000000;0.822550
9974.000000;0.822667
9973.000000;0.822629
9972.000000;0.822316
9971.000000;0.821795
9970.000000;0.821316
9969.000000;0.821107
9968.000000;0.821136
9967.000000;0.821207
9966.000000;0.821179
9965.000000;0.820950
9964.000000;0.820381
9963.000000;0.819536
9962.000000;0.818816
9961.000000;0.818528
9960.000000;0.818436
9959.000000;0.818085
9958.000000;0.817415
9957.000000;0.816676
9956.000000;0.815883
9955.000000;0.814857
9954.000000;0.813728
9953.000000;0.812903
9952.000000;0.812489
9951.000000;0.812148
9950.000000;0.811583
9949.000000;0.810848
9948.000000;0.810139
9947.000000;0.809615
9946.000000;0.809415
9945.000000;0.809535
9944.000000;0.809678
9943.000000;0.809539
9942.000000;0.809154
9941.000000;0.808692
9940.000000;0.808068
9939.000000;0.807134
9938.000000;0.806107
9937.000000;0.805355
9936.000000;0.804852
9935.000000;0.804304
9934.000000;0.803695
9933.000000;0.803258
9932.000000;0.802964
9931.000000;0.802550
9930.000000;0.801989
9929.000000;0.801469
9928.000000;0.800940
9927.000000;0.800216
9926.000000;0.799491
9925.000000;0.799188
9924.000000;0.799228
9923.000000;0.798999
9922.000000;0.798182
9921.000000;0.797113
9920.000000;0.796201
9919.000000;0.795457
9918.000000;0.794779
9917.000000;0.794277
9916.000000;0.794091
9915.000000;0.794164
9914.000000;0.794298
9913.000000;0.794232
9912.000000;0.793682
9911.000000;0.792621
9910.000000;0.791525
9909.000000;0.790990
9908.000000;0.791063
9907.000000;0.791255
9906.000000;0.791159
9905.000000;0.790735
9904.000000;0.790051
9903.000000;0.789201
9902.000000;0.788464
9901.000000;0.788089
9900.000000;0.787862
9899.000000;0.787290
9898.000000;0.786273
9897.000000;0.785208
9896.000000;0.784386
9895.000000;0.783693
9894.000000;0.782983
9893.000000;0.782373
9892.000000;0.782018
9891.000000;0.781886
9890.000000;0.781818
9889.000000;0.781595
9888.000000;0.780972
9887.000000;0.779936
9886.000000;0.778883
9885.000000;0.778247
9884.000000;0.777981
9883.000000;0.777710
9882.000000;0.777267
9881.000000;0.776777
9880.000000;0.776296
9879.000000;0.775780
9878.000000;0.775320
9877.000000;0.775040
9876.000000;0.774831
9875.000000;0.774565
9874.000000;0.774458
9873.000000;0.774753
9872.000000;0.775143
9871.000000;0.774990
9870.000000;0.774111
9869.000000;0.772903
9868.000000;0.771736
9867.000000;0.770693
9866.000000;0.769848
9865.000000;0.769287
9864.000000;0.768831
9863.000000;0.768208
9862.000000;0.767546
9861.000000;0.767234
9860.000000;0.767277
9859.000000;0.767222
9858.000000;0.766776
9857.000000;0.766051
9856.000000;0.765189
9855.000000;0.764214
9854.000000;0.763278
9853.000000;0.762620
9852.000000;0.762189
9851.000000;0.761718
9850.000000;0.761174
9849.000000;0.760747
9848.000000;0.760395
9847.000000;0.759867
9846.000000;0.759169
9845.000000;0.758559
9844.000000;0.758071
9843.000000;0.757494
9842.000000;0.756874
9841.000000;0.756517
9840.000000;0.756439
9839.000000;0.756310
9838.000000;0.756014
9837.000000;0.755786
9836.000000;0.755675
9835.000000;0.755387
9834.000000;0.754842
9833.000000;0.754379
9832.000000;0.754189
9831.000000;0.753967
9830.000000;0.753340
9829.000000;0.752337
9828.000000;0.751238
9827.000000;0.750265
9826.000000;0.749571
9825.000000;0.749251
9824.000000;0.749195
9823.000000;0.749157
9822.000000;0.749026
9821.000000;0.748816
9820.000000;0.748435
9819.000000;0.747794
9818.000000;0.747123
9817.000000;0.746773
9816.000000;0.746705
9815.000000;0.746529
9814.000000;0.746074
9813.000000;0.745506
9812.000000;0.744899
9811.000000;0.744104
9810.000000;0.743152
9809.000000;0.742350
9808.000000;0.741866
9807.000000;0.741559
9806.000000;0.741303
9805.000000;0.741143
9804.000000;0.741029
9803.000000;0.740751
9802.000000;0.740245
9801.000000;0.739666
9800.000000;0.739080
9799.000000;0.738374
9798.000000;0.737509
9797.000000;0.736594
9796.000000;0.735695
9795.000000;0.734868
9794.000000;0.734347
9793.000000;0.734340
9792.000000;0.734632
9791.000000;0.734723
9790.000000;0.734393
9789.000000;0.733819
9788.000000;0.733183
9787.000000;0.732539
9786.000000;0.732020
9785.000000;0.731761
9784.000000;0.731583
9783.000000;0.731158
9782.000000;0.730510
9781.000000;0.729965
9780.000000;0.729609
9779.000000;0.729215
9778.000000;0.728723
9777.000000;0.728349
9776.000000;0.728115
9775.000000;0.727705
9774.000000;0.726929
9773.000000;0.725991
9772.000000;0.725199
9771.000000;0.724683
9770.000000;0.724446
9769.000000;0.724351
9768.000000;0.724048
9767.000000;0.723258
9766.000000;0.722185
9765.000000;0.721323
9764.000000;0.720862
9763.000000;0.720605
9762.000000;0.720395
9761.000000;0.720210
9760.000000;0.719877
9759.000000;0.719169
9758.000000;0.718242
9757.000000;0.717561
9756.000000;0.717296
9755.000000;0.717140
9754.000000;0.716793
9753.000000;0.716256
9752.000000;0.715652
9751.000000;0.715113
9750.000000;0.714870
9749.000000;0.715035
9748.000000;0.715232
9747.000000;0.714873
9746.000000;0.713885
9745.000000;0.712752
9744.000000;0.711821
9743.000000;0.711020
9742.000000;0.710298
9741.000000;0.709851
9740.000000;0.709714
9739.000000;0.709573
9738.000000;0.709187
9737.000000;0.708678
9736.000000;0.708236
9735.000000;0.707863
9734.000000;0.707520
9733.000000;0.707229
9732.000000;0.706883
9731.000000;0.706281
9730.000000;0.705460
9729.000000;0.704715
9728.000000;0.704205
9727.000000;0.703819
9726.000000;0.703503
9725.000000;0.703361
9724.000000;0.703339
9723.000000;0.703151
9722.000000;0.702664
9721.000000;0.702068
9720.000000;0.701550
9719.000000;0.701082
9718.000000;0.700634
9717.000000;0.700295
9716.000000;0.700075
9715.000000;0.699825
9714.000000;0.699458
9713.000000;0.699025
9712.000000;0.698534
9711.000000;0.697927
9710.000000;0.697289
9709.000000;0.696792
9708.000000;0.696390
9707.000000;0.695832
9706.000000;0.695031
9705.000000;0.694183
9704.000000;0.693498
9703.000000;0.693040
9702.000000;0.692817
9701.000000;0.692779
9700.000000;0.692711
9699.000000;0.692422
9698.000000;0.692027
9697.000000;0.691786
9696.000000;0.691661
9695.000000;0.691315
9694.000000;0.690546
9693.000000;0.689477
9692.000000;0.688367
9691.000000;0.687496
9690.000000;0.687142
9689.000000;0.687340
9688.000000;0.687687
9687.000000;0.687703
9686.000000;0.687362
9685.000000;0.686966
9684.000000;0.686620
9683.000000;0.686163
9682.000000;0.685555
9681.000000;0.684908
9680.000000;0.684215
9679.000000;0.683420
9678.000000;0.682719
9677.000000;0.682371
9676.000000;0.682235
9675.000000;0.681923
9674.000000;0.681380
9673.000000;0.680898
9672.000000;0.680555
9671.000000;0.680103
9670.000000;0.679454
9669.000000;0.678824
9668.000000;0.678343
9667.000000;0.677911
9666.000000;0.677530
9665.000000;0.677337
9664.000000;0.677237
9663.000000;0.676886
9662.000000;0.676166
9661.000000;0.675350
9660.000000;0.674708
9659.000000;0.674280
9658.000000;0.674080
9657.000000;0.674154
9656.000000;0.674328
9655.000000;0.674250
9654.000000;0.673768
9653.000000;0.673015
9652.000000;0.672101
9651.000000;0.671058
9650.000000;0.670065
9649.000000;0.669361
9648.000000;0.668912
9647.000000;0.668511
9646.000000;0.668194
9645.000000;0.668153
9644.000000;0.668244
9643.000000;0.668030
9642.000000;0.667396
9641.000000;0.666684
9640.000000;0.666156
9639.000000;0.665739
9638.000000;0.665365
9637.000000;0.665127
9636.000000;0.664957
9635.000000;0.664583
9634.000000;0.663977
9633.000000;0.663451
9632.000000;0.663159
9631.000000;0.662858
9630.000000;0.662342
9629.000000;0.661753
9628.000000;0.661297
9627.000000;0.660957
9626.000000;0.660668
9625.000000;0.660469
9624.000000;0.660302
9623.000000;0.659935
9622.000000;0.659252
9621.000000;0.658391
9620.000000;0.657499
9619.000000;0.656598
9618.000000;0.655792
9617.000000;0.655312
9616.000000;0.655213
9615.000000;0.655243
9614.000000;0.655135
9613.000000;0.654821
9612.000000;0.654338
9611.000000;0.653760
9610.000000;0.653261
9609.000000;0.652980
9608.000000;0.652750
9607.000000;0.652254
9606.000000;0.651492
9605.000000;0.650817
9604.000000;0.650457
9603.000000;0.650298
9602.000000;0.650182
9601.000000;0.650096
9600.000000;0.649974
9599.000000;0.649616
9598.000000;0.648960
9597.000000;0.648222
9596.000000;0.647660
9595.000000;0.647369
9594.000000;0.647335
9593.000000;0.647426
9592.000000;0.647338
9591.000000;0.646807
9590.000000;0.645960
9589.000000;0.645207
9588.000000;0.644757
9587.000000;0.644443
9586.000000;0.644037
9585.000000;0.643471
9584.000000;0.642756
9583.000000;0.641965
9582.000000;0.641296
9581.000000;0.640881
9580.000000;0.640530
9579.000000;0.639953
9578.000000;0.639222
9577.000000;0.638679
9576.000000;0.638399
9575.000000;0.638098
9574.000000;0.637630
9573.000000;0.637208
9572.000000;0.637044
9571.000000;0.637094
9570.000000;0.637232
9569.000000;0.637379
9568.000000;0.637337
9567.000000;0.636847
9566.000000;0.635959
9565.000000;0.635093
9564.000000;0.634565
9563.000000;0.634259
9562.000000;0.633853
9561.000000;0.633208
9560.000000;0.632448
9559.000000;0.631812
9558.000000;0.631462
9557.000000;0.631318
9556.000000;0.631090
9555.000000;0.630625
9554.000000;0.630121
9553.000000;0.629807
9552.000000;0.629566
9551.000000;0.629165
9550.000000;0.628695
9549.000000;0.628409
9548.000000;0.628236
9547.000000;0.627883
9546.000000;0.627377
9545.000000;0.627074
9544.000000;0.627058
9543.000000;0.626977
9542.000000;0.626557
9541.000000;0.625924
9540.000000;0.625290
9539.000000;0.624673
9538.000000;0.624075
9537.000000;0.623598
9536.000000;0.623252
9535.000000;0.622883
9534.000000;0.622442
9533.000000;0.622088
9532.000000;0.621934
9531.000000;0.621893
9530.000000;0.621837
9529.000000;0.621679
9528.000000;0.621270
9527.000000;0.620501
9526.000000;0.619569
9525.000000;0.618894
9524.000000;0.618657
9523.000000;0.618622
9522.000000;0.618444
9521.000000;0.617995
9520.000000;0.617375
9519.000000;0.616811
9518.000000;0.616517
9517.000000;0.616453
9516.000000;0.616258
9515.000000;0.615647
9514.000000;0.614812
9513.000000;0.614155
9512.000000;0.613729
9511.000000;0.613261
9510.000000;0.612679
9509.000000;0.612218
9508.000000;0.612000
9507.000000;0.611878
9506.000000;0.611768
9505.000000;0.611785
9504.000000;0.611938
9503.000000;0.611986
9502.000000;0.611715
9501.000000;0.611139
9500.000000;0.610384
9499.000000;0.609611
9498.000000;0.609045
9497.000000;0.608816
9496.000000;0.608749
9495.000000;0.608546
9494.000000;0.608166
9493.000000;0.607772
9492.000000;0.607360
9491.000000;0.606790
9490.000000;0.606150
9489.000000;0.605719
9488.000000;0.605504
9487.000000;0.605205
9486.000000;0.604699
9485.000000;0.604229
9484.000000;0.603996
9483.000000;0.603879
9482.000000;0.603686
9481.000000;0.603383
9480.000000;0.602959
9479.000000;0.602342
9478.000000;0.601580
9477.000000;0.600899
9476.000000;0.600456
9475.000000;0.600220
9474.000000;0.600124
9473.000000;0.600122
9472.000000;0.600083
9471.000000;0.599857
9470.000000;0.599471
9469.000000;0.599048
9468.000000;0.598528
9467.000000;0.597735
9466.000000;0.596745
9465.000000;0.595909
9464.000000;0.595438
9463.000000;0.595235
9462.000000;0.595152
9461.000000;0.595146
9460.000000;0.595123
9459.000000;0.594910
9458.000000;0.594476
9457.000000;0.593973
9456.000000;0.593466
9455.000000;0.592871
9454.000000;0.592194
9453.000000;0.591622
9452.000000;0.591268
9451.000000;0.591041
9450.000000;0.590836
9449.000000;0.590677
9448.000000;0.590616
9447.000000;0.590621
9446.000000;0.590591
9445.000000;0.590376
9444.000000;0.589827
9443.000000;0.589002
9442.000000;0.588253
9441.000000;0.587891
9440.000000;0.587820
9439.000000;0.587692
9438.000000;0.587362
9437.000000;0.586938
9436.000000;0.586487
9435.000000;0.585972
9434.000000;0.585456
9433.000000;0.585077
9432.000000;0.584815
9431.000000;0.584527
9430.000000;0.584186
9429.000000;0.583849
9428.000000;0.583464
9427.000000;0.582985
9426.000000;0.582590
9425.000000;0.582481
9424.000000;0.582491
9423.000000;0.582231
9422.000000;0.581609
9421.000000;0.580910
9420.000000;0.580366
9419.000000;0.579970
9418.000000;0.579689
9417.000000;0.579552
9416.000000;0.579487
9415.000000;0.579350
9414.000000;0.579154
9413.000000;0.579014
9412.000000;0.578881
9411.000000;0.578604
9410.000000;0.578209
9409.000000;0.577841
9408.000000;0.577464
9407.000000;0.576919
9406.000000;0.576257
9405.000000;0.575678
9404.000000;0.575194
9403.000000;0.574671
9402.000000;0.574184
9401.000000;0.573963
9400.000000;0.573972
9399.000000;0.573904
9398.000000;0.573624
9397.000000;0.573296
9396.000000;0.573029
9395.000000;0.572734
9394.000000;0.572377
9393.000000;0.572026
9392.000000;0.571634
9391.000000;0.571095
9390.000000;0.570546
9389.000000;0.570254
9388.000000;0.570156
9387.000000;0.569879
9386.000000;0.569292
9385.000000;0.568680
9384.000000;0.568284
9383.000000;0.568029
9382.000000;0.567826
9381.000000;0.567763
9380.000000;0.567822
9379.000000;0.567743
9378.000000;0.567366
9377.000000;0.566862
9376.000000;0.566422
9375.000000;0.565984
9374.000000;0.565434
9373.000000;0.564862
9372.000000;0.564418
9371.000000;0.564083
9370.000000;0.563727
9369.000000;0.563291
9368.000000;0.562832
9367.000000;0.562485
9366.000000;0.562406
9365.000000;0.562586
9364.000000;0.562723
9363.000000;0.562498
9362.000000;0.561962
9361.000000;0.561437
9360.000000;0.561052
9359.000000;0.560639
9358.000000;0.560104
9357.000000;0.559597
9356.000000;0.559229
9355.000000;0.558904
9354.000000;0.558536
9353.000000;0.558218
9352.000000;0.558059
9351.000000;0.558007
9350.000000;0.557914
9349.000000;0.557669
9348.000000;0.557233
9347.000000;0.556704
9346.000000;0.556272
9345.000000;0.555957
9344.000000;0.555492
9343.000000;0.554700
9342.000000;0.553903
9341.000000;0.553610
9340.000000;0.553843
9339.000000;0.554109
9338.000000;0.554051
9337.000000;0.553766
9336.000000;0.553426
9335.000000;0.552984
9334.000000;0.552407
9333.000000;0.551900
9332.000000;0.551657
9331.000000;0.551608
9330.000000;0.551538
9329.000000;0.551317
9328.000000;0.550911
9327.000000;0.550332
9326.000000;0.549694
9325.000000;0.549178
9324.000000;0.548881
9323.000000;0.548796
9322.000000;0.548898
9321.000000;0.549097
9320.000000;0.549137
9319.000000;0.548788
9318.000000;0.548144
9317.000000;0.547514
9316.000000;0.547037
9315.000000;0.546615
9314.000000;0.546203
9313.000000;0.545894
9312.000000;0.545687
9311.000000;0.545444
9310.000000;0.545127
9309.000000;0.544853
9308.000000;0.544668
9307.000000;0.544488
9306.000000;0.544291
9305.000000;0.544120
9304.000000;0.543897
9303.000000;0.543459
9302.000000;0.542842
9301.000000;0.542296
9300.000000;0.541956
9299.000000;0.541729
9298.000000;0.541506
9297.000000;0.541295
9296.000000;0.541077
9295.000000;0.540786
9294.000000;0.540462
9293.000000;0.540223
9292.000000;0.540048
9291.000000;0.539804
9290.000000;0.539502
9289.000000;0.539291
9288.000000;0.539164
9287.000000;0.538929
9286.000000;0.538506
9285.000000;0.538031
9284.000000;0.537610
9283.000000;0.537187
9282.000000;0.536715
9281.000000;0.536238
9280.000000;0.535764
9279.000000;0.535258
9278.000000;0.534811
9277.000000;0.534580
9276.000000;0.534547
9275.000000;0.534526
9274.000000;0.534451
9273.000000;0.534417
9272.000000;0.534398
9271.000000;0.534193
9270.000000;0.533724
9269.000000;0.533179
9268.000000;0.532758
9267.000000;0.532468
9266.000000;0.532236
9265.000000;0.532030
9264.000000;0.531791
9263.000000;0.531455
9262.000000;0.531097
9261.000000;0.530874
9260.000000;0.530773
9259.000000;0.530578
9258.000000;0.530162
9257.000000;0.529619
9256.000000;0.529082
9255.000000;0.528591
9254.000000;0.528213
9253.000000;0.528079
9252.000000;0.528179
9251.000000;0.528278
9250.000000;0.528133
9249.000000;0.527721
9248.000000;0.527202
9247.000000;0.526746
9246.000000;0.526441
9245.000000;0.526266
9244.000000;0.526120
9243.000000;0.525928
9242.000000;0.525707
9241.000000;0.525468
9240.000000;0.525138
9239.000000;0.524685
9238.000000;0.524239
9237.000000;0.523940
9236.000000;0.523752
9235.000000;0.523570
9234.000000;0.523423
9233.000000;0.523378
9232.000000;0.523329
9231.000000;0.523097
9230.000000;0.522686
9229.000000;0.522256
9228.000000;0.521892
9227.000000;0.521584
9226.000000;0.521350
9225.000000;0.521204
9224.000000;0.521054
9223.000000;0.520826
9222.000000;0.520596
9221.000000;0.520413
9220.000000;0.520127
9219.000000;0.519618
9218.000000;0.519073
9217.000000;0.518750
9216.000000;0.518573
9215.000000;0.518274
9214.000000;0.517868
9213.000000;0.517653
9212.000000;0.517745
9211.000000;0.517928
9210.000000;0.517967
9209.000000;0.517800
9208.000000;0.517404
9207.000000;0.516770
9206.000000;0.516058
9205.000000;0.515504
9204.000000;0.515149
9203.000000;0.514852
9202.000000;0.514588
9201.000000;0.514468
9200.000000;0.514458
9199.000000;0.514370
9198.000000;0.514163
9197.000000;0.514015
9196.000000;0.513999
9195.000000;0.513937
9194.000000;0.513647
9193.000000;0.513149
9192.000000;0.512578
9191.000000;0.512058
9190.000000;0.511681
9189.000000;0.511460
9188.000000;0.511270
9187.000000;0.510991
9186.000000;0.510670
9185.000000;0.510412
9184.000000;0.510174
9183.000000;0.509862
9182.000000;0.509560
9181.000000;0.509415
9180.000000;0.509365
9179.000000;0.509220
9178.000000;0.508973
9177.000000;0.508798
9176.000000;0.508753
9175.000000;0.508739
9174.000000;0.508698
9173.000000;0.508597
9172.000000;0.508280
9171.000000;0.507633
9170.000000;0.506873
9169.000000;0.506373
9168.000000;0.506198
9167.000000;0.506107
9166.000000;0.505983
9165.000000;0.505949
9164.000000;0.506025
9163.000000;0.506008
9162.000000;0.505794
9161.000000;0.505521
9160.000000;0.505301
9159.000000;0.505049
9158.000000;0.504679
9157.000000;0.504245
9156.000000;0.503788
9155.000000;0.503263
9154.000000;0.502710
9153.000000;0.502305
9152.000000;0.502137
9151.000000;0.502093
9150.000000;0.502034
9149.000000;0.501930
9148.000000;0.501804
9147.000000;0.501689
9146.000000;0.501635
9145.000000;0.501635
9144.000000;0.501539
9143.000000;0.501236
9142.000000;0.500864
9141.000000;0.500629
9140.000000;0.500481
9139.000000;0.500200
9138.000000;0.499807
9137.000000;0.499572
9136.000000;0.499595
9135.000000;0.499630
9134.000000;0.499403
9133.000000;0.498898
9132.000000;0.498280
9131.000000;0.497738
9130.000000;0.497443
9129.000000;0.497448
9128.000000;0.497591
9127.000000;0.497634
9126.000000;0.497542
9125.000000;0.497434
9124.000000;0.497297
9123.000000;0.496989
9122.000000;0.496535
9121.000000;0.496182
9120.000000;0.496090
9119.000000;0.496170
9118.000000;0.496256
9117.000000;0.496252
9116.000000;0.496093
9115.000000;0.495753
9114.000000;0.495321
9113.000000;0.494910
9112.000000;0.494486
9111.000000;0.493955
9110.000000;0.493391
9109.000000;0.492969
9108.000000;0.492704
9107.000000;0.492467
9106.000000;0.492244
9105.000000;0.492127
9104.000000;0.492085
9103.000000;0.491965
9102.000000;0.491754
9101.000000;0.491574
9100.000000;0.491425
9099.000000;0.491191
9098.000000;0.490928
9097.000000;0.490847
9096.000000;0.490965
9095.000000;0.491025
9094.000000;0.490845
9093.000000;0.490515
9092.000000;0.490173
9091.000000;0.489822
9090.000000;0.489488
9089.000000;0.489287
9088.000000;0.489226
9087.000000;0.489112
9086.000000;0.488805
9085.000000;0.488418
9084.000000;0.488154
9083.000000;0.488079
9082.000000;0.488110
9081.000000;0.488117
9080.000000;0.487959
9079.000000;0.487569
9078.000000;0.487038
9077.000000;0.486551
9076.000000;0.486197
9075.000000;0.485961
9074.000000;0.485848
9073.000000;0.485871
9072.000000;0.485933
9071.000000;0.485889
9070.000000;0.485749
9069.000000;0.485643
9068.000000;0.485595
9067.000000;0.485492
9066.000000;0.485274
9065.000000;0.485006
9064.000000;0.484751
9063.000000;0.484531
9062.000000;0.484399
9061.000000;0.484369
9060.000000;0.484301
9059.000000;0.484038
9058.000000;0.483654
9057.000000;0.483352
9056.000000;0.483132
9055.000000;0.482786
9054.000000;0.482241
9053.000000;0.481685
