Criado como novo conjunto de dados;"e2410_daniel_v2.spp","2881.8 Secs"
cm-1;Abs
10000.000000;0.529768
9999.000000;0.463948
9998.000000;0.406804
9997.000000;0.356312
9996.000000;0.311044
9995.000000;0.270126
9994.000000;0.232610
9993.000000;0.198304
9992.000000;0.166158
9991.000000;0.136830
9990.000000;0.108078
9989.000000;0.088213
9988.000000;0.089876
9987.000000;0.113456
9986.000000;0.147173
9985.000000;0.170313
9984.000000;0.173055
9983.000000;0.165298
9982.000000;0.156792
9981.000000;0.143971
9980.000000;0.121312
9979.000000;0.095917
9978.000000;0.082856
9977.000000;0.091862
9976.000000;0.121129
9975.000000;0.155200
9974.000000;0.172341
9973.000000;0.167281
9972.000000;0.154189
9971.000000;0.142276
9970.000000;0.127441
9969.000000;0.105828
9968.000000;0.085373
9967.000000;0.079665
9966.000000;0.096099
9965.000000;0.129918
9964.000000;0.161936
9963.000000;0.170781
9962.000000;0.157962
9961.000000;0.141182
9960.000000;0.127980
9959.000000;0.113263
9958.000000;0.094112
9957.000000;0.078839
9956.000000;0.079811
9955.000000;0.102425
9954.000000;0.138729
9953.000000;0.166004
9952.000000;0.165423
9951.000000;0.145888
9950.000000;0.126711
9949.000000;0.113119
9948.000000;0.099421
9947.000000;0.083728
9946.000000;0.074535
9945.000000;0.082641
9944.000000;0.110848
9943.000000;0.147285
9942.000000;0.166690
9941.000000;0.156114
9940.000000;0.131832
9939.000000;0.112504
9938.000000;0.100330
9937.000000;0.088781
9936.000000;0.076725
9935.000000;0.072937
9934.000000;0.087059
9933.000000;0.119190
9932.000000;0.153046
9931.000000;0.162497
9930.000000;0.142819
9929.000000;0.115826
9928.000000;0.097623
9927.000000;0.087580
9926.000000;0.078886
9925.000000;0.071303
9924.000000;0.073476
9923.000000;0.093301
9922.000000;0.127571
9921.000000;0.155811
9920.000000;0.154097
9919.000000;0.127223
9918.000000;0.099817
9917.000000;0.084461
9916.000000;0.077999
9915.000000;0.073139
9914.000000;0.070108
9913.000000;0.077328
9912.000000;0.101046
9911.000000;0.134558
9910.000000;0.154174
9909.000000;0.141359
9908.000000;0.109905
9907.000000;0.084104
9906.000000;0.072415
9905.000000;0.069563
9904.000000;0.068275
9903.000000;0.069677
9902.000000;0.081908
9901.000000;0.108871
9900.000000;0.139532
9899.000000;0.148768
9898.000000;0.126383
9897.000000;0.093153
9896.000000;0.070658
9895.000000;0.063370
9894.000000;0.064343
9893.000000;0.066484
9892.000000;0.071685
9891.000000;0.087607
9890.000000;0.115628
9889.000000;0.140657
9888.000000;0.138646
9887.000000;0.108890
9886.000000;0.076019
9885.000000;0.057857
9884.000000;0.055476
9883.000000;0.060580
9882.000000;0.066322
9881.000000;0.075098
9880.000000;0.093590
9879.000000;0.120149
9878.000000;0.136759
9877.000000;0.123892
9876.000000;0.089982
9875.000000;0.060132
9874.000000;0.047758
9873.000000;0.050896
9872.000000;0.059923
9871.000000;0.068317
9870.000000;0.079272
9869.000000;0.098727
9868.000000;0.121976
9867.000000;0.129367
9866.000000;0.107869
9865.000000;0.072760
9864.000000;0.047244
9863.000000;0.040620
9862.000000;0.048663
9861.000000;0.061010
9860.000000;0.071667
9859.000000;0.084232
9858.000000;0.103212
9857.000000;0.120933
9856.000000;0.118267
9855.000000;0.089932
9854.000000;0.055614
9853.000000;0.035461
9852.000000;0.035127
9851.000000;0.048201
9850.000000;0.063363
9849.000000;0.075078
9848.000000;0.087547
9847.000000;0.104069
9846.000000;0.114930
9845.000000;0.103684
9844.000000;0.072031
9843.000000;0.040999
9842.000000;0.027128
9841.000000;0.033064
9840.000000;0.050507
9839.000000;0.067470
9838.000000;0.079218
9837.000000;0.090447
9836.000000;0.102999
9835.000000;0.106024
9834.000000;0.087340
9833.000000;0.054550
9832.000000;0.028126
9831.000000;0.020944
9830.000000;0.032888
9829.000000;0.053772
9828.000000;0.071071
9827.000000;0.081342
9826.000000;0.090106
9825.000000;0.097912
9824.000000;0.093799
9823.000000;0.070229
9822.000000;0.038673
9821.000000;0.017890
9820.000000;0.017571
9819.000000;0.035220
9818.000000;0.058767
9817.000000;0.075190
9816.000000;0.082545
9815.000000;0.087371
9814.000000;0.089562
9813.000000;0.079254
9812.000000;0.053178
9811.000000;0.024679
9810.000000;0.010289
9809.000000;0.016853
9808.000000;0.039467
9807.000000;0.064129
9806.000000;0.078062
9805.000000;0.081694
9804.000000;0.082442
9803.000000;0.079418
9802.000000;0.064275
9801.000000;0.037536
9800.000000;0.013357
9799.000000;0.005871
9798.000000;0.019247
9797.000000;0.045983
9796.000000;0.069931
9795.000000;0.079226
9794.000000;0.077720
9793.000000;0.074075
9792.000000;0.066870
9791.000000;0.049145
9790.000000;0.023795
9789.000000;0.004715
9788.000000;0.003862
9787.000000;0.023093
9786.000000;0.052300
9785.000000;0.073623
9784.000000;0.077343
9783.000000;0.070941
9782.000000;0.063559
9781.000000;0.053160
9780.000000;0.034290
9779.000000;0.011653
9778.000000;-0.001563
9777.000000;0.004390
9776.000000;0.028863
9775.000000;0.058898
9774.000000;0.075556
9773.000000;0.072785
9772.000000;0.061830
9771.000000;0.051653
9770.000000;0.039539
9769.000000;0.021226
9768.000000;0.002459
9767.000000;-0.004534
9766.000000;0.007937
9765.000000;0.036503
9764.000000;0.065057
9763.000000;0.074813
9762.000000;0.065074
9761.000000;0.050388
9760.000000;0.038521
9759.000000;0.025845
9758.000000;0.009158
9757.000000;-0.005081
9756.000000;-0.005761
9755.000000;0.012660
9754.000000;0.043864
9753.000000;0.068801
9752.000000;0.070582
9751.000000;0.054680
9750.000000;0.037632
9749.000000;0.025479
9748.000000;0.013741
9747.000000;-0.000139
9746.000000;-0.009466
9745.000000;-0.004263
9744.000000;0.018923
9743.000000;0.050659
9742.000000;0.069692
9741.000000;0.063115
9740.000000;0.042664
9739.000000;0.025130
9738.000000;0.014108
9737.000000;0.004193
9736.000000;-0.006528
9735.000000;-0.011012
9734.000000;-0.000330
9733.000000;0.026484
9732.000000;0.056286
9731.000000;0.066975
9730.000000;0.052094
9729.000000;0.028594
9728.000000;0.011728
9727.000000;0.002478
9726.000000;-0.005135
9725.000000;-0.012254
9724.000000;-0.011673
9723.000000;0.004224
9722.000000;0.033563
9721.000000;0.059593
9720.000000;0.061195
9719.000000;0.039528
9718.000000;0.014898
9717.000000;0.000053
9716.000000;-0.006412
9715.000000;-0.010918
9714.000000;-0.014002
9713.000000;-0.008588
9712.000000;0.011243
9711.000000;0.040422
9710.000000;0.059492
9709.000000;0.051189
9708.000000;0.024442
9707.000000;0.000488
9706.000000;-0.011242
9705.000000;-0.014345
9704.000000;-0.015541
9703.000000;-0.014775
9702.000000;-0.005138
9701.000000;0.017480
9700.000000;0.044679
9699.000000;0.055482
9698.000000;0.038732
9697.000000;0.009694
9696.000000;-0.011752
9695.000000;-0.019636
9694.000000;-0.019303
9693.000000;-0.017472
9692.000000;-0.013403
9691.000000;-0.000492
9690.000000;0.023213
9689.000000;0.045950
9688.000000;0.047131
9687.000000;0.023222
9686.000000;-0.006048
9685.000000;-0.023517
9684.000000;-0.026611
9683.000000;-0.022352
9682.000000;-0.017462
9681.000000;-0.010551
9680.000000;0.004555
9679.000000;0.027489
9678.000000;0.043839
9677.000000;0.035821
9676.000000;0.007341
9675.000000;-0.020322
9674.000000;-0.033330
9673.000000;-0.031846
9672.000000;-0.024126
9671.000000;-0.016688
9670.000000;-0.007516
9669.000000;0.008824
9668.000000;0.029397
9667.000000;0.038170
9666.000000;0.022063
9665.000000;-0.008503
9664.000000;-0.032793
9663.000000;-0.040561
9662.000000;-0.034401
9661.000000;-0.023503
9660.000000;-0.014050
9659.000000;-0.003516
9658.000000;0.012550
9657.000000;0.028823
9656.000000;0.029311
9655.000000;0.006844
9654.000000;-0.023716
9653.000000;-0.043571
9652.000000;-0.045767
9651.000000;-0.035078
9650.000000;-0.021617
9649.000000;-0.011131
9648.000000;-0.000508
9647.000000;0.013718
9646.000000;0.024403
9645.000000;0.017191
9644.000000;-0.009096
9643.000000;-0.037426
9642.000000;-0.051788
9641.000000;-0.048202
9640.000000;-0.033341
9639.000000;-0.018114
9638.000000;-0.007657
9637.000000;0.001840
9636.000000;0.012960
9635.000000;0.017510
9634.000000;0.003850
9633.000000;-0.024224
9632.000000;-0.049196
9631.000000;-0.057858
9630.000000;-0.048723
9629.000000;-0.030290
9628.000000;-0.014214
9627.000000;-0.004737
9626.000000;0.002721
9625.000000;0.009765
9624.000000;0.007823
9623.000000;-0.011043
9622.000000;-0.038981
9621.000000;-0.059212
9620.000000;-0.061559
9619.000000;-0.047146
9618.000000;-0.026317
9617.000000;-0.011009
9616.000000;-0.003914
9615.000000;0.000517
9614.000000;0.003169
9613.000000;-0.004127
9612.000000;-0.025813
9611.000000;-0.051683
9610.000000;-0.066508
9609.000000;-0.062716
9608.000000;-0.043659
9607.000000;-0.021474
9606.000000;-0.008158
9605.000000;-0.004371
9604.000000;-0.003455
9603.000000;-0.005100
9602.000000;-0.016617
9601.000000;-0.039396
9600.000000;-0.062000
9599.000000;-0.070937
9598.000000;-0.061080
9597.000000;-0.038226
9596.000000;-0.016409
9595.000000;-0.006903
9594.000000;-0.007524
9593.000000;-0.010472
9592.000000;-0.015937
9591.000000;-0.030182
9590.000000;-0.052217
9589.000000;-0.070358
9588.000000;-0.073028
9587.000000;-0.057449
9586.000000;-0.031888
9585.000000;-0.012059
9584.000000;-0.007569
9583.000000;-0.012841
9582.000000;-0.019217
9581.000000;-0.027451
9580.000000;-0.042904
9579.000000;-0.062977
9578.000000;-0.076267
9577.000000;-0.073041
9576.000000;-0.052752
9575.000000;-0.026124
9574.000000;-0.009869
9573.000000;-0.010793
9572.000000;-0.020093
9571.000000;-0.029166
9570.000000;-0.039475
9569.000000;-0.055229
9568.000000;-0.072438
9567.000000;-0.080296
9566.000000;-0.071058
9565.000000;-0.046746
9564.000000;-0.020857
9563.000000;-0.010184
9562.000000;-0.017122
9561.000000;-0.029721
9560.000000;-0.040150
9559.000000;-0.050912
9558.000000;-0.065518
9557.000000;-0.079103
9556.000000;-0.081562
9555.000000;-0.067042
9554.000000;-0.040196
9553.000000;-0.017001
9552.000000;-0.013014
9551.000000;-0.025533
9550.000000;-0.040453
9549.000000;-0.051287
9548.000000;-0.061481
9547.000000;-0.074013
9546.000000;-0.083559
9545.000000;-0.080802
9544.000000;-0.061756
9543.000000;-0.033870
9542.000000;-0.015265
9541.000000;-0.018625
9540.000000;-0.035788
9539.000000;-0.051723
9538.000000;-0.061867
9537.000000;-0.070552
9536.000000;-0.080195
9535.000000;-0.085199
9534.000000;-0.077287
9533.000000;-0.054678
9532.000000;-0.027818
9531.000000;-0.015821
9530.000000;-0.026546
9529.000000;-0.047013
9528.000000;-0.062773
9527.000000;-0.071448
9526.000000;-0.078172
9525.000000;-0.084842
9524.000000;-0.085600
9523.000000;-0.073256
9522.000000;-0.048491
9521.000000;-0.024797
9520.000000;-0.020715
9519.000000;-0.037864
9518.000000;-0.059689
9517.000000;-0.073705
9516.000000;-0.079902
9515.000000;-0.083966
9514.000000;-0.087205
9513.000000;-0.083704
9512.000000;-0.067597
9511.000000;-0.042225
9510.000000;-0.023621
9509.000000;-0.027846
9508.000000;-0.049956
9507.000000;-0.071693
9506.000000;-0.083120
9505.000000;-0.086426
9504.000000;-0.087789
9503.000000;-0.087895
9502.000000;-0.080775
9501.000000;-0.062073
9500.000000;-0.037991
9499.000000;-0.026121
9498.000000;-0.038156
9497.000000;-0.063298
9496.000000;-0.083593
9495.000000;-0.091936
9494.000000;-0.092132
9493.000000;-0.090482
9492.000000;-0.087245
9491.000000;-0.076804
9490.000000;-0.056649
9489.000000;-0.035731
9488.000000;-0.031655
9487.000000;-0.050241
9486.000000;-0.076344
9485.000000;-0.093614
9484.000000;-0.097886
9483.000000;-0.094607
9482.000000;-0.090209
9481.000000;-0.084381
9480.000000;-0.071784
9479.000000;-0.051831
9478.000000;-0.035910
9477.000000;-0.040094
9476.000000;-0.063767
9475.000000;-0.089201
9474.000000;-0.102559
9473.000000;-0.102515
9472.000000;-0.095984
9471.000000;-0.089325
9470.000000;-0.081521
9469.000000;-0.067687
9468.000000;-0.049391
9467.000000;-0.039643
9466.000000;-0.051134
9465.000000;-0.077475
9464.000000;-0.100465
9463.000000;-0.109301
9462.000000;-0.105071
9461.000000;-0.095730
9460.000000;-0.087403
9459.000000;-0.078507
9458.000000;-0.064800
9457.000000;-0.049791
9456.000000;-0.046889
9455.000000;-0.064280
9454.000000;-0.091213
9453.000000;-0.110480
9452.000000;-0.114166
9451.000000;-0.105481
9450.000000;-0.093442
9449.000000;-0.083976
9448.000000;-0.074908
9447.000000;-0.062582
9446.000000;-0.052010
9445.000000;-0.055773
9444.000000;-0.077313
9443.000000;-0.103162
9442.000000;-0.118038
9441.000000;-0.116781
9440.000000;-0.104475
9439.000000;-0.090869
9438.000000;-0.081292
9437.000000;-0.072883
9436.000000;-0.062799
9435.000000;-0.057282
9434.000000;-0.067020
9433.000000;-0.090889
9432.000000;-0.114147
9431.000000;-0.123786
9430.000000;-0.117197
9429.000000;-0.101380
9428.000000;-0.086855
9427.000000;-0.078131
9426.000000;-0.071478
9425.000000;-0.064720
9424.000000;-0.064649
9423.000000;-0.079293
9422.000000;-0.103779
9421.000000;-0.123387
9420.000000;-0.127567
9419.000000;-0.116048
9418.000000;-0.097596
9417.000000;-0.083287
9416.000000;-0.076494
9415.000000;-0.072493
9414.000000;-0.069527
9413.000000;-0.074203
9412.000000;-0.091799
9411.000000;-0.115028
9410.000000;-0.130044
9409.000000;-0.128698
9408.000000;-0.112922
9407.000000;-0.093090
9406.000000;-0.080288
9405.000000;-0.076178
9404.000000;-0.075051
9403.000000;-0.075736
9402.000000;-0.084412
9401.000000;-0.103674
9400.000000;-0.124594
9399.000000;-0.134539
9398.000000;-0.127619
9397.000000;-0.108070
9396.000000;-0.088059
9395.000000;-0.078272
9394.000000;-0.077989
9393.000000;-0.080345
9392.000000;-0.084562
9391.000000;-0.096089
9390.000000;-0.115305
9389.000000;-0.132592
9388.000000;-0.136930
9387.000000;-0.124687
9386.000000;-0.102402
9385.000000;-0.083771
9384.000000;-0.078200
9383.000000;-0.081968
9382.000000;-0.087246
9381.000000;-0.093869
9380.000000;-0.106732
9379.000000;-0.124691
9378.000000;-0.138004
9377.000000;-0.137160
9376.000000;-0.120621
9375.000000;-0.097161
9374.000000;-0.081434
9373.000000;-0.080545
9372.000000;-0.087851
9371.000000;-0.095353
9370.000000;-0.103676
9369.000000;-0.117018
9368.000000;-0.132899
9367.000000;-0.141761
9366.000000;-0.135691
9365.000000;-0.115356
9364.000000;-0.091902
9363.000000;-0.080417
9362.000000;-0.084818
9361.000000;-0.095577
9360.000000;-0.104858
9359.000000;-0.114007
9358.000000;-0.126626
9357.000000;-0.139364
9356.000000;-0.143127
9355.000000;-0.131720
9354.000000;-0.108287
9353.000000;-0.086404
9352.000000;-0.080492
9351.000000;-0.090171
9350.000000;-0.103502
9349.000000;-0.113579
9348.000000;-0.122688
9347.000000;-0.133903
9346.000000;-0.143249
9345.000000;-0.142295
9344.000000;-0.126671
9343.000000;-0.102092
9342.000000;-0.084058
9341.000000;-0.084814
9340.000000;-0.099134
9339.000000;-0.113699
9338.000000;-0.123193
9337.000000;-0.131005
9336.000000;-0.139898
9335.000000;-0.145460
9334.000000;-0.139978
9333.000000;-0.120950
9332.000000;-0.096666
9331.000000;-0.083697
9330.000000;-0.090715
9329.000000;-0.108157
9328.000000;-0.122750
9327.000000;-0.131092
9326.000000;-0.137318
9325.000000;-0.143677
9324.000000;-0.145404
9323.000000;-0.135713
9322.000000;-0.114346
9321.000000;-0.092345
9320.000000;-0.086197
9319.000000;-0.099521
9318.000000;-0.119065
9317.000000;-0.132653
9316.000000;-0.138979
9315.000000;-0.142851
9314.000000;-0.146077
9313.000000;-0.143862
9312.000000;-0.130625
9311.000000;-0.108390
9310.000000;-0.090360
9309.000000;-0.091342
9308.000000;-0.109494
9307.000000;-0.129422
9306.000000;-0.140887
9305.000000;-0.144640
9304.000000;-0.146121
9303.000000;-0.146660
9302.000000;-0.141294
9301.000000;-0.125609
9300.000000;-0.104014
9299.000000;-0.091316
9298.000000;-0.099212
9297.000000;-0.120659
9296.000000;-0.139644
9295.000000;-0.148332
9294.000000;-0.149232
9293.000000;-0.148119
9292.000000;-0.145863
9291.000000;-0.137594
9290.000000;-0.120389
9289.000000;-0.101077
9288.000000;-0.094873
9287.000000;-0.108935
9286.000000;-0.131961
9285.000000;-0.148749
9284.000000;-0.154005
9283.000000;-0.151781
9282.000000;-0.148059
9281.000000;-0.143281
9280.000000;-0.132836
9279.000000;-0.115403
9278.000000;-0.099943
9277.000000;-0.100829
9276.000000;-0.120030
9275.000000;-0.143175
9274.000000;-0.156704
9273.000000;-0.157941
9272.000000;-0.152561
9271.000000;-0.146739
9270.000000;-0.140269
9269.000000;-0.128671
9268.000000;-0.112281
9267.000000;-0.101669
9266.000000;-0.109077
9265.000000;-0.131517
9264.000000;-0.153315
9263.000000;-0.163143
9262.000000;-0.160539
9261.000000;-0.152282
9260.000000;-0.144524
9259.000000;-0.136665
9258.000000;-0.124781
9257.000000;-0.110920
9256.000000;-0.106262
9255.000000;-0.119476
9254.000000;-0.143222
9253.000000;-0.162082
9252.000000;-0.167412
9251.000000;-0.160874
9250.000000;-0.150278
9249.000000;-0.141585
9248.000000;-0.133564
9247.000000;-0.122675
9246.000000;-0.112330
9245.000000;-0.113446
9244.000000;-0.130919
9243.000000;-0.154407
9242.000000;-0.169489
9241.000000;-0.170005
9240.000000;-0.159602
9239.000000;-0.147034
9238.000000;-0.137893
9237.000000;-0.130295
9236.000000;-0.121263
9235.000000;-0.115316
9234.000000;-0.122034
9233.000000;-0.142283
9232.000000;-0.164005
9231.000000;-0.174594
9230.000000;-0.170324
9229.000000;-0.156686
9228.000000;-0.143234
9227.000000;-0.134875
9226.000000;-0.128799
9225.000000;-0.122420
9224.000000;-0.120920
9223.000000;-0.132113
9222.000000;-0.153530
9221.000000;-0.172422
9220.000000;-0.178144
9219.000000;-0.169235
9218.000000;-0.152940
9217.000000;-0.139375
9216.000000;-0.132424
9215.000000;-0.128325
9214.000000;-0.124959
9213.000000;-0.127737
9212.000000;-0.142240
9211.000000;-0.163357
9210.000000;-0.178538
9209.000000;-0.179214
9208.000000;-0.166102
9207.000000;-0.148141
9206.000000;-0.135729
9205.000000;-0.131326
9204.000000;-0.130049
9203.000000;-0.130062
9202.000000;-0.136533
9201.000000;-0.152845
9200.000000;-0.172151
9199.000000;-0.182781
9198.000000;-0.178307
9197.000000;-0.161564
9196.000000;-0.143067
9195.000000;-0.132970
9194.000000;-0.131762
9193.000000;-0.133458
9192.000000;-0.136559
9191.000000;-0.145764
9190.000000;-0.162557
9189.000000;-0.179165
9188.000000;-0.185030
9187.000000;-0.175640
9186.000000;-0.155916
9185.000000;-0.137983
9184.000000;-0.131312
9183.000000;-0.133873
9182.000000;-0.138523
9181.000000;-0.144172
9180.000000;-0.155107
9179.000000;-0.171268
9178.000000;-0.184404
9177.000000;-0.185289
9176.000000;-0.171529
9175.000000;-0.150261
9174.000000;-0.134644
9173.000000;-0.132291
9172.000000;-0.138356
9171.000000;-0.145154
9170.000000;-0.152289
9169.000000;-0.163697
9168.000000;-0.178156
9167.000000;-0.187310
9166.000000;-0.183284
9165.000000;-0.165772
9164.000000;-0.144182
9163.000000;-0.132280
9162.000000;-0.134906
9161.000000;-0.144263
9160.000000;-0.152617
9159.000000;-0.160491
9158.000000;-0.171512
9157.000000;-0.183582
9156.000000;-0.188574
9155.000000;-0.180095
9154.000000;-0.159966
9153.000000;-0.139616
9152.000000;-0.132392
9151.000000;-0.139613
9150.000000;-0.151226
9149.000000;-0.160207
9148.000000;-0.168015
9147.000000;-0.177877
9146.000000;-0.186970
9145.000000;-0.187619
9144.000000;-0.175059
9143.000000;-0.153380
9142.000000;-0.135831
9141.000000;-0.134298
9140.000000;-0.146016
9139.000000;-0.159324
9138.000000;-0.168357
9137.000000;-0.175494
9136.000000;-0.183630
9135.000000;-0.189424
9134.000000;-0.185771
9133.000000;-0.169655
9132.000000;-0.147609
9131.000000;-0.134166
9130.000000;-0.138480
9129.000000;-0.153648
9128.000000;-0.167408
9127.000000;-0.175484
9126.000000;-0.181149
9125.000000;-0.187008
9124.000000;-0.189408
9123.000000;-0.181986
9122.000000;-0.163563
9121.000000;-0.143016
9120.000000;-0.135157
9119.000000;-0.145173
9118.000000;-0.162571
9117.000000;-0.175621
9116.000000;-0.181949
9115.000000;-0.185652
9114.000000;-0.188969
9113.000000;-0.187965
9112.000000;-0.177184
9111.000000;-0.157463
9110.000000;-0.139801
9109.000000;-0.138146
9108.000000;-0.153052
9107.000000;-0.171395
9106.000000;-0.182754
9105.000000;-0.186688
9104.000000;-0.188068
9103.000000;-0.188844
9102.000000;-0.184887
9101.000000;-0.171675
9100.000000;-0.152149
9099.000000;-0.138946
9098.000000;-0.143751
9097.000000;-0.162351
9096.000000;-0.180383
9095.000000;-0.189366
9094.000000;-0.190655
9093.000000;-0.189629
9092.000000;-0.187817
9091.000000;-0.181081
9090.000000;-0.166168
9089.000000;-0.148206
9088.000000;-0.140595
9087.000000;-0.151428
9086.000000;-0.172195
9085.000000;-0.188619
9084.000000;-0.194525
9083.000000;-0.192918
9082.000000;-0.189569
