Criado como novo conjunto de dados;"e2410_daniel_v2.spp","16742.7 Secs"
cm-1;Abs
10000.000000;0.266931
9999.000000;0.266800
9998.000000;0.266411
9997.000000;0.265709
9996.000000;0.264879
9995.000000;0.264115
9994.000000;0.263544
9993.000000;0.263169
9992.000000;0.262896
9991.000000;0.262620
9990.000000;0.262329
9989.000000;0.262035
9988.000000;0.261630
9987.000000;0.260948
9986.000000;0.260000
9985.000000;0.259012
9984.000000;0.258206
9983.000000;0.257640
9982.000000;0.257263
9981.000000;0.256999
9980.000000;0.256724
9979.000000;0.256319
9978.000000;0.255775
9977.000000;0.255185
9976.000000;0.254603
9975.000000;0.254035
9974.000000;0.253567
9973.000000;0.253323
9972.000000;0.253235
9971.000000;0.253022
9970.000000;0.252472
9969.000000;0.251656
9968.000000;0.250794
9967.000000;0.250025
9966.000000;0.249387
9965.000000;0.248887
9964.000000;0.248510
9963.000000;0.248203
9962.000000;0.247917
9961.000000;0.247615
9960.000000;0.247239
9959.000000;0.246751
9958.000000;0.246212
9957.000000;0.245716
9956.000000;0.245241
9955.000000;0.244680
9954.000000;0.244030
9953.000000;0.243431
9952.000000;0.242973
9951.000000;0.242598
9950.000000;0.242216
9949.000000;0.241800
9948.000000;0.241333
9947.000000;0.240790
9946.000000;0.240240
9945.000000;0.239830
9944.000000;0.239593
9943.000000;0.239372
9942.000000;0.238999
9941.000000;0.238457
9940.000000;0.237837
9939.000000;0.237218
9938.000000;0.236668
9937.000000;0.236235
9936.000000;0.235864
9935.000000;0.235412
9934.000000;0.234815
9933.000000;0.234185
9932.000000;0.233674
9931.000000;0.233303
9930.000000;0.232949
9929.000000;0.232496
9928.000000;0.231937
9927.000000;0.231383
9926.000000;0.230954
9925.000000;0.230622
9924.000000;0.230182
9923.000000;0.229467
9922.000000;0.228571
9921.000000;0.227783
9920.000000;0.227299
9919.000000;0.227093
9918.000000;0.227009
9917.000000;0.226863
9916.000000;0.226482
9915.000000;0.225811
9914.000000;0.225022
9913.000000;0.224391
9912.000000;0.224016
9911.000000;0.223765
9910.000000;0.223482
9909.000000;0.223141
9908.000000;0.222748
9907.000000;0.222265
9906.000000;0.221672
9905.000000;0.221023
9904.000000;0.220383
9903.000000;0.219793
9902.000000;0.219313
9901.000000;0.218984
9900.000000;0.218717
9899.000000;0.218333
9898.000000;0.217766
9897.000000;0.217118
9896.000000;0.216488
9895.000000;0.215859
9894.000000;0.215203
9893.000000;0.214590
9892.000000;0.214110
9891.000000;0.213770
9890.000000;0.213504
9889.000000;0.213235
9888.000000;0.212898
9887.000000;0.212470
9886.000000;0.212014
9885.000000;0.211618
9884.000000;0.211272
9883.000000;0.210882
9882.000000;0.210392
9881.000000;0.209827
9880.000000;0.209199
9879.000000;0.208504
9878.000000;0.207811
9877.000000;0.207263
9876.000000;0.206922
9875.000000;0.206689
9874.000000;0.206397
9873.000000;0.205932
9872.000000;0.205264
9871.000000;0.204477
9870.000000;0.203761
9869.000000;0.203277
9868.000000;0.203006
9867.000000;0.202785
9866.000000;0.202514
9865.000000;0.202223
9864.000000;0.201948
9863.000000;0.201638
9862.000000;0.201228
9861.000000;0.200705
9860.000000;0.200108
9859.000000;0.199510
9858.000000;0.198990
9857.000000;0.198534
9856.000000;0.198005
9855.000000;0.197322
9854.000000;0.196634
9853.000000;0.196173
9852.000000;0.195938
9851.000000;0.195660
9850.000000;0.195115
9849.000000;0.194349
9848.000000;0.193569
9847.000000;0.192956
9846.000000;0.192590
9845.000000;0.192440
9844.000000;0.192341
9843.000000;0.192081
9842.000000;0.191588
9841.000000;0.190984
9840.000000;0.190427
9839.000000;0.189970
9838.000000;0.189565
9837.000000;0.189131
9836.000000;0.188595
9835.000000;0.187957
9834.000000;0.187323
9833.000000;0.186821
9832.000000;0.186483
9831.000000;0.186253
9830.000000;0.186077
9829.000000;0.185872
9828.000000;0.185492
9827.000000;0.184844
9826.000000;0.184060
9825.000000;0.183399
9824.000000;0.182976
9823.000000;0.182677
9822.000000;0.182316
9821.000000;0.181774
9820.000000;0.181017
9819.000000;0.180143
9818.000000;0.179419
9817.000000;0.179085
9816.000000;0.179083
9815.000000;0.179085
9814.000000;0.178838
9813.000000;0.178380
9812.000000;0.177882
9811.000000;0.177408
9810.000000;0.176893
9809.000000;0.176254
9808.000000;0.175485
9807.000000;0.174695
9806.000000;0.174078
9805.000000;0.173752
9804.000000;0.173616
9803.000000;0.173443
9802.000000;0.173112
9801.000000;0.172667
9800.000000;0.172178
9799.000000;0.171673
9798.000000;0.171205
9797.000000;0.170828
9796.000000;0.170488
9795.000000;0.170053
9794.000000;0.169480
9793.000000;0.168843
9792.000000;0.168190
9791.000000;0.167521
9790.000000;0.166911
9789.000000;0.166502
9788.000000;0.166311
9787.000000;0.166159
9786.000000;0.165855
9785.000000;0.165370
9784.000000;0.164794
9783.000000;0.164219
9782.000000;0.163703
9781.000000;0.163265
9780.000000;0.162874
9779.000000;0.162478
9778.000000;0.162072
9777.000000;0.161663
9776.000000;0.161185
9775.000000;0.160553
9774.000000;0.159808
9773.000000;0.159107
9772.000000;0.158563
9771.000000;0.158169
9770.000000;0.157875
9769.000000;0.157636
9768.000000;0.157394
9767.000000;0.157110
9766.000000;0.156821
9765.000000;0.156565
9764.000000;0.156263
9763.000000;0.155785
9762.000000;0.155158
9761.000000;0.154555
9760.000000;0.154079
9759.000000;0.153656
9758.000000;0.153178
9757.000000;0.152639
9756.000000;0.152101
9755.000000;0.151619
9754.000000;0.151219
9753.000000;0.150862
9752.000000;0.150438
9751.000000;0.149887
9750.000000;0.149333
9749.000000;0.148972
9748.000000;0.148811
9747.000000;0.148621
9746.000000;0.148197
9745.000000;0.147561
9744.000000;0.146889
9743.000000;0.146323
9742.000000;0.145884
9741.000000;0.145503
9740.000000;0.145092
9739.000000;0.144627
9738.000000;0.144179
9737.000000;0.143818
9736.000000;0.143518
9735.000000;0.143187
9734.000000;0.142772
9733.000000;0.142258
9732.000000;0.141652
9731.000000;0.141042
9730.000000;0.140591
9729.000000;0.140352
9728.000000;0.140158
9727.000000;0.139808
9726.000000;0.139302
9725.000000;0.138755
9724.000000;0.138174
9723.000000;0.137510
9722.000000;0.136878
9721.000000;0.136479
9720.000000;0.136317
9719.000000;0.136174
9718.000000;0.135879
9717.000000;0.135434
9716.000000;0.134858
9715.000000;0.134130
9714.000000;0.133339
9713.000000;0.132699
9712.000000;0.132314
9711.000000;0.132077
9710.000000;0.131834
9709.000000;0.131506
9708.000000;0.131026
9707.000000;0.130341
9706.000000;0.129585
9705.000000;0.129071
9704.000000;0.128985
9703.000000;0.129172
9702.000000;0.129297
9701.000000;0.129145
9700.000000;0.128707
9699.000000;0.128084
9698.000000;0.127383
9697.000000;0.126685
9696.000000;0.126031
9695.000000;0.125461
9694.000000;0.125040
9693.000000;0.124777
9692.000000;0.124556
9691.000000;0.124243
9690.000000;0.123851
9689.000000;0.123462
9688.000000;0.123041
9687.000000;0.122472
9686.000000;0.121790
9685.000000;0.121184
9684.000000;0.120755
9683.000000;0.120440
9682.000000;0.120180
9681.000000;0.119992
9680.000000;0.119804
9679.000000;0.119423
9678.000000;0.118774
9677.000000;0.118035
9676.000000;0.117436
9675.000000;0.117014
9674.000000;0.116665
9673.000000;0.116300
9672.000000;0.115868
9671.000000;0.115338
9670.000000;0.114754
9669.000000;0.114243
9668.000000;0.113884
9667.000000;0.113610
9666.000000;0.113316
9665.000000;0.112985
9664.000000;0.112663
9663.000000;0.112364
9662.000000;0.112070
9661.000000;0.111754
9660.000000;0.111368
9659.000000;0.110863
9658.000000;0.110250
9657.000000;0.109605
9656.000000;0.108982
9655.000000;0.108376
9654.000000;0.107786
9653.000000;0.107250
9652.000000;0.106803
9651.000000;0.106477
9650.000000;0.106308
9649.000000;0.106260
9648.000000;0.106160
9647.000000;0.105824
9646.000000;0.105253
9645.000000;0.104622
9644.000000;0.104060
9643.000000;0.103585
9642.000000;0.103216
9641.000000;0.103001
9640.000000;0.102874
9639.000000;0.102634
9638.000000;0.102155
9637.000000;0.101522
9636.000000;0.100898
9635.000000;0.100358
9634.000000;0.099891
9633.000000;0.099494
9632.000000;0.099181
9631.000000;0.098962
9630.000000;0.098840
9629.000000;0.098762
9628.000000;0.098578
9627.000000;0.098133
9626.000000;0.097427
9625.000000;0.096623
9624.000000;0.095874
9623.000000;0.095238
9622.000000;0.094728
9621.000000;0.094344
9620.000000;0.094035
9619.000000;0.093732
9618.000000;0.093437
9617.000000;0.093172
9616.000000;0.092866
9615.000000;0.092415
9614.000000;0.091875
9613.000000;0.091434
9612.000000;0.091155
9611.000000;0.090889
9610.000000;0.090500
9609.000000;0.090040
9608.000000;0.089628
9607.000000;0.089278
9606.000000;0.088924
9605.000000;0.088526
9604.000000;0.088078
9603.000000;0.087605
9602.000000;0.087179
9601.000000;0.086866
9600.000000;0.086614
9599.000000;0.086282
9598.000000;0.085846
9597.000000;0.085441
9596.000000;0.085168
9595.000000;0.084933
9594.000000;0.084579
9593.000000;0.084061
9592.000000;0.083441
9591.000000;0.082777
9590.000000;0.082133
9589.000000;0.081614
9588.000000;0.081298
9587.000000;0.081135
9586.000000;0.080970
9585.000000;0.080662
9584.000000;0.080156
9583.000000;0.079503
9582.000000;0.078831
9581.000000;0.078262
9580.000000;0.077836
9579.000000;0.077538
9578.000000;0.077364
9577.000000;0.077296
9576.000000;0.077218
9575.000000;0.076977
9574.000000;0.076537
9573.000000;0.076025
9572.000000;0.075573
9571.000000;0.075199
9570.000000;0.074833
9569.000000;0.074400
9568.000000;0.073861
9567.000000;0.073256
9566.000000;0.072700
9565.000000;0.072283
9564.000000;0.071970
9563.000000;0.071677
9562.000000;0.071416
9561.000000;0.071247
9560.000000;0.071118
9559.000000;0.070875
9558.000000;0.070451
9557.000000;0.069936
9556.000000;0.069435
9555.000000;0.068972
9554.000000;0.068558
9553.000000;0.068223
9552.000000;0.067936
9551.000000;0.067599
9550.000000;0.067162
9549.000000;0.066687
9548.000000;0.066238
9547.000000;0.065812
9546.000000;0.065396
9545.000000;0.065013
9544.000000;0.064678
9543.000000;0.064380
9542.000000;0.064119
9541.000000;0.063883
9540.000000;0.063588
9539.000000;0.063141
9538.000000;0.062578
9537.000000;0.062033
9536.000000;0.061557
9535.000000;0.061105
9534.000000;0.060690
9533.000000;0.060406
9532.000000;0.060257
9531.000000;0.060101
9530.000000;0.059833
9529.000000;0.059496
9528.000000;0.059140
9527.000000;0.058717
9526.000000;0.058202
9525.000000;0.057705
9524.000000;0.057343
9523.000000;0.057084
9522.000000;0.056796
9521.000000;0.056399
9520.000000;0.055901
9519.000000;0.055342
9518.000000;0.054787
9517.000000;0.054318
9516.000000;0.053972
9515.000000;0.053710
9514.000000;0.053499
9513.000000;0.053342
9512.000000;0.053205
9511.000000;0.052974
9510.000000;0.052573
9509.000000;0.052056
9508.000000;0.051544
9507.000000;0.051109
9506.000000;0.050770
9505.000000;0.050522
9504.000000;0.050323
9503.000000;0.050090
9502.000000;0.049761
9501.000000;0.049320
9500.000000;0.048770
9499.000000;0.048137
9498.000000;0.047538
9497.000000;0.047147
9496.000000;0.047030
9495.000000;0.047054
9494.000000;0.046999
9493.000000;0.046728
9492.000000;0.046227
9491.000000;0.045583
9490.000000;0.044962
9489.000000;0.044527
9488.000000;0.044305
9487.000000;0.044152
9486.000000;0.043909
9485.000000;0.043543
9484.000000;0.043127
9483.000000;0.042729
9482.000000;0.042369
9481.000000;0.042025
9480.000000;0.041635
9479.000000;0.041143
9478.000000;0.040594
9477.000000;0.040144
9476.000000;0.039908
9475.000000;0.039837
9474.000000;0.039773
9473.000000;0.039602
9472.000000;0.039313
9471.000000;0.038955
9470.000000;0.038571
9469.000000;0.038158
9468.000000;0.037675
9467.000000;0.037094
9466.000000;0.036473
9465.000000;0.035934
9464.000000;0.035565
9463.000000;0.035346
9462.000000;0.035190
9461.000000;0.035003
9460.000000;0.034725
9459.000000;0.034364
9458.000000;0.033991
9457.000000;0.033665
9456.000000;0.033345
9455.000000;0.032931
9454.000000;0.032397
9453.000000;0.031840
9452.000000;0.031373
9451.000000;0.031034
9450.000000;0.030787
9449.000000;0.030559
9448.000000;0.030266
9447.000000;0.029871
9446.000000;0.029426
9445.000000;0.029029
9444.000000;0.028727
9443.000000;0.028487
9442.000000;0.028263
9441.000000;0.028027
9440.000000;0.027750
9439.000000;0.027409
9438.000000;0.027038
9437.000000;0.026712
9436.000000;0.026458
9435.000000;0.026228
9434.000000;0.025948
9433.000000;0.025561
9432.000000;0.025045
9431.000000;0.024445
9430.000000;0.023903
9429.000000;0.023560
9428.000000;0.023419
9427.000000;0.023352
9426.000000;0.023254
9425.000000;0.023099
9424.000000;0.022868
9423.000000;0.022492
9422.000000;0.021943
9421.000000;0.021314
9420.000000;0.020766
9419.000000;0.020397
9418.000000;0.020177
9417.000000;0.020001
9416.000000;0.019795
9415.000000;0.019587
9414.000000;0.019442
9413.000000;0.019328
9412.000000;0.019100
9411.000000;0.018661
9410.000000;0.018101
9409.000000;0.017594
9408.000000;0.017201
9407.000000;0.016854
9406.000000;0.016482
9405.000000;0.016077
9404.000000;0.015650
9403.000000;0.015227
9402.000000;0.014890
9401.000000;0.014715
9400.000000;0.014658
9399.000000;0.014582
9398.000000;0.014389
9397.000000;0.014061
9396.000000;0.013599
9395.000000;0.013031
9394.000000;0.012482
9393.000000;0.012102
9392.000000;0.011899
9391.000000;0.011732
9390.000000;0.011492
9389.000000;0.011194
9388.000000;0.010871
9387.000000;0.010487
9386.000000;0.010032
9385.000000;0.009591
9384.000000;0.009255
9383.000000;0.009008
9382.000000;0.008774
9381.000000;0.008530
9380.000000;0.008303
9379.000000;0.008082
9378.000000;0.007811
9377.000000;0.007448
9376.000000;0.007012
9375.000000;0.006557
9374.000000;0.006134
9373.000000;0.005778
9372.000000;0.005500
9371.000000;0.005297
9370.000000;0.005145
9369.000000;0.004991
9368.000000;0.004762
9367.000000;0.004423
9366.000000;0.004012
9365.000000;0.003603
9364.000000;0.003253
9363.000000;0.002989
9362.000000;0.002815
9361.000000;0.002671
9360.000000;0.002440
9359.000000;0.002041
9358.000000;0.001518
9357.000000;0.001000
9356.000000;0.000589
9355.000000;0.000320
9354.000000;0.000171
9353.000000;0.000075
9352.000000;-0.000048
9351.000000;-0.000228
9350.000000;-0.000421
9349.000000;-0.000599
9348.000000;-0.000790
9347.000000;-0.001024
9346.000000;-0.001288
9345.000000;-0.001603
9344.000000;-0.002058
9343.000000;-0.002665
9342.000000;-0.003270
9341.000000;-0.003715
9340.000000;-0.004036
9339.000000;-0.004369
9338.000000;-0.004729
9337.000000;-0.005013
9336.000000;-0.005208
9335.000000;-0.005433
9334.000000;-0.005742
9333.000000;-0.006049
9332.000000;-0.006274
9331.000000;-0.006466
9330.000000;-0.006712
9329.000000;-0.007011
9328.000000;-0.007304
9327.000000;-0.007587
9326.000000;-0.007915
9325.000000;-0.008328
9324.000000;-0.008782
9323.000000;-0.009156
9322.000000;-0.009341
9321.000000;-0.009354
9320.000000;-0.009352
9319.000000;-0.009496
9318.000000;-0.009802
9317.000000;-0.010172
9316.000000;-0.010532
9315.000000;-0.010863
9314.000000;-0.011172
9313.000000;-0.011494
9312.000000;-0.011896
9311.000000;-0.012389
9310.000000;-0.012833
9309.000000;-0.013052
9308.000000;-0.013038
9307.000000;-0.012978
9306.000000;-0.013079
9305.000000;-0.013419
9304.000000;-0.013957
9303.000000;-0.014587
9302.000000;-0.015185
9301.000000;-0.015650
9300.000000;-0.015948
9299.000000;-0.016086
9298.000000;-0.016091
9297.000000;-0.016038
9296.000000;-0.016057
9295.000000;-0.016226
9294.000000;-0.016497
9293.000000;-0.016802
9292.000000;-0.017170
9291.000000;-0.017634
9290.000000;-0.018090
9289.000000;-0.018372
9288.000000;-0.018452
9287.000000;-0.018470
9286.000000;-0.018571
9285.000000;-0.018825
9284.000000;-0.019284
9283.000000;-0.019957
9282.000000;-0.020697
9281.000000;-0.021244
9280.000000;-0.021440
9279.000000;-0.021372
9278.000000;-0.021266
9277.000000;-0.021303
9276.000000;-0.021546
9275.000000;-0.021943
9274.000000;-0.022374
9273.000000;-0.022740
9272.000000;-0.023033
9271.000000;-0.023282
9270.000000;-0.023476
9269.000000;-0.023605
9268.000000;-0.023734
9267.000000;-0.023936
9266.000000;-0.024194
9265.000000;-0.024452
9264.000000;-0.024737
9263.000000;-0.025116
9262.000000;-0.025542
9261.000000;-0.025881
9260.000000;-0.026099
9259.000000;-0.026299
9258.000000;-0.026564
9257.000000;-0.026869
9256.000000;-0.027175
9255.000000;-0.027500
9254.000000;-0.027844
9253.000000;-0.028141
9252.000000;-0.028343
9251.000000;-0.028482
9250.000000;-0.028623
9249.000000;-0.028792
9248.000000;-0.028991
9247.000000;-0.029209
9246.000000;-0.029410
9245.000000;-0.029573
9244.000000;-0.029737
9243.000000;-0.029974
9242.000000;-0.030307
9241.000000;-0.030717
9240.000000;-0.031192
9239.000000;-0.031689
9238.000000;-0.032081
9237.000000;-0.032256
9236.000000;-0.032271
9235.000000;-0.032310
9234.000000;-0.032482
9233.000000;-0.032750
9232.000000;-0.033041
9231.000000;-0.033317
9230.000000;-0.033530
9229.000000;-0.033632
9228.000000;-0.033682
9227.000000;-0.033822
9226.000000;-0.034114
9225.000000;-0.034472
9224.000000;-0.034795
9223.000000;-0.035095
9222.000000;-0.035413
9221.000000;-0.035721
9220.000000;-0.035949
9219.000000;-0.036088
9218.000000;-0.036200
9217.000000;-0.036358
9216.000000;-0.036593
9215.000000;-0.036886
9214.000000;-0.037184
9213.000000;-0.037456
9212.000000;-0.037714
9211.000000;-0.037967
9210.000000;-0.038190
9209.000000;-0.038388
9208.000000;-0.038639
9207.000000;-0.038990
9206.000000;-0.039350
9205.000000;-0.039609
9204.000000;-0.039822
9203.000000;-0.040153
9202.000000;-0.040630
9201.000000;-0.041090
9200.000000;-0.041390
9199.000000;-0.041572
9198.000000;-0.041750
9197.000000;-0.041953
9196.000000;-0.042130
9195.000000;-0.042255
9194.000000;-0.042363
9193.000000;-0.042530
9192.000000;-0.042816
9191.000000;-0.043197
9190.000000;-0.043533
9189.000000;-0.043674
9188.000000;-0.043624
9187.000000;-0.043552
9186.000000;-0.043620
9185.000000;-0.043851
9184.000000;-0.044160
9183.000000;-0.044442
9182.000000;-0.044634
9181.000000;-0.044758
9180.000000;-0.044926
9179.000000;-0.045229
9178.000000;-0.045620
9177.000000;-0.045964
9176.000000;-0.046204
9175.000000;-0.046397
9174.000000;-0.046611
9173.000000;-0.046855
9172.000000;-0.047120
9171.000000;-0.047422
9170.000000;-0.047753
9169.000000;-0.048078
9168.000000;-0.048383
9167.000000;-0.048668
9166.000000;-0.048888
9165.000000;-0.049003
9164.000000;-0.049070
9163.000000;-0.049206
9162.000000;-0.049440
9161.000000;-0.049674
9160.000000;-0.049830
9159.000000;-0.049948
9158.000000;-0.050105
9157.000000;-0.050327
9156.000000;-0.050597
9155.000000;-0.050893
9154.000000;-0.051172
9153.000000;-0.051375
9152.000000;-0.051499
9151.000000;-0.051618
9150.000000;-0.051813
9149.000000;-0.052090
9148.000000;-0.052392
9147.000000;-0.052649
9146.000000;-0.052832
9145.000000;-0.052989
9144.000000;-0.053229
9143.000000;-0.053593
9142.000000;-0.053989
9141.000000;-0.054275
9140.000000;-0.054415
9139.000000;-0.054466
9138.000000;-0.054483
9137.000000;-0.054503
9136.000000;-0.054621
9135.000000;-0.054927
9134.000000;-0.055366
9133.000000;-0.055763
9132.000000;-0.056011
9131.000000;-0.056172
9130.000000;-0.056359
9129.000000;-0.056615
9128.000000;-0.056922
9127.000000;-0.057244
9126.000000;-0.057520
9125.000000;-0.057682
9124.000000;-0.057742
9123.000000;-0.057796
9122.000000;-0.057911
9121.000000;-0.058062
9120.000000;-0.058187
9119.000000;-0.058268
9118.000000;-0.058347
9117.000000;-0.058503
9116.000000;-0.058812
9115.000000;-0.059261
9114.000000;-0.059722
9113.000000;-0.060076
9112.000000;-0.060349
9111.000000;-0.060640
9110.000000;-0.060938
9109.000000;-0.061101
9108.000000;-0.061056
9107.000000;-0.060917
9106.000000;-0.060865
9105.000000;-0.060990
9104.000000;-0.061256
9103.000000;-0.061555
9102.000000;-0.061775
9101.000000;-0.061894
9100.000000;-0.062044
9099.000000;-0.062389
9098.000000;-0.062913
9097.000000;-0.063392
9096.000000;-0.063631
9095.000000;-0.063648
9094.000000;-0.063600
9093.000000;-0.063601
9092.000000;-0.063691
9091.000000;-0.063893
9090.000000;-0.064214
9089.000000;-0.064592
9088.000000;-0.064917
9087.000000;-0.065098
9086.000000;-0.065125
9085.000000;-0.065081
9084.000000;-0.065101
9083.000000;-0.065262
9082.000000;-0.065517
9081.000000;-0.065764
9080.000000;-0.065980
9079.000000;-0.066239
9078.000000;-0.066572
9077.000000;-0.066896
9076.000000;-0.067089
9075.000000;-0.067112
9074.000000;-0.067036
9073.000000;-0.066994
9072.000000;-0.067115
9071.000000;-0.067439
9070.000000;-0.067888
9069.000000;-0.068337
9068.000000;-0.068724
9067.000000;-0.069051
