Criado como novo conjunto de dados;"e2410_daniel_v2.spp","58504.8 Secs"
cm-1;Abs
10000.000000;1.139104
9999.000000;1.139224
9998.000000;1.138643
9997.000000;1.137389
9996.000000;1.135747
9995.000000;1.134316
9994.000000;1.133798
9993.000000;1.134329
9992.000000;1.135099
9991.000000;1.135047
9990.000000;1.133977
9989.000000;1.132670
9988.000000;1.131884
9987.000000;1.131631
9986.000000;1.131495
9985.000000;1.131244
9984.000000;1.130913
9983.000000;1.130548
9982.000000;1.130142
9981.000000;1.129691
9980.000000;1.129125
9979.000000;1.128300
9978.000000;1.127249
9977.000000;1.126355
9976.000000;1.126075
9975.000000;1.126499
9974.000000;1.127225
9973.000000;1.127662
9972.000000;1.127409
9971.000000;1.126439
9970.000000;1.125038
9969.000000;1.123588
9968.000000;1.122388
9967.000000;1.121577
9966.000000;1.121134
9965.000000;1.120889
9964.000000;1.120638
9963.000000;1.120313
9962.000000;1.119967
9961.000000;1.119547
9960.000000;1.118865
9959.000000;1.117909
9958.000000;1.116996
9957.000000;1.116399
9956.000000;1.115957
9955.000000;1.115313
9954.000000;1.114441
9953.000000;1.113632
9952.000000;1.113041
9951.000000;1.112601
9950.000000;1.112339
9949.000000;1.112448
9948.000000;1.112907
9947.000000;1.113289
9946.000000;1.113081
9945.000000;1.112086
9944.000000;1.110492
9943.000000;1.108756
9942.000000;1.107415
9941.000000;1.106797
9940.000000;1.106777
9939.000000;1.106930
9938.000000;1.106973
9937.000000;1.106913
9936.000000;1.106786
9935.000000;1.106462
9934.000000;1.105831
9933.000000;1.105020
9932.000000;1.104299
9931.000000;1.103806
9930.000000;1.103387
9929.000000;1.102733
9928.000000;1.101731
9927.000000;1.100718
9926.000000;1.100227
9925.000000;1.100362
9924.000000;1.100597
9923.000000;1.100355
9922.000000;1.099658
9921.000000;1.098971
9920.000000;1.098548
9919.000000;1.098218
9918.000000;1.097735
9917.000000;1.097044
9916.000000;1.096229
9915.000000;1.095483
9914.000000;1.095082
9913.000000;1.095092
9912.000000;1.095097
9911.000000;1.094513
9910.000000;1.093245
9909.000000;1.091767
9908.000000;1.090548
9907.000000;1.089680
9906.000000;1.089105
9905.000000;1.088874
9904.000000;1.089011
9903.000000;1.089323
9902.000000;1.089475
9901.000000;1.089197
9900.000000;1.088427
9899.000000;1.087408
9898.000000;1.086606
9897.000000;1.086281
9896.000000;1.086160
9895.000000;1.085746
9894.000000;1.084950
9893.000000;1.084148
9892.000000;1.083614
9891.000000;1.083222
9890.000000;1.082764
9889.000000;1.082280
9888.000000;1.081890
9887.000000;1.081535
9886.000000;1.081037
9885.000000;1.080326
9884.000000;1.079515
9883.000000;1.078857
9882.000000;1.078598
9881.000000;1.078691
9880.000000;1.078692
9879.000000;1.078179
9878.000000;1.077299
9877.000000;1.076663
9876.000000;1.076623
9875.000000;1.076860
9874.000000;1.076731
9873.000000;1.075844
9872.000000;1.074314
9871.000000;1.072667
9870.000000;1.071512
9869.000000;1.071095
9868.000000;1.071118
9867.000000;1.071152
9866.000000;1.071119
9865.000000;1.071146
9864.000000;1.071067
9863.000000;1.070530
9862.000000;1.069614
9861.000000;1.068878
9860.000000;1.068635
9859.000000;1.068579
9858.000000;1.068288
9857.000000;1.067720
9856.000000;1.066977
9855.000000;1.065963
9854.000000;1.064652
9853.000000;1.063432
9852.000000;1.062836
9851.000000;1.063006
9850.000000;1.063619
9849.000000;1.064198
9848.000000;1.064337
9847.000000;1.063825
9846.000000;1.062797
9845.000000;1.061669
9844.000000;1.060735
9843.000000;1.059968
9842.000000;1.059321
9841.000000;1.058984
9840.000000;1.059056
9839.000000;1.059156
9838.000000;1.058729
9837.000000;1.057715
9836.000000;1.056656
9835.000000;1.056066
9834.000000;1.055922
9833.000000;1.055797
9832.000000;1.055317
9831.000000;1.054441
9830.000000;1.053419
9829.000000;1.052581
9828.000000;1.052113
9827.000000;1.051936
9826.000000;1.051791
9825.000000;1.051440
9824.000000;1.050811
9823.000000;1.050012
9822.000000;1.049224
9821.000000;1.048547
9820.000000;1.047942
9819.000000;1.047350
9818.000000;1.046835
9817.000000;1.046540
9816.000000;1.046527
9815.000000;1.046721
9814.000000;1.046963
9813.000000;1.046998
9812.000000;1.046512
9811.000000;1.045378
9810.000000;1.043920
9809.000000;1.042711
9808.000000;1.042049
9807.000000;1.041770
9806.000000;1.041594
9805.000000;1.041467
9804.000000;1.041436
9803.000000;1.041365
9802.000000;1.040975
9801.000000;1.040170
9800.000000;1.039195
9799.000000;1.038428
9798.000000;1.038034
9797.000000;1.037842
9796.000000;1.037552
9795.000000;1.037099
9794.000000;1.036750
9793.000000;1.036732
9792.000000;1.036815
9791.000000;1.036466
9790.000000;1.035483
9789.000000;1.034320
9788.000000;1.033640
9787.000000;1.033610
9786.000000;1.033751
9785.000000;1.033497
9784.000000;1.032788
9783.000000;1.032034
9782.000000;1.031548
9781.000000;1.031180
9780.000000;1.030591
9779.000000;1.029762
9778.000000;1.029026
9777.000000;1.028613
9776.000000;1.028403
9775.000000;1.028173
9774.000000;1.027862
9773.000000;1.027444
9772.000000;1.026772
9771.000000;1.025796
9770.000000;1.024840
9769.000000;1.024373
9768.000000;1.024500
9767.000000;1.024820
9766.000000;1.024786
9765.000000;1.024125
9764.000000;1.022976
9763.000000;1.021779
9762.000000;1.020971
9761.000000;1.020667
9760.000000;1.020660
9759.000000;1.020744
9758.000000;1.020857
9757.000000;1.020835
9756.000000;1.020300
9755.000000;1.019132
9754.000000;1.017838
9753.000000;1.017100
9752.000000;1.016999
9751.000000;1.016984
9750.000000;1.016580
9749.000000;1.015833
9748.000000;1.015044
9747.000000;1.014374
9746.000000;1.013833
9745.000000;1.013383
9744.000000;1.012952
9743.000000;1.012460
9742.000000;1.011921
9741.000000;1.011402
9740.000000;1.010898
9739.000000;1.010381
9738.000000;1.009916
9737.000000;1.009587
9736.000000;1.009380
9735.000000;1.009254
9734.000000;1.009194
9733.000000;1.009040
9732.000000;1.008455
9731.000000;1.007335
9730.000000;1.006104
9729.000000;1.005266
9728.000000;1.004775
9727.000000;1.004223
9726.000000;1.003566
9725.000000;1.003212
9724.000000;1.003369
9723.000000;1.003724
9722.000000;1.003851
9721.000000;1.003590
9720.000000;1.002918
9719.000000;1.001868
9718.000000;1.000748
9717.000000;1.000103
9716.000000;1.000165
9715.000000;1.000539
9714.000000;1.000615
9713.000000;1.000147
9712.000000;0.999302
9711.000000;0.998355
9710.000000;0.997515
9709.000000;0.996884
9708.000000;0.996398
9707.000000;0.995897
9706.000000;0.995359
9705.000000;0.994925
9704.000000;0.994650
9703.000000;0.994382
9702.000000;0.993940
9701.000000;0.993270
9700.000000;0.992415
9699.000000;0.991522
9698.000000;0.990884
9697.000000;0.990715
9696.000000;0.990852
9695.000000;0.990923
9694.000000;0.990838
9693.000000;0.990829
9692.000000;0.990908
9691.000000;0.990638
9690.000000;0.989662
9689.000000;0.988224
9688.000000;0.986942
9687.000000;0.986215
9686.000000;0.985970
9685.000000;0.985830
9684.000000;0.985404
9683.000000;0.984600
9682.000000;0.983776
9681.000000;0.983406
9680.000000;0.983495
9679.000000;0.983546
9678.000000;0.983193
9677.000000;0.982608
9676.000000;0.982167
9675.000000;0.981983
9674.000000;0.981970
9673.000000;0.982075
9672.000000;0.982170
9671.000000;0.981923
9670.000000;0.981111
9669.000000;0.979931
9668.000000;0.978765
9667.000000;0.977785
9666.000000;0.977013
9665.000000;0.976590
9664.000000;0.976613
9663.000000;0.976785
9662.000000;0.976604
9661.000000;0.975962
9660.000000;0.975288
9659.000000;0.974968
9658.000000;0.974859
9657.000000;0.974506
9656.000000;0.973728
9655.000000;0.972840
9654.000000;0.972296
9653.000000;0.972220
9652.000000;0.972313
9651.000000;0.972193
9650.000000;0.971760
9649.000000;0.971174
9648.000000;0.970549
9647.000000;0.969811
9646.000000;0.968872
9645.000000;0.967833
9644.000000;0.966949
9643.000000;0.966451
9642.000000;0.966394
9641.000000;0.966572
9640.000000;0.966592
9639.000000;0.966195
9638.000000;0.965537
9637.000000;0.964996
9636.000000;0.964703
9635.000000;0.964403
9634.000000;0.963833
9633.000000;0.963033
9632.000000;0.962224
9631.000000;0.961578
9630.000000;0.961228
9629.000000;0.961273
9628.000000;0.961588
9627.000000;0.961769
9626.000000;0.961468
9625.000000;0.960707
9624.000000;0.959733
9623.000000;0.958724
9622.000000;0.957817
9621.000000;0.957248
9620.000000;0.957193
9619.000000;0.957490
9618.000000;0.957740
9617.000000;0.957698
9616.000000;0.957408
9615.000000;0.956957
9614.000000;0.956344
9613.000000;0.955630
9612.000000;0.955024
9611.000000;0.954660
9610.000000;0.954386
9609.000000;0.953917
9608.000000;0.953182
9607.000000;0.952424
9606.000000;0.951912
9605.000000;0.951634
9604.000000;0.951316
9603.000000;0.950743
9602.000000;0.949955
9601.000000;0.949161
9600.000000;0.948561
9599.000000;0.948313
9598.000000;0.948501
9597.000000;0.948967
9596.000000;0.949235
9595.000000;0.948841
9594.000000;0.947783
9593.000000;0.946514
9592.000000;0.945465
9591.000000;0.944744
9590.000000;0.944287
9589.000000;0.944033
9588.000000;0.943857
9587.000000;0.943538
9586.000000;0.942987
9585.000000;0.942385
9584.000000;0.941954
9583.000000;0.941699
9582.000000;0.941503
9581.000000;0.941355
9580.000000;0.941286
9579.000000;0.941173
9578.000000;0.940840
9577.000000;0.940359
9576.000000;0.940025
9575.000000;0.939971
9574.000000;0.939946
9573.000000;0.939552
9572.000000;0.938645
9571.000000;0.937463
9570.000000;0.936433
9569.000000;0.935884
9568.000000;0.935853
9567.000000;0.936071
9566.000000;0.936158
9565.000000;0.935914
9564.000000;0.935464
9563.000000;0.935103
9562.000000;0.934978
9561.000000;0.934937
9560.000000;0.934652
9559.000000;0.933881
9558.000000;0.932655
9557.000000;0.931279
9556.000000;0.930157
9555.000000;0.929541
9554.000000;0.929354
9553.000000;0.929284
9552.000000;0.929087
9551.000000;0.928770
9550.000000;0.928435
9549.000000;0.928056
9548.000000;0.927583
9547.000000;0.927181
9546.000000;0.927105
9545.000000;0.927305
9544.000000;0.927406
9543.000000;0.927229
9542.000000;0.927042
9541.000000;0.927069
9540.000000;0.926979
9539.000000;0.926243
9538.000000;0.924886
9537.000000;0.923527
9536.000000;0.922660
9535.000000;0.922234
9534.000000;0.921980
9533.000000;0.921792
9532.000000;0.921631
9531.000000;0.921339
9530.000000;0.920817
9529.000000;0.920266
9528.000000;0.919992
9527.000000;0.919988
9526.000000;0.919887
9525.000000;0.919376
9524.000000;0.918564
9523.000000;0.917893
9522.000000;0.917719
9521.000000;0.917962
9520.000000;0.918162
9519.000000;0.917914
9518.000000;0.917244
9517.000000;0.916501
9516.000000;0.915950
9515.000000;0.915583
9514.000000;0.915284
9513.000000;0.915019
9512.000000;0.914778
9511.000000;0.914489
9510.000000;0.914084
9509.000000;0.913608
9508.000000;0.913196
9507.000000;0.912969
9506.000000;0.912921
9505.000000;0.912840
9504.000000;0.912361
9503.000000;0.911284
9502.000000;0.909917
9501.000000;0.908979
9500.000000;0.909025
9499.000000;0.909942
9498.000000;0.910996
9497.000000;0.911361
9496.000000;0.910675
9495.000000;0.909226
9494.000000;0.907667
9493.000000;0.906502
9492.000000;0.905810
9491.000000;0.905429
9490.000000;0.905279
9489.000000;0.905338
9488.000000;0.905392
9487.000000;0.905088
9486.000000;0.904373
9485.000000;0.903667
9484.000000;0.903411
9483.000000;0.903554
9482.000000;0.903628
9481.000000;0.903254
9480.000000;0.902439
9479.000000;0.901431
9478.000000;0.900461
9477.000000;0.899693
9476.000000;0.899279
9475.000000;0.899331
9474.000000;0.899806
9473.000000;0.900431
9472.000000;0.900804
9471.000000;0.900633
9470.000000;0.899932
9469.000000;0.898963
9468.000000;0.897983
9467.000000;0.897076
9466.000000;0.896235
9465.000000;0.895506
9464.000000;0.894974
9463.000000;0.894630
9462.000000;0.894352
9461.000000;0.894045
9460.000000;0.893748
9459.000000;0.893544
9458.000000;0.893420
9457.000000;0.893272
9456.000000;0.893044
9455.000000;0.892743
9454.000000;0.892325
9453.000000;0.891687
9452.000000;0.890910
9451.000000;0.890379
9450.000000;0.890430
9449.000000;0.890877
9448.000000;0.891119
9447.000000;0.890805
9446.000000;0.890185
9445.000000;0.889695
9444.000000;0.889411
9443.000000;0.889112
9442.000000;0.888713
9441.000000;0.888333
9440.000000;0.887998
9439.000000;0.887542
9438.000000;0.886851
9437.000000;0.886023
9436.000000;0.885257
9435.000000;0.884719
9434.000000;0.884530
9433.000000;0.884686
9432.000000;0.884933
9431.000000;0.884877
9430.000000;0.884342
9429.000000;0.883554
9428.000000;0.882913
9427.000000;0.882615
9426.000000;0.882507
9425.000000;0.882257
9424.000000;0.881644
9423.000000;0.880742
9422.000000;0.879862
9421.000000;0.879279
9420.000000;0.879046
9419.000000;0.879060
9418.000000;0.879214
9417.000000;0.879408
9416.000000;0.879491
9415.000000;0.879326
9414.000000;0.878896
9413.000000;0.878274
9412.000000;0.877539
9411.000000;0.876792
9410.000000;0.876170
9409.000000;0.875735
9408.000000;0.875427
9407.000000;0.875197
9406.000000;0.875094
9405.000000;0.875084
9404.000000;0.874915
9403.000000;0.874398
9402.000000;0.873737
9401.000000;0.873345
9400.000000;0.873347
9399.000000;0.873467
9398.000000;0.873367
9397.000000;0.872914
9396.000000;0.872140
9395.000000;0.871232
9394.000000;0.870574
9393.000000;0.870480
9392.000000;0.870760
9391.000000;0.870791
9390.000000;0.870181
9389.000000;0.869221
9388.000000;0.868515
9387.000000;0.868329
9386.000000;0.868421
9385.000000;0.868364
9384.000000;0.867920
9383.000000;0.867173
9382.000000;0.866461
9381.000000;0.866091
9380.000000;0.866029
9379.000000;0.865934
9378.000000;0.865555
9377.000000;0.864995
9376.000000;0.864485
9375.000000;0.864052
9374.000000;0.863584
9373.000000;0.863124
9372.000000;0.862883
9371.000000;0.862962
9370.000000;0.863201
9369.000000;0.863340
9368.000000;0.863221
9367.000000;0.862815
9366.000000;0.862192
9365.000000;0.861515
9364.000000;0.860990
9363.000000;0.860707
9362.000000;0.860537
9361.000000;0.860284
9360.000000;0.859950
9359.000000;0.859743
9358.000000;0.859752
9357.000000;0.859715
9356.000000;0.859279
9355.000000;0.858480
9354.000000;0.857768
9353.000000;0.857465
9352.000000;0.857371
9351.000000;0.857071
9350.000000;0.856487
9349.000000;0.855929
9348.000000;0.855627
9347.000000;0.855434
9346.000000;0.855042
9345.000000;0.854359
9344.000000;0.853597
9343.000000;0.853059
9342.000000;0.852886
9341.000000;0.852941
9340.000000;0.852932
9339.000000;0.852708
9338.000000;0.852391
9337.000000;0.852166
9336.000000;0.851994
9335.000000;0.851697
9334.000000;0.851256
9333.000000;0.850863
9332.000000;0.850646
9331.000000;0.850514
9330.000000;0.850306
9329.000000;0.849969
9328.000000;0.849524
9327.000000;0.848994
9326.000000;0.848446
9325.000000;0.848007
9324.000000;0.847744
9323.000000;0.847581
9322.000000;0.847371
9321.000000;0.847024
9320.000000;0.846559
9319.000000;0.846115
9318.000000;0.845901
9317.000000;0.846020
9316.000000;0.846303
9315.000000;0.846416
9314.000000;0.846165
9313.000000;0.845645
9312.000000;0.845087
9311.000000;0.844632
9310.000000;0.844252
9309.000000;0.843783
9308.000000;0.843048
9307.000000;0.842066
9306.000000;0.841144
9305.000000;0.840633
9304.000000;0.840589
9303.000000;0.840790
9302.000000;0.841050
9301.000000;0.841339
9300.000000;0.841565
9299.000000;0.841484
9298.000000;0.841006
9297.000000;0.840392
9296.000000;0.839969
9295.000000;0.839737
9294.000000;0.839427
9293.000000;0.838908
9292.000000;0.838337
9291.000000;0.837931
9290.000000;0.837728
9289.000000;0.837609
9288.000000;0.837454
9287.000000;0.837226
9286.000000;0.836974
9285.000000;0.836779
9284.000000;0.836660
9283.000000;0.836506
9282.000000;0.836133
9281.000000;0.835445
9280.000000;0.834540
9279.000000;0.833664
9278.000000;0.833060
9277.000000;0.832833
9276.000000;0.832901
9275.000000;0.833052
9274.000000;0.833068
9273.000000;0.832848
9272.000000;0.832448
9271.000000;0.832016
9270.000000;0.831662
9269.000000;0.831371
9268.000000;0.831045
9267.000000;0.830653
9266.000000;0.830280
9265.000000;0.830034
9264.000000;0.829903
9263.000000;0.829780
9262.000000;0.829549
9261.000000;0.829139
9260.000000;0.828519
9259.000000;0.827769
9258.000000;0.827136
9257.000000;0.826929
9256.000000;0.827264
9255.000000;0.827910
9254.000000;0.828402
9253.000000;0.828362
9252.000000;0.827751
9251.000000;0.826869
9250.000000;0.826108
9249.000000;0.825691
9248.000000;0.825623
9247.000000;0.825777
9246.000000;0.825943
9245.000000;0.825829
9244.000000;0.825231
9243.000000;0.824277
9242.000000;0.823390
9241.000000;0.822894
9240.000000;0.822738
9239.000000;0.822680
9238.000000;0.822624
9237.000000;0.822652
9236.000000;0.822778
9235.000000;0.822869
9234.000000;0.822801
9233.000000;0.822576
9232.000000;0.822267
9231.000000;0.821958
9230.000000;0.821717
9229.000000;0.821536
9228.000000;0.821300
9227.000000;0.820906
9226.000000;0.820398
9225.000000;0.819907
9224.000000;0.819478
9223.000000;0.819081
9222.000000;0.818744
9221.000000;0.818553
9220.000000;0.818520
9219.000000;0.818547
9218.000000;0.818531
9217.000000;0.818397
9216.000000;0.818069
9215.000000;0.817546
9214.000000;0.816998
9213.000000;0.816635
9212.000000;0.816431
9211.000000;0.816102
9210.000000;0.815435
9209.000000;0.814557
9208.000000;0.813815
9207.000000;0.813456
9206.000000;0.813461
9205.000000;0.813613
9204.000000;0.813676
9203.000000;0.813580
9202.000000;0.813450
9201.000000;0.813424
9200.000000;0.813440
9199.000000;0.813264
9198.000000;0.812764
9197.000000;0.812069
9196.000000;0.811436
9195.000000;0.811017
9194.000000;0.810807
9193.000000;0.810732
9192.000000;0.810730
9191.000000;0.810755
9190.000000;0.810727
9189.000000;0.810497
9188.000000;0.809922
9187.000000;0.809042
9186.000000;0.808175
9185.000000;0.807714
9184.000000;0.807759
9183.000000;0.807987
9182.000000;0.807955
9181.000000;0.807513
9180.000000;0.806891
9179.000000;0.806393
9178.000000;0.806083
9177.000000;0.805820
9176.000000;0.805544
9175.000000;0.805427
9174.000000;0.805653
9173.000000;0.806112
9172.000000;0.806427
9171.000000;0.806331
9170.000000;0.805927
9169.000000;0.805556
9168.000000;0.805466
9167.000000;0.805640
9166.000000;0.805868
9165.000000;0.805917
9164.000000;0.805698
9163.000000;0.805291
9162.000000;0.804794
9161.000000;0.804171
9160.000000;0.803352
9159.000000;0.802466
9158.000000;0.801790
9157.000000;0.801427
9156.000000;0.801211
9155.000000;0.801024
9154.000000;0.800999
9153.000000;0.801250
9152.000000;0.801550
9151.000000;0.801508
9150.000000;0.801005
9149.000000;0.800276
9148.000000;0.799617
9147.000000;0.799198
9146.000000;0.799070
9145.000000;0.799138
9144.000000;0.799135
9143.000000;0.798814
9142.000000;0.798227
9141.000000;0.797642
9140.000000;0.797213
9139.000000;0.796870
9138.000000;0.796540
9137.000000;0.796316
9136.000000;0.796332
9135.000000;0.796580
9134.000000;0.796895
9133.000000;0.797051
9132.000000;0.796887
9131.000000;0.796444
9130.000000;0.795970
9129.000000;0.795683
9128.000000;0.795552
9127.000000;0.795378
9126.000000;0.795052
9125.000000;0.794625
9124.000000;0.794172
9123.000000;0.793727
9122.000000;0.793366
9121.000000;0.793194
9120.000000;0.793252
9119.000000;0.793493
9118.000000;0.793833
9117.000000;0.794102
9116.000000;0.794041
9115.000000;0.793522
9114.000000;0.792748
9113.000000;0.792071
9112.000000;0.791613
9111.000000;0.791241
9110.000000;0.790880
9109.000000;0.790617
9108.000000;0.790456
9107.000000;0.790224
9106.000000;0.789836
9105.000000;0.789484
9104.000000;0.789418
9103.000000;0.789666
9102.000000;0.790061
9101.000000;0.790456
9100.000000;0.790783
9099.000000;0.790972
9098.000000;0.790922
9097.000000;0.790544
9096.000000;0.789817
9095.000000;0.788864
9094.000000;0.787977
9093.000000;0.787424
9092.000000;0.787211
9091.000000;0.787118
9090.000000;0.786997
9089.000000;0.786893
9088.000000;0.786827
9087.000000;0.786628
9086.000000;0.786160
9085.000000;0.785573
9084.000000;0.785167
9083.000000;0.785034
9082.000000;0.784986
9081.000000;0.784850
9080.000000;0.784695
9079.000000;0.784710
9078.000000;0.784912
9077.000000;0.785054
9076.000000;0.784854
9075.000000;0.784292
9074.000000;0.783649
9073.000000;0.783213
9072.000000;0.783016
9071.000000;0.782907
9070.000000;0.782818
9069.000000;0.782810
9068.000000;0.782872
9067.000000;0.782828
9066.000000;0.782550
9065.000000;0.782138
9064.000000;0.781775
9063.000000;0.781472
9062.000000;0.781103
9061.000000;0.780663
9060.000000;0.780341
9059.000000;0.780273
9058.000000;0.780317
9057.000000;0.780170
9056.000000;0.779692
9055.000000;0.779031
9054.000000;0.778461
9053.000000;0.778143
