Criado como novo conjunto de dados;"e2410_daniel_v2.spp","103147.4 Secs"
cm-1;Abs
10000.000000;0.148899
9999.000000;0.149441
9998.000000;0.149993
9997.000000;0.150525
9996.000000;0.151167
9995.000000;0.151972
9994.000000;0.152831
9993.000000;0.153695
9992.000000;0.154557
9991.000000;0.155412
9990.000000;0.156189
9989.000000;0.156788
9988.000000;0.157185
9987.000000;0.157475
9986.000000;0.157840
9985.000000;0.158459
9984.000000;0.159408
9983.000000;0.160591
9982.000000;0.161765
9981.000000;0.162672
9980.000000;0.163189
9979.000000;0.163382
9978.000000;0.163443
9977.000000;0.163577
9976.000000;0.163924
9975.000000;0.164528
9974.000000;0.165362
9973.000000;0.166350
9972.000000;0.167400
9971.000000;0.168406
9970.000000;0.169259
9969.000000;0.169906
9968.000000;0.170415
9967.000000;0.170965
9966.000000;0.171690
9965.000000;0.172520
9964.000000;0.173207
9963.000000;0.173582
9962.000000;0.173780
9961.000000;0.174159
9960.000000;0.174950
9959.000000;0.176032
9958.000000;0.177066
9957.000000;0.177821
9956.000000;0.178359
9955.000000;0.178934
9954.000000;0.179763
9953.000000;0.180852
9952.000000;0.181980
9951.000000;0.182877
9950.000000;0.183476
9949.000000;0.183974
9948.000000;0.184592
9947.000000;0.185302
9946.000000;0.185900
9945.000000;0.186337
9944.000000;0.186841
9943.000000;0.187637
9942.000000;0.188662
9941.000000;0.189665
9940.000000;0.190498
9939.000000;0.191210
9938.000000;0.191885
9937.000000;0.192545
9936.000000;0.193196
9935.000000;0.193866
9934.000000;0.194539
9933.000000;0.195160
9932.000000;0.195717
9931.000000;0.196257
9930.000000;0.196824
9929.000000;0.197450
9928.000000;0.198238
9927.000000;0.199299
9926.000000;0.200569
9925.000000;0.201774
9924.000000;0.202692
9923.000000;0.203394
9922.000000;0.204102
9921.000000;0.204895
9920.000000;0.205655
9919.000000;0.206307
9918.000000;0.206955
9917.000000;0.207759
9916.000000;0.208763
9915.000000;0.209872
9914.000000;0.210927
9913.000000;0.211766
9912.000000;0.212311
9911.000000;0.212655
9910.000000;0.213016
9909.000000;0.213562
9908.000000;0.214306
9907.000000;0.215184
9906.000000;0.216151
9905.000000;0.217134
9904.000000;0.218024
9903.000000;0.218805
9902.000000;0.219620
9901.000000;0.220579
9900.000000;0.221526
9899.000000;0.222150
9898.000000;0.222364
9897.000000;0.222418
9896.000000;0.222614
9895.000000;0.223021
9894.000000;0.223570
9893.000000;0.224271
9892.000000;0.225191
9891.000000;0.226280
9890.000000;0.227394
9889.000000;0.228521
9888.000000;0.229817
9887.000000;0.231336
9886.000000;0.232824
9885.000000;0.233885
9884.000000;0.234363
9883.000000;0.234515
9882.000000;0.234792
9881.000000;0.235472
9880.000000;0.236475
9879.000000;0.237540
9878.000000;0.238540
9877.000000;0.239606
9876.000000;0.240927
9875.000000;0.242460
9874.000000;0.243929
9873.000000;0.245081
9872.000000;0.245879
9871.000000;0.246437
9870.000000;0.246855
9869.000000;0.247182
9868.000000;0.247492
9867.000000;0.247909
9866.000000;0.248558
9865.000000;0.249507
9864.000000;0.250719
9863.000000;0.252028
9862.000000;0.253220
9861.000000;0.254211
9860.000000;0.255116
9859.000000;0.256076
9858.000000;0.257032
9857.000000;0.257760
9856.000000;0.258143
9855.000000;0.258332
9854.000000;0.258592
9853.000000;0.259045
9852.000000;0.259633
9851.000000;0.260299
9850.000000;0.261115
9849.000000;0.262198
9848.000000;0.263541
9847.000000;0.264965
9846.000000;0.266249
9845.000000;0.267271
9844.000000;0.268030
9843.000000;0.268585
9842.000000;0.269033
9841.000000;0.269491
9840.000000;0.270044
9839.000000;0.270697
9838.000000;0.271417
9837.000000;0.272223
9836.000000;0.273179
9835.000000;0.274303
9834.000000;0.275516
9833.000000;0.276690
9832.000000;0.277721
9831.000000;0.278567
9830.000000;0.279274
9829.000000;0.279969
9828.000000;0.280766
9827.000000;0.281662
9826.000000;0.282579
9825.000000;0.283502
9824.000000;0.284499
9823.000000;0.285592
9822.000000;0.286680
9821.000000;0.287652
9820.000000;0.288502
9819.000000;0.289283
9818.000000;0.290030
9817.000000;0.290756
9816.000000;0.291480
9815.000000;0.292206
9814.000000;0.292953
9813.000000;0.293841
9812.000000;0.295012
9811.000000;0.296401
9810.000000;0.297723
9809.000000;0.298788
9808.000000;0.299705
9807.000000;0.300645
9806.000000;0.301554
9805.000000;0.302320
9804.000000;0.303111
9803.000000;0.304232
9802.000000;0.305612
9801.000000;0.306751
9800.000000;0.307311
9799.000000;0.307552
9798.000000;0.308018
9797.000000;0.308922
9796.000000;0.310017
9795.000000;0.310979
9794.000000;0.311746
9793.000000;0.312455
9792.000000;0.313204
9791.000000;0.313945
9790.000000;0.314612
9789.000000;0.315282
9788.000000;0.316151
9787.000000;0.317315
9786.000000;0.318621
9785.000000;0.319826
9784.000000;0.320856
9783.000000;0.321814
9782.000000;0.322766
9781.000000;0.323657
9780.000000;0.324469
9779.000000;0.325266
9778.000000;0.326057
9777.000000;0.326758
9776.000000;0.327390
9775.000000;0.328139
9774.000000;0.329106
9773.000000;0.330128
9772.000000;0.331011
9771.000000;0.331842
9770.000000;0.332878
9769.000000;0.334175
9768.000000;0.335511
9767.000000;0.336670
9766.000000;0.337671
9765.000000;0.338682
9764.000000;0.339826
9763.000000;0.341089
9762.000000;0.342326
9761.000000;0.343350
9760.000000;0.344113
9759.000000;0.344806
9758.000000;0.345718
9757.000000;0.346968
9756.000000;0.348404
9755.000000;0.349767
9754.000000;0.350895
9753.000000;0.351759
9752.000000;0.352404
9751.000000;0.352882
9750.000000;0.353243
9749.000000;0.353576
9748.000000;0.354053
9747.000000;0.354865
9746.000000;0.356049
9745.000000;0.357404
9744.000000;0.358646
9743.000000;0.359653
9742.000000;0.360517
9741.000000;0.361410
9740.000000;0.362459
9739.000000;0.363675
9738.000000;0.364923
9737.000000;0.365990
9736.000000;0.366811
9735.000000;0.367588
9734.000000;0.368563
9733.000000;0.369691
9732.000000;0.370674
9731.000000;0.371360
9730.000000;0.371944
9729.000000;0.372691
9728.000000;0.373601
9727.000000;0.374470
9726.000000;0.375216
9725.000000;0.375961
9724.000000;0.376813
9723.000000;0.377728
9722.000000;0.378647
9721.000000;0.379658
9720.000000;0.380875
9719.000000;0.382209
9718.000000;0.383391
9717.000000;0.384282
9716.000000;0.385076
9715.000000;0.386057
9714.000000;0.387207
9713.000000;0.388179
9712.000000;0.388731
9711.000000;0.389091
9710.000000;0.389763
9709.000000;0.390988
9708.000000;0.392488
9707.000000;0.393790
9706.000000;0.394715
9705.000000;0.395486
9704.000000;0.396401
9703.000000;0.397539
9702.000000;0.398775
9701.000000;0.399985
9700.000000;0.401140
9699.000000;0.402246
9698.000000;0.403319
9697.000000;0.404401
9696.000000;0.405492
9695.000000;0.406453
9694.000000;0.407131
9693.000000;0.407637
9692.000000;0.408354
9691.000000;0.409478
9690.000000;0.410688
9689.000000;0.411498
9688.000000;0.411899
9687.000000;0.412378
9686.000000;0.413248
9685.000000;0.414257
9684.000000;0.415017
9683.000000;0.415574
9682.000000;0.416300
9681.000000;0.417362
9680.000000;0.418544
9679.000000;0.419569
9678.000000;0.420359
9677.000000;0.420977
9676.000000;0.421511
9675.000000;0.422061
9674.000000;0.422711
9673.000000;0.423466
9672.000000;0.424350
9671.000000;0.425518
9670.000000;0.427084
9669.000000;0.428804
9668.000000;0.430156
9667.000000;0.430866
9666.000000;0.431235
9665.000000;0.431792
9664.000000;0.432725
9663.000000;0.433800
9662.000000;0.434751
9661.000000;0.435581
9660.000000;0.436473
9659.000000;0.437527
9658.000000;0.438703
9657.000000;0.439936
9656.000000;0.441214
9655.000000;0.442498
9654.000000;0.443611
9653.000000;0.444331
9652.000000;0.444669
9651.000000;0.444989
9650.000000;0.445722
9649.000000;0.446933
9648.000000;0.448254
9647.000000;0.449272
9646.000000;0.449925
9645.000000;0.450485
9644.000000;0.451235
9643.000000;0.452230
9642.000000;0.453303
9641.000000;0.454212
9640.000000;0.454824
9639.000000;0.455234
9638.000000;0.455671
9637.000000;0.456260
9636.000000;0.456925
9635.000000;0.457600
9634.000000;0.458430
9633.000000;0.459606
9632.000000;0.461017
9631.000000;0.462261
9630.000000;0.463101
9629.000000;0.463755
9628.000000;0.464607
9627.000000;0.465699
9626.000000;0.466707
9625.000000;0.467403
9624.000000;0.467964
9623.000000;0.468740
9622.000000;0.469821
9621.000000;0.470954
9620.000000;0.471804
9619.000000;0.472212
9618.000000;0.472248
9617.000000;0.472132
9616.000000;0.472130
9615.000000;0.472435
9614.000000;0.473074
9613.000000;0.473947
9612.000000;0.474957
9611.000000;0.476054
9610.000000;0.477195
9609.000000;0.478342
9608.000000;0.479521
9607.000000;0.480797
9606.000000;0.482151
9605.000000;0.483464
9604.000000;0.484648
9603.000000;0.485723
9602.000000;0.486691
9601.000000;0.487420
9600.000000;0.487768
9599.000000;0.487775
9598.000000;0.487644
9597.000000;0.487560
9596.000000;0.487597
9595.000000;0.487766
9594.000000;0.488027
9593.000000;0.488290
9592.000000;0.488539
9591.000000;0.488979
9590.000000;0.489900
9589.000000;0.491308
9588.000000;0.492765
9587.000000;0.493737
9586.000000;0.494079
9585.000000;0.494130
9584.000000;0.494365
9583.000000;0.495038
9582.000000;0.496104
9581.000000;0.497316
9580.000000;0.498356
9579.000000;0.498976
9578.000000;0.499129
9577.000000;0.498995
9576.000000;0.498852
9575.000000;0.498933
9574.000000;0.499380
9573.000000;0.500287
9572.000000;0.501690
9571.000000;0.503475
9570.000000;0.505304
9569.000000;0.506707
9568.000000;0.507354
9567.000000;0.507324
9566.000000;0.507073
9565.000000;0.507049
9564.000000;0.507309
9563.000000;0.507570
9562.000000;0.507614
9561.000000;0.507568
9560.000000;0.507722
9559.000000;0.508172
9558.000000;0.508778
9557.000000;0.509393
9556.000000;0.509977
9555.000000;0.510489
9554.000000;0.510804
9553.000000;0.510839
9552.000000;0.510675
9551.000000;0.510541
9550.000000;0.510709
9549.000000;0.511346
9548.000000;0.512346
9547.000000;0.513295
9546.000000;0.513775
9545.000000;0.513797
9544.000000;0.513799
9543.000000;0.514117
9542.000000;0.514628
9541.000000;0.515007
9540.000000;0.515158
9539.000000;0.515208
9538.000000;0.515188
9537.000000;0.515010
9536.000000;0.514755
9535.000000;0.514778
9534.000000;0.515423
9533.000000;0.516688
9532.000000;0.518144
9531.000000;0.519166
9530.000000;0.519394
9529.000000;0.519133
9528.000000;0.519164
9527.000000;0.519925
9526.000000;0.520957
9525.000000;0.521390
9524.000000;0.520945
9523.000000;0.520142
9522.000000;0.519542
9521.000000;0.519215
9520.000000;0.519029
9519.000000;0.519045
9518.000000;0.519340
9517.000000;0.519691
9516.000000;0.519815
9515.000000;0.519782
9514.000000;0.519918
9513.000000;0.520366
9512.000000;0.520996
9511.000000;0.521666
9510.000000;0.522313
9509.000000;0.522813
9508.000000;0.523014
9507.000000;0.522947
9506.000000;0.522789
9505.000000;0.522584
9504.000000;0.522204
9503.000000;0.521638
9502.000000;0.521138
9501.000000;0.521020
9500.000000;0.521403
9499.000000;0.522167
9498.000000;0.523029
9497.000000;0.523610
9496.000000;0.523595
9495.000000;0.522971
9494.000000;0.522072
9493.000000;0.521320
9492.000000;0.520914
9491.000000;0.520759
9490.000000;0.520633
9489.000000;0.520392
9488.000000;0.520045
9487.000000;0.519731
9486.000000;0.519634
9485.000000;0.519873
9484.000000;0.520455
9483.000000;0.521270
9482.000000;0.522136
9481.000000;0.522836
9480.000000;0.523174
9479.000000;0.523025
9478.000000;0.522393
9477.000000;0.521452
9476.000000;0.520505
9475.000000;0.519840
9474.000000;0.519591
9473.000000;0.519743
9472.000000;0.520193
9471.000000;0.520707
9470.000000;0.520887
9469.000000;0.520404
9468.000000;0.519379
9467.000000;0.518411
9466.000000;0.518077
9465.000000;0.518446
9464.000000;0.519127
9463.000000;0.519672
9462.000000;0.519850
9461.000000;0.519621
9460.000000;0.519013
9459.000000;0.518052
9458.000000;0.516809
9457.000000;0.515522
9456.000000;0.514625
9455.000000;0.514475
9454.000000;0.514897
9453.000000;0.515170
9452.000000;0.514672
9451.000000;0.513499
9450.000000;0.512283
9449.000000;0.511542
9448.000000;0.511386
9447.000000;0.511756
9446.000000;0.512583
9445.000000;0.513668
9444.000000;0.514619
9443.000000;0.515053
9442.000000;0.514800
9441.000000;0.513906
9440.000000;0.512590
9439.000000;0.511223
9438.000000;0.510167
9437.000000;0.509531
9436.000000;0.509139
9435.000000;0.508729
9434.000000;0.508109
9433.000000;0.507201
9432.000000;0.506120
9431.000000;0.505204
9430.000000;0.504758
9429.000000;0.504684
9428.000000;0.504535
9427.000000;0.503994
9426.000000;0.503181
9425.000000;0.502456
9424.000000;0.502101
9423.000000;0.502189
9422.000000;0.502538
9421.000000;0.502684
9420.000000;0.502162
9419.000000;0.501024
9418.000000;0.499873
9417.000000;0.499222
9416.000000;0.498968
9415.000000;0.498677
9414.000000;0.498179
9413.000000;0.497602
9412.000000;0.496976
9411.000000;0.496201
9410.000000;0.495399
9409.000000;0.494891
9408.000000;0.494705
9407.000000;0.494398
9406.000000;0.493608
9405.000000;0.492572
9404.000000;0.491842
9403.000000;0.491588
9402.000000;0.491435
9401.000000;0.490987
9400.000000;0.490245
9399.000000;0.489450
9398.000000;0.488699
9397.000000;0.487892
9396.000000;0.487005
9395.000000;0.486194
9394.000000;0.485585
9393.000000;0.485073
9392.000000;0.484437
9391.000000;0.483647
9390.000000;0.482993
9389.000000;0.482841
9388.000000;0.483208
9387.000000;0.483605
9386.000000;0.483401
9385.000000;0.482439
9384.000000;0.481206
9383.000000;0.480315
9382.000000;0.479895
9381.000000;0.479615
9380.000000;0.479216
9379.000000;0.478743
9378.000000;0.478236
9377.000000;0.477516
9376.000000;0.476491
9375.000000;0.475467
9374.000000;0.474834
9373.000000;0.474539
9372.000000;0.474149
9371.000000;0.473394
9370.000000;0.472379
9369.000000;0.471261
9368.000000;0.470051
9367.000000;0.468826
9366.000000;0.467877
9365.000000;0.467422
9364.000000;0.467325
9363.000000;0.467253
9362.000000;0.467024
9361.000000;0.466700
9360.000000;0.466411
9359.000000;0.466194
9358.000000;0.465920
9357.000000;0.465347
9356.000000;0.464370
9355.000000;0.463252
9354.000000;0.462409
9353.000000;0.461900
9352.000000;0.461342
9351.000000;0.460453
9350.000000;0.459462
9349.000000;0.458710
9348.000000;0.458090
9347.000000;0.457234
9346.000000;0.456168
9345.000000;0.455369
9344.000000;0.455103
9343.000000;0.455050
9342.000000;0.454751
9341.000000;0.454150
9340.000000;0.453470
9339.000000;0.452751
9338.000000;0.451799
9337.000000;0.450549
9336.000000;0.449224
9335.000000;0.448069
9334.000000;0.447108
9333.000000;0.446246
9332.000000;0.445476
9331.000000;0.444855
9330.000000;0.444326
9329.000000;0.443717
9328.000000;0.442966
9327.000000;0.442252
9326.000000;0.441803
9325.000000;0.441642
9324.000000;0.441579
9323.000000;0.441432
9322.000000;0.441154
9321.000000;0.440768
9320.000000;0.440302
9319.000000;0.439788
9318.000000;0.439211
9317.000000;0.438409
9316.000000;0.437174
9315.000000;0.435555
9314.000000;0.433950
9313.000000;0.432769
9312.000000;0.432048
9311.000000;0.431496
9310.000000;0.430843
9309.000000;0.430021
9308.000000;0.429097
9307.000000;0.428208
9306.000000;0.427557
9305.000000;0.427263
9304.000000;0.427157
9303.000000;0.426887
9302.000000;0.426310
9301.000000;0.425636
9300.000000;0.425107
9299.000000;0.424651
9298.000000;0.424035
9297.000000;0.423269
9296.000000;0.422614
9295.000000;0.422155
9294.000000;0.421555
9293.000000;0.420393
9292.000000;0.418711
9291.000000;0.417041
9290.000000;0.415860
9289.000000;0.415101
9288.000000;0.414333
9287.000000;0.413374
9286.000000;0.412545
9285.000000;0.412245
9284.000000;0.412382
9283.000000;0.412393
9282.000000;0.411824
9281.000000;0.410732
9280.000000;0.409473
9279.000000;0.408255
9278.000000;0.407060
9277.000000;0.405907
9276.000000;0.404985
9275.000000;0.404456
9274.000000;0.404259
9273.000000;0.404186
9272.000000;0.404076
9271.000000;0.403847
9270.000000;0.403414
9269.000000;0.402725
9268.000000;0.401846
9267.000000;0.400896
9266.000000;0.399864
9265.000000;0.398647
9264.000000;0.397324
9263.000000;0.396221
9262.000000;0.395568
9261.000000;0.395183
9260.000000;0.394661
9259.000000;0.393847
9258.000000;0.392954
9257.000000;0.392226
9256.000000;0.391680
9255.000000;0.391202
9254.000000;0.390740
9253.000000;0.390280
9252.000000;0.389758
9251.000000;0.389122
9250.000000;0.388405
9249.000000;0.387647
9248.000000;0.386810
9247.000000;0.385869
9246.000000;0.384905
9245.000000;0.384034
9244.000000;0.383287
9243.000000;0.382643
9242.000000;0.382117
9241.000000;0.381713
9240.000000;0.381328
9239.000000;0.380835
9238.000000;0.380227
9237.000000;0.379577
9236.000000;0.378879
9235.000000;0.378061
9234.000000;0.377174
9233.000000;0.376431
9232.000000;0.375985
9231.000000;0.375729
9230.000000;0.375395
9229.000000;0.374814
9228.000000;0.374045
9227.000000;0.373292
9226.000000;0.372763
9225.000000;0.372550
9224.000000;0.372552
9223.000000;0.372474
9222.000000;0.372005
9221.000000;0.371096
9220.000000;0.370060
9219.000000;0.369305
9218.000000;0.368920
9217.000000;0.368555
9216.000000;0.367764
9215.000000;0.366426
9214.000000;0.364815
9213.000000;0.363336
9212.000000;0.362307
9211.000000;0.361871
9210.000000;0.361906
9209.000000;0.362001
9208.000000;0.361705
9207.000000;0.360925
9206.000000;0.359980
9205.000000;0.359239
9204.000000;0.358806
9203.000000;0.358583
9202.000000;0.358419
9201.000000;0.358055
9200.000000;0.357143
9199.000000;0.355589
9198.000000;0.353831
9197.000000;0.352556
9196.000000;0.352090
9195.000000;0.352181
9194.000000;0.352325
9193.000000;0.352195
9192.000000;0.351777
9191.000000;0.351278
9190.000000;0.350892
9189.000000;0.350546
9188.000000;0.349878
9187.000000;0.348633
9186.000000;0.347065
9185.000000;0.345784
9184.000000;0.345145
9183.000000;0.344950
9182.000000;0.344782
9181.000000;0.344471
9180.000000;0.344117
9179.000000;0.343798
9178.000000;0.343430
9177.000000;0.342861
9176.000000;0.342004
9175.000000;0.340879
9174.000000;0.339627
9173.000000;0.338491
9172.000000;0.337701
9171.000000;0.337319
9170.000000;0.337163
9169.000000;0.336895
9168.000000;0.336256
9167.000000;0.335306
9166.000000;0.334437
9165.000000;0.334025
9164.000000;0.334029
9163.000000;0.333983
9162.000000;0.333457
9161.000000;0.332476
9160.000000;0.331449
9159.000000;0.330739
9158.000000;0.330371
9157.000000;0.330100
9156.000000;0.329688
9155.000000;0.329100
9154.000000;0.328470
9153.000000;0.327920
9152.000000;0.327424
9151.000000;0.326839
9150.000000;0.326064
9149.000000;0.325126
9148.000000;0.324123
9147.000000;0.323150
9146.000000;0.322292
9145.000000;0.321661
9144.000000;0.321373
9143.000000;0.321457
9142.000000;0.321768
9141.000000;0.321981
9140.000000;0.321751
9139.000000;0.320980
9138.000000;0.319924
9137.000000;0.318993
9136.000000;0.318399
9135.000000;0.318037
9134.000000;0.317680
9133.000000;0.317188
9132.000000;0.316545
9131.000000;0.315779
9130.000000;0.314943
9129.000000;0.314106
9128.000000;0.313305
9127.000000;0.312518
9126.000000;0.311735
9125.000000;0.311032
9124.000000;0.310529
9123.000000;0.310275
9122.000000;0.310178
9121.000000;0.310034
9120.000000;0.309629
9119.000000;0.308877
9118.000000;0.307897
9117.000000;0.306941
9116.000000;0.306214
9115.000000;0.305750
9114.000000;0.305444
9113.000000;0.305173
9112.000000;0.304878
9111.000000;0.304562
9110.000000;0.304221
9109.000000;0.303815
9108.000000;0.303317
9107.000000;0.302804
9106.000000;0.302400
9105.000000;0.302100
9104.000000;0.301732
9103.000000;0.301174
9102.000000;0.300550
9101.000000;0.300054
9100.000000;0.299637
9099.000000;0.299038
9098.000000;0.298185
9097.000000;0.297368
9096.000000;0.296897
9095.000000;0.296691
9094.000000;0.296361
9093.000000;0.295664
9092.000000;0.294753
9091.000000;0.293963
9090.000000;0.293452
9089.000000;0.293095
9088.000000;0.292663
9087.000000;0.292067
9086.000000;0.291420
9085.000000;0.290909
9084.000000;0.290614
9083.000000;0.290464
9082.000000;0.290329
9081.000000;0.290103
9080.000000;0.289701
9079.000000;0.289045
9078.000000;0.288142
9077.000000;0.287140
9076.000000;0.286238
9075.000000;0.285538
9074.000000;0.285035
9073.000000;0.284737
9072.000000;0.284695
9071.000000;0.284843
9070.000000;0.284900
9069.000000;0.284559
9068.000000;0.283818
9067.000000;0.283014
9066.000000;0.282447
9065.000000;0.282041
9064.000000;0.281496
9063.000000;0.280707
9062.000000;0.279905
9061.000000;0.279348
9060.000000;0.279060
9059.000000;0.278907
9058.000000;0.278800
9057.000000;0.278682
9056.000000;0.278441
9055.000000;0.277986
9054.000000;0.277381
9053.000000;0.276767
