Criado como novo conjunto de dados;"e2410_daniel_v2.spp","4322.2 Secs"
cm-1;Abs
10000.000000;0.130766
9999.000000;0.115799
9998.000000;0.120649
9997.000000;0.141090
9996.000000;0.159366
9995.000000;0.161362
9994.000000;0.149256
9993.000000;0.131726
9992.000000;0.117237
9991.000000;0.115519
9990.000000;0.131252
9989.000000;0.154144
9988.000000;0.161798
9987.000000;0.147112
9986.000000;0.126715
9985.000000;0.114728
9984.000000;0.114202
9983.000000;0.125244
9982.000000;0.144884
9981.000000;0.158945
9980.000000;0.150451
9979.000000;0.126347
9978.000000;0.109251
9977.000000;0.109789
9976.000000;0.123382
9975.000000;0.140277
9974.000000;0.151906
9973.000000;0.149442
9972.000000;0.130508
9971.000000;0.109075
9970.000000;0.102899
9969.000000;0.116311
9968.000000;0.137236
9967.000000;0.148114
9966.000000;0.143082
9965.000000;0.127899
9964.000000;0.110407
9963.000000;0.100600
9962.000000;0.107545
9961.000000;0.129166
9960.000000;0.147033
9959.000000;0.143107
9958.000000;0.124116
9957.000000;0.107457
9956.000000;0.100665
9955.000000;0.105087
9954.000000;0.120826
9953.000000;0.140114
9952.000000;0.144239
9951.000000;0.125943
9950.000000;0.103517
9949.000000;0.094978
9948.000000;0.102206
9947.000000;0.117461
9946.000000;0.132463
9945.000000;0.138592
9944.000000;0.127670
9943.000000;0.105262
9942.000000;0.090037
9941.000000;0.094081
9940.000000;0.112958
9939.000000;0.130454
9938.000000;0.134068
9937.000000;0.124146
9936.000000;0.106835
9935.000000;0.091096
9934.000000;0.088310
9933.000000;0.103446
9932.000000;0.125886
9931.000000;0.134139
9930.000000;0.121553
9929.000000;0.102726
9928.000000;0.090159
9927.000000;0.087687
9926.000000;0.097210
9925.000000;0.116530
9924.000000;0.131123
9923.000000;0.123842
9922.000000;0.101239
9921.000000;0.084628
9920.000000;0.083675
9919.000000;0.094684
9918.000000;0.110236
9917.000000;0.122863
9916.000000;0.122220
9915.000000;0.104434
9914.000000;0.083573
9913.000000;0.077311
9912.000000;0.089492
9911.000000;0.108863
9910.000000;0.120083
9909.000000;0.117290
9908.000000;0.103466
9907.000000;0.085448
9906.000000;0.074598
9905.000000;0.080755
9904.000000;0.101470
9903.000000;0.118737
9902.000000;0.115964
9901.000000;0.098992
9900.000000;0.082772
9899.000000;0.074516
9898.000000;0.077274
9897.000000;0.092486
9896.000000;0.112203
9895.000000;0.117246
9894.000000;0.100358
9893.000000;0.078969
9892.000000;0.069818
9891.000000;0.074832
9890.000000;0.088177
9889.000000;0.103452
9888.000000;0.111448
9887.000000;0.102039
9886.000000;0.080279
9885.000000;0.065041
9884.000000;0.068023
9883.000000;0.084893
9882.000000;0.101331
9881.000000;0.106442
9880.000000;0.098748
9879.000000;0.081994
9878.000000;0.065530
9877.000000;0.061964
9876.000000;0.076284
9875.000000;0.097731
9874.000000;0.106171
9873.000000;0.095542
9872.000000;0.078205
9871.000000;0.065038
9870.000000;0.060849
9869.000000;0.069267
9868.000000;0.088513
9867.000000;0.103582
9866.000000;0.097480
9865.000000;0.076522
9864.000000;0.060657
9863.000000;0.058726
9862.000000;0.067976
9861.000000;0.082946
9860.000000;0.096639
9859.000000;0.097156
9858.000000;0.079670
9857.000000;0.058722
9856.000000;0.051961
9855.000000;0.062736
9854.000000;0.080544
9853.000000;0.092070
9852.000000;0.091434
9851.000000;0.079095
9850.000000;0.060853
9849.000000;0.049097
9848.000000;0.054233
9847.000000;0.073682
9846.000000;0.090375
9845.000000;0.089233
9844.000000;0.074744
9843.000000;0.059226
9842.000000;0.049578
9841.000000;0.050533
9840.000000;0.064776
9839.000000;0.084396
9838.000000;0.090271
9837.000000;0.075202
9836.000000;0.055353
9835.000000;0.046045
9834.000000;0.049266
9833.000000;0.060916
9832.000000;0.076066
9831.000000;0.085041
9830.000000;0.076482
9829.000000;0.055326
9828.000000;0.040472
9827.000000;0.042899
9826.000000;0.058131
9825.000000;0.073515
9824.000000;0.079662
9823.000000;0.073696
9822.000000;0.057393
9821.000000;0.040379
9820.000000;0.036107
9819.000000;0.049459
9818.000000;0.069803
9817.000000;0.078551
9816.000000;0.070080
9815.000000;0.054518
9814.000000;0.041226
9813.000000;0.035838
9812.000000;0.043295
9811.000000;0.062066
9810.000000;0.077043
9809.000000;0.071758
9808.000000;0.052227
9807.000000;0.036825
9806.000000;0.033615
9805.000000;0.040886
9804.000000;0.054962
9803.000000;0.069304
9802.000000;0.070976
9801.000000;0.054462
9800.000000;0.034263
9799.000000;0.027444
9798.000000;0.036881
9797.000000;0.053115
9796.000000;0.064856
9795.000000;0.066085
9794.000000;0.054969
9793.000000;0.036559
9792.000000;0.024248
9791.000000;0.028761
9790.000000;0.047207
9789.000000;0.063259
9788.000000;0.063239
9787.000000;0.050624
9786.000000;0.035604
9785.000000;0.025021
9784.000000;0.024977
9783.000000;0.038750
9782.000000;0.058110
9781.000000;0.064170
9780.000000;0.050275
9779.000000;0.031511
9778.000000;0.021862
9777.000000;0.023588
9776.000000;0.034254
9775.000000;0.050011
9774.000000;0.060413
9773.000000;0.052824
9772.000000;0.032056
9771.000000;0.017038
9770.000000;0.018353
9769.000000;0.031831
9768.000000;0.046510
9767.000000;0.054017
9766.000000;0.049844
9765.000000;0.034086
9764.000000;0.016824
9763.000000;0.012147
9762.000000;0.024617
9761.000000;0.043741
9760.000000;0.052574
9759.000000;0.045958
9758.000000;0.031725
9757.000000;0.017800
9756.000000;0.010849
9755.000000;0.017226
9754.000000;0.035615
9753.000000;0.050811
9752.000000;0.046766
9751.000000;0.028852
9750.000000;0.013832
9749.000000;0.009336
9748.000000;0.014914
9747.000000;0.028520
9746.000000;0.043758
9745.000000;0.046634
9744.000000;0.030998
9743.000000;0.011192
9742.000000;0.003768
9741.000000;0.011430
9740.000000;0.025995
9739.000000;0.038058
9738.000000;0.041231
9737.000000;0.031462
9736.000000;0.013111
9735.000000;0.000387
9734.000000;0.004188
9733.000000;0.021413
9732.000000;0.036773
9731.000000;0.038005
9730.000000;0.027270
9729.000000;0.012547
9728.000000;0.000797
9727.000000;-0.000370
9726.000000;0.012906
9725.000000;0.032145
9724.000000;0.038850
9723.000000;0.026675
9722.000000;0.009258
9721.000000;-0.000854
9720.000000;-0.000997
9719.000000;0.008170
9718.000000;0.023861
9717.000000;0.035132
9716.000000;0.028571
9715.000000;0.008768
9714.000000;-0.005889
9713.000000;-0.005549
9712.000000;0.006095
9711.000000;0.020057
9710.000000;0.028998
9709.000000;0.026704
9708.000000;0.011477
9707.000000;-0.006189
9706.000000;-0.011475
9705.000000;-0.000020
9704.000000;0.017946
9703.000000;0.027033
9702.000000;0.022314
9701.000000;0.009451
9700.000000;-0.004808
9699.000000;-0.012799
9698.000000;-0.007171
9697.000000;0.010674
9696.000000;0.025626
9695.000000;0.022478
9694.000000;0.006212
9693.000000;-0.008179
9692.000000;-0.013746
9691.000000;-0.009776
9690.000000;0.003159
9689.000000;0.018788
9688.000000;0.022428
9687.000000;0.007723
9686.000000;-0.011210
9685.000000;-0.018716
9684.000000;-0.012477
9683.000000;0.000529
9682.000000;0.012659
9681.000000;0.017290
9680.000000;0.008559
9679.000000;-0.009689
9678.000000;-0.022655
9677.000000;-0.019516
9676.000000;-0.003489
9675.000000;0.011316
9674.000000;0.013889
9673.000000;0.005067
9672.000000;-0.009235
9671.000000;-0.021892
9670.000000;-0.024022
9669.000000;-0.011459
9668.000000;0.007082
9667.000000;0.013831
9666.000000;0.003071
9665.000000;-0.012991
9664.000000;-0.023295
9663.000000;-0.024762
9662.000000;-0.016534
9661.000000;-0.000714
9660.000000;0.011216
9659.000000;0.005471
9658.000000;-0.013365
9657.000000;-0.027572
9656.000000;-0.028066
9655.000000;-0.018087
9654.000000;-0.004921
9653.000000;0.004920
9652.000000;0.003935
9651.000000;-0.010785
9650.000000;-0.028513
9649.000000;-0.034280
9648.000000;-0.024044
9647.000000;-0.007418
9646.000000;0.002006
9645.000000;-0.000637
9644.000000;-0.012057
9643.000000;-0.026628
9642.000000;-0.035610
9641.000000;-0.030717
9640.000000;-0.013508
9639.000000;0.001074
9638.000000;-0.001162
9637.000000;-0.015758
9636.000000;-0.029624
9635.000000;-0.036271
9634.000000;-0.033693
9633.000000;-0.021213
9632.000000;-0.005165
9631.000000;-0.000727
9630.000000;-0.014337
9629.000000;-0.032356
9628.000000;-0.040035
9627.000000;-0.035179
9626.000000;-0.023441
9625.000000;-0.011011
9624.000000;-0.004994
9623.000000;-0.012812
9622.000000;-0.030917
9621.000000;-0.044075
9620.000000;-0.041702
9619.000000;-0.027160
9618.000000;-0.013239
9617.000000;-0.009554
9616.000000;-0.016542
9615.000000;-0.030337
9614.000000;-0.043717
9613.000000;-0.046659
9612.000000;-0.034704
9611.000000;-0.016637
9610.000000;-0.009415
9609.000000;-0.018463
9608.000000;-0.033246
9607.000000;-0.044031
9606.000000;-0.047071
9605.000000;-0.039983
9604.000000;-0.024255
9603.000000;-0.011673
9602.000000;-0.016228
9601.000000;-0.033763
9600.000000;-0.047592
9599.000000;-0.049279
9598.000000;-0.041210
9597.000000;-0.028873
9596.000000;-0.018197
9595.000000;-0.017965
9594.000000;-0.032085
9593.000000;-0.049580
9592.000000;-0.055508
9591.000000;-0.046278
9590.000000;-0.030899
9589.000000;-0.021268
9588.000000;-0.022217
9587.000000;-0.032533
9586.000000;-0.047482
9585.000000;-0.057344
9584.000000;-0.053185
9583.000000;-0.036746
9582.000000;-0.022532
9581.000000;-0.023719
9580.000000;-0.036582
9579.000000;-0.049880
9578.000000;-0.057436
9577.000000;-0.055989
9576.000000;-0.043915
9575.000000;-0.027718
9574.000000;-0.022847
9573.000000;-0.035591
9572.000000;-0.052810
9571.000000;-0.060767
9570.000000;-0.057313
9569.000000;-0.046736
9568.000000;-0.033995
9567.000000;-0.026700
9566.000000;-0.033576
9565.000000;-0.051286
9564.000000;-0.064442
9563.000000;-0.062892
9562.000000;-0.049927
9561.000000;-0.036832
9560.000000;-0.031996
9559.000000;-0.037163
9558.000000;-0.050339
9557.000000;-0.064183
9556.000000;-0.067833
9555.000000;-0.056790
9554.000000;-0.039763
9553.000000;-0.032549
9552.000000;-0.040097
9551.000000;-0.053558
9550.000000;-0.064528
9549.000000;-0.068618
9548.000000;-0.062245
9547.000000;-0.046672
9546.000000;-0.034025
9545.000000;-0.038037
9544.000000;-0.054567
9543.000000;-0.068006
9542.000000;-0.070602
9541.000000;-0.063910
9540.000000;-0.051853
9539.000000;-0.040017
9538.000000;-0.038389
9537.000000;-0.051717
9536.000000;-0.068903
9535.000000;-0.075209
9534.000000;-0.067363
9533.000000;-0.053538
9532.000000;-0.043925
9531.000000;-0.043350
9530.000000;-0.052510
9529.000000;-0.067466
9528.000000;-0.077732
9527.000000;-0.074020
9526.000000;-0.058307
9525.000000;-0.044490
9524.000000;-0.044566
9523.000000;-0.055637
9522.000000;-0.068461
9521.000000;-0.077131
9520.000000;-0.077028
9519.000000;-0.065553
9518.000000;-0.049310
9517.000000;-0.043825
9516.000000;-0.055269
9515.000000;-0.071410
9514.000000;-0.079677
9513.000000;-0.077865
9512.000000;-0.068784
9511.000000;-0.056105
9510.000000;-0.047799
9509.000000;-0.053684
9508.000000;-0.070757
9507.000000;-0.083678
9506.000000;-0.082670
9505.000000;-0.070932
9504.000000;-0.058428
9503.000000;-0.052586
9502.000000;-0.056369
9501.000000;-0.069262
9500.000000;-0.083586
9499.000000;-0.087701
9498.000000;-0.077196
9497.000000;-0.060764
9496.000000;-0.053149
9495.000000;-0.059074
9494.000000;-0.071411
9493.000000;-0.082891
9492.000000;-0.088304
9491.000000;-0.082837
9490.000000;-0.067563
9489.000000;-0.054829
9488.000000;-0.058069
9487.000000;-0.073392
9486.000000;-0.086403
9485.000000;-0.089987
9484.000000;-0.084814
9483.000000;-0.073307
9482.000000;-0.060760
9481.000000;-0.058170
9480.000000;-0.070983
9479.000000;-0.088042
9478.000000;-0.094792
9477.000000;-0.088143
9476.000000;-0.075412
9475.000000;-0.065357
9474.000000;-0.063050
9473.000000;-0.071019
9472.000000;-0.086035
9471.000000;-0.096894
9470.000000;-0.093978
9469.000000;-0.079347
9468.000000;-0.066121
9467.000000;-0.065216
9466.000000;-0.074642
9465.000000;-0.086964
9464.000000;-0.096423
9463.000000;-0.097272
9462.000000;-0.086324
9461.000000;-0.070286
9460.000000;-0.064428
9459.000000;-0.074593
9458.000000;-0.089537
9457.000000;-0.097963
9456.000000;-0.097499
9455.000000;-0.089491
9454.000000;-0.076645
9453.000000;-0.067434
9452.000000;-0.072536
9451.000000;-0.089032
9450.000000;-0.101808
9449.000000;-0.101678
9448.000000;-0.091518
9447.000000;-0.079649
9446.000000;-0.072548
9445.000000;-0.074578
9444.000000;-0.086879
9443.000000;-0.101559
9442.000000;-0.106274
9441.000000;-0.096644
9440.000000;-0.081188
9439.000000;-0.073475
9438.000000;-0.077895
9437.000000;-0.089020
9436.000000;-0.100801
9435.000000;-0.107352
9434.000000;-0.102767
9433.000000;-0.087839
9432.000000;-0.074896
9431.000000;-0.077023
9430.000000;-0.090786
9429.000000;-0.103196
9428.000000;-0.107700
9427.000000;-0.103994
9426.000000;-0.093151
9425.000000;-0.080215
9424.000000;-0.076817
9423.000000;-0.088736
9422.000000;-0.105032
9421.000000;-0.111842
9420.000000;-0.106383
9419.000000;-0.094953
9418.000000;-0.084807
9417.000000;-0.081239
9416.000000;-0.088368
9415.000000;-0.103404
9414.000000;-0.114503
9413.000000;-0.111983
9412.000000;-0.098133
9411.000000;-0.085307
9410.000000;-0.083337
9409.000000;-0.091158
9408.000000;-0.103139
9407.000000;-0.113573
9406.000000;-0.115485
9405.000000;-0.105094
9404.000000;-0.089280
9403.000000;-0.083087
9402.000000;-0.092126
9401.000000;-0.106184
9400.000000;-0.115006
9399.000000;-0.115847
9398.000000;-0.108708
9397.000000;-0.095631
9396.000000;-0.085652
9395.000000;-0.090046
9394.000000;-0.105932
9393.000000;-0.118500
9392.000000;-0.119094
9391.000000;-0.110295
9390.000000;-0.099038
9389.000000;-0.091079
9388.000000;-0.091888
9387.000000;-0.103747
9386.000000;-0.118541
9385.000000;-0.123583
9384.000000;-0.114705
9383.000000;-0.100123
9382.000000;-0.092139
9381.000000;-0.095021
9380.000000;-0.105105
9379.000000;-0.117279
9378.000000;-0.124775
9377.000000;-0.120836
9376.000000;-0.106372
9375.000000;-0.093669
9374.000000;-0.095069
9373.000000;-0.107420
9372.000000;-0.119201
9371.000000;-0.124458
9370.000000;-0.121948
9369.000000;-0.111599
9368.000000;-0.098409
9367.000000;-0.094504
9366.000000;-0.105751
9365.000000;-0.121367
9364.000000;-0.128187
9363.000000;-0.123724
9362.000000;-0.113309
9361.000000;-0.102916
9360.000000;-0.098144
9359.000000;-0.104534
9358.000000;-0.119674
9357.000000;-0.131223
9356.000000;-0.129508
9355.000000;-0.116797
9354.000000;-0.104362
9353.000000;-0.101082
9352.000000;-0.107121
9351.000000;-0.118647
9350.000000;-0.129844
9349.000000;-0.132596
9348.000000;-0.122772
9347.000000;-0.107347
9346.000000;-0.100790
9345.000000;-0.108412
9344.000000;-0.121332
9343.000000;-0.130562
9342.000000;-0.132860
9341.000000;-0.126762
9340.000000;-0.113677
9339.000000;-0.103087
9338.000000;-0.106645
9337.000000;-0.121571
9336.000000;-0.133670
9335.000000;-0.134931
9334.000000;-0.127454
9333.000000;-0.116719
9332.000000;-0.107883
9331.000000;-0.107547
9330.000000;-0.119007
9329.000000;-0.133895
9328.000000;-0.139354
9327.000000;-0.131493
9326.000000;-0.118018
9325.000000;-0.109829
9324.000000;-0.111113
9323.000000;-0.120015
9322.000000;-0.132381
9321.000000;-0.140623
9320.000000;-0.137215
9319.000000;-0.123131
9318.000000;-0.110501
9317.000000;-0.110995
9316.000000;-0.121952
9315.000000;-0.133395
9314.000000;-0.139725
9313.000000;-0.138503
9312.000000;-0.128529
9311.000000;-0.114881
9310.000000;-0.110266
9309.000000;-0.120739
9308.000000;-0.135855
9307.000000;-0.143147
9306.000000;-0.140103
9305.000000;-0.130852
9304.000000;-0.120203
9303.000000;-0.114207
9302.000000;-0.119669
9301.000000;-0.134414
9300.000000;-0.145807
9299.000000;-0.144460
9298.000000;-0.132813
9297.000000;-0.121106
9296.000000;-0.117050
9295.000000;-0.121667
9294.000000;-0.132763
9293.000000;-0.144568
9292.000000;-0.148070
9291.000000;-0.138843
9290.000000;-0.123896
9289.000000;-0.117078
9288.000000;-0.123358
9287.000000;-0.135089
9286.000000;-0.144450
9285.000000;-0.147826
9284.000000;-0.142623
9283.000000;-0.129786
9282.000000;-0.119013
9281.000000;-0.121966
9280.000000;-0.136012
9279.000000;-0.147785
9278.000000;-0.149864
9277.000000;-0.143719
9276.000000;-0.133434
9275.000000;-0.123736
9274.000000;-0.122266
9273.000000;-0.133177
9272.000000;-0.147990
9271.000000;-0.153815
9270.000000;-0.146967
9269.000000;-0.134548
9268.000000;-0.126088
9267.000000;-0.125798
9266.000000;-0.133562
9265.000000;-0.146075
9264.000000;-0.155004
9263.000000;-0.152204
9262.000000;-0.138741
9261.000000;-0.126447
9260.000000;-0.126226
9259.000000;-0.135961
9258.000000;-0.147125
9257.000000;-0.154349
9256.000000;-0.154133
9255.000000;-0.144493
9254.000000;-0.130679
9253.000000;-0.125586
9252.000000;-0.135118
9251.000000;-0.149311
9250.000000;-0.156639
9249.000000;-0.154704
9248.000000;-0.146474
9247.000000;-0.135632
9246.000000;-0.128558
9245.000000;-0.133166
9244.000000;-0.147628
9243.000000;-0.159200
9242.000000;-0.158700
9241.000000;-0.148372
9240.000000;-0.137235
9239.000000;-0.132149
9238.000000;-0.135256
9237.000000;-0.145858
9236.000000;-0.158057
9235.000000;-0.162101
9234.000000;-0.153535
9233.000000;-0.139337
9232.000000;-0.132452
9231.000000;-0.137479
9230.000000;-0.148123
9229.000000;-0.157730
9228.000000;-0.162142
9227.000000;-0.157601
9226.000000;-0.144724
9225.000000;-0.133504
9224.000000;-0.135622
9223.000000;-0.148614
9222.000000;-0.160013
9221.000000;-0.162976
9220.000000;-0.158231
9219.000000;-0.148488
9218.000000;-0.138155
9217.000000;-0.135832
9216.000000;-0.146309
9215.000000;-0.160924
9214.000000;-0.166922
9213.000000;-0.160940
9212.000000;-0.149500
9211.000000;-0.140901
9210.000000;-0.139378
9209.000000;-0.146252
9208.000000;-0.158829
9207.000000;-0.168164
9206.000000;-0.165834
9205.000000;-0.153073
9204.000000;-0.141203
9203.000000;-0.140174
9202.000000;-0.148424
9201.000000;-0.159055
9200.000000;-0.167053
9199.000000;-0.167876
9198.000000;-0.158728
9197.000000;-0.144914
9196.000000;-0.139409
9195.000000;-0.147987
9194.000000;-0.161338
9193.000000;-0.168914
9192.000000;-0.168235
9191.000000;-0.161019
9190.000000;-0.150002
9189.000000;-0.142000
9188.000000;-0.145841
9187.000000;-0.159839
9186.000000;-0.171241
9185.000000;-0.171240
9184.000000;-0.162035
9183.000000;-0.151554
9182.000000;-0.145832
9181.000000;-0.147904
9180.000000;-0.158239
9179.000000;-0.170705
9178.000000;-0.174962
9177.000000;-0.166682
9176.000000;-0.152915
9175.000000;-0.145805
9174.000000;-0.149637
9173.000000;-0.159397
9172.000000;-0.169405
9171.000000;-0.174869
9170.000000;-0.170988
9169.000000;-0.158216
9168.000000;-0.146827
9167.000000;-0.148333
9166.000000;-0.160387
9165.000000;-0.171423
9164.000000;-0.175104
9163.000000;-0.171456
9162.000000;-0.162054
9161.000000;-0.151133
9160.000000;-0.148030
9159.000000;-0.157941
9158.000000;-0.172205
9157.000000;-0.178408
9156.000000;-0.173458
9155.000000;-0.163124
9154.000000;-0.154379
9153.000000;-0.151538
9152.000000;-0.157416
9151.000000;-0.169991
9150.000000;-0.179771
9149.000000;-0.178023
9148.000000;-0.166065
9147.000000;-0.154635
9146.000000;-0.152782
9145.000000;-0.159598
9144.000000;-0.169730
9143.000000;-0.178388
9142.000000;-0.180033
9141.000000;-0.171259
9140.000000;-0.157476
9139.000000;-0.151553
9138.000000;-0.159077
9137.000000;-0.171529
9136.000000;-0.179351
9135.000000;-0.179906
9134.000000;-0.173704
9133.000000;-0.162698
9132.000000;-0.154066
9131.000000;-0.157247
9130.000000;-0.170683
9129.000000;-0.181854
9128.000000;-0.182413
9127.000000;-0.174302
9126.000000;-0.164211
9125.000000;-0.157506
9124.000000;-0.158274
9123.000000;-0.168186
9122.000000;-0.180941
9121.000000;-0.185724
9120.000000;-0.178317
9119.000000;-0.165557
9118.000000;-0.158483
9117.000000;-0.161057
9116.000000;-0.169670
9115.000000;-0.179716
9114.000000;-0.185891
9113.000000;-0.182577
9112.000000;-0.170141
9111.000000;-0.158855
9110.000000;-0.159758
9109.000000;-0.170691
9108.000000;-0.181281
9107.000000;-0.185781
9106.000000;-0.183373
9105.000000;-0.174443
9104.000000;-0.163081
9103.000000;-0.159282
9102.000000;-0.168561
9101.000000;-0.182323
9100.000000;-0.188644
9099.000000;-0.184694
9098.000000;-0.175396
9097.000000;-0.166494
9096.000000;-0.162479
9095.000000;-0.167493
9094.000000;-0.180001
9093.000000;-0.190063
9092.000000;-0.188868
9091.000000;-0.177779
9090.000000;-0.166783
9089.000000;-0.164058
9088.000000;-0.169479
9087.000000;-0.179199
9086.000000;-0.188518
9085.000000;-0.190953
9084.000000;-0.182670
9083.000000;-0.169162
9082.000000;-0.162975
