Criado como novo conjunto de dados;"e2410_daniel_v2.spp","21243.3 Secs"
cm-1;Abs
10000.000000;0.519321
9999.000000;0.518825
9998.000000;0.517993
9997.000000;0.516906
9996.000000;0.515905
9995.000000;0.515268
9994.000000;0.515006
9993.000000;0.514781
9992.000000;0.514345
9991.000000;0.513789
9990.000000;0.513336
9989.000000;0.512964
9988.000000;0.512506
9987.000000;0.511950
9986.000000;0.511408
9985.000000;0.510865
9984.000000;0.510232
9983.000000;0.509594
9982.000000;0.509144
9981.000000;0.508872
9980.000000;0.508563
9979.000000;0.508120
9978.000000;0.507671
9977.000000;0.507337
9976.000000;0.507081
9975.000000;0.506828
9974.000000;0.506523
9973.000000;0.506058
9972.000000;0.505326
9971.000000;0.504406
9970.000000;0.503536
9969.000000;0.502873
9968.000000;0.502409
9967.000000;0.502118
9966.000000;0.501979
9965.000000;0.501839
9964.000000;0.501444
9963.000000;0.500702
9962.000000;0.499792
9961.000000;0.498948
9960.000000;0.498267
9959.000000;0.497751
9958.000000;0.497392
9957.000000;0.497117
9956.000000;0.496769
9955.000000;0.496247
9954.000000;0.495609
9953.000000;0.495003
9952.000000;0.494516
9951.000000;0.494131
9950.000000;0.493767
9949.000000;0.493344
9948.000000;0.492848
9947.000000;0.492320
9946.000000;0.491777
9945.000000;0.491175
9944.000000;0.490504
9943.000000;0.489857
9942.000000;0.489327
9941.000000;0.488907
9940.000000;0.488544
9939.000000;0.488234
9938.000000;0.487959
9937.000000;0.487612
9936.000000;0.487100
9935.000000;0.486485
9934.000000;0.485911
9933.000000;0.485444
9932.000000;0.485086
9931.000000;0.484880
9930.000000;0.484841
9929.000000;0.484815
9928.000000;0.484550
9927.000000;0.483943
9926.000000;0.483125
9925.000000;0.482307
9924.000000;0.481630
9923.000000;0.481128
9922.000000;0.480740
9921.000000;0.480339
9920.000000;0.479828
9919.000000;0.479232
9918.000000;0.478639
9917.000000;0.478095
9916.000000;0.477592
9915.000000;0.477093
9914.000000;0.476532
9913.000000;0.475869
9912.000000;0.475210
9911.000000;0.474770
9910.000000;0.474619
9909.000000;0.474540
9908.000000;0.474238
9907.000000;0.473629
9906.000000;0.472816
9905.000000;0.471905
9904.000000;0.470979
9903.000000;0.470198
9902.000000;0.469738
9901.000000;0.469606
9900.000000;0.469614
9899.000000;0.469514
9898.000000;0.469135
9897.000000;0.468448
9896.000000;0.467608
9895.000000;0.466865
9894.000000;0.466352
9893.000000;0.465970
9892.000000;0.465551
9891.000000;0.465049
9890.000000;0.464531
9889.000000;0.464056
9888.000000;0.463669
9887.000000;0.463383
9886.000000;0.463106
9885.000000;0.462682
9884.000000;0.462108
9883.000000;0.461585
9882.000000;0.461236
9881.000000;0.460912
9880.000000;0.460417
9879.000000;0.459790
9878.000000;0.459209
9877.000000;0.458738
9876.000000;0.458322
9875.000000;0.457934
9874.000000;0.457525
9873.000000;0.456956
9872.000000;0.456178
9871.000000;0.455396
9870.000000;0.454855
9869.000000;0.454540
9868.000000;0.454259
9867.000000;0.453946
9866.000000;0.453646
9865.000000;0.453281
9864.000000;0.452706
9863.000000;0.451983
9862.000000;0.451361
9861.000000;0.450953
9860.000000;0.450641
9859.000000;0.450307
9858.000000;0.449955
9857.000000;0.449576
9856.000000;0.449115
9855.000000;0.448623
9854.000000;0.448235
9853.000000;0.447955
9852.000000;0.447609
9851.000000;0.447078
9850.000000;0.446421
9849.000000;0.445724
9848.000000;0.444985
9847.000000;0.444235
9846.000000;0.443603
9845.000000;0.443188
9844.000000;0.442949
9843.000000;0.442786
9842.000000;0.442632
9841.000000;0.442420
9840.000000;0.442049
9839.000000;0.441475
9838.000000;0.440761
9837.000000;0.439996
9836.000000;0.439208
9835.000000;0.438392
9834.000000;0.437582
9833.000000;0.436871
9832.000000;0.436386
9831.000000;0.436196
9830.000000;0.436193
9829.000000;0.436082
9828.000000;0.435600
9827.000000;0.434767
9826.000000;0.433866
9825.000000;0.433187
9824.000000;0.432839
9823.000000;0.432740
9822.000000;0.432698
9821.000000;0.432523
9820.000000;0.432145
9819.000000;0.431651
9818.000000;0.431128
9817.000000;0.430538
9816.000000;0.429791
9815.000000;0.428937
9814.000000;0.428162
9813.000000;0.427610
9812.000000;0.427277
9811.000000;0.427068
9810.000000;0.426885
9809.000000;0.426668
9808.000000;0.426403
9807.000000;0.426103
9806.000000;0.425753
9805.000000;0.425325
9804.000000;0.424851
9803.000000;0.424397
9802.000000;0.423954
9801.000000;0.423446
9800.000000;0.422881
9799.000000;0.422384
9798.000000;0.422000
9797.000000;0.421602
9796.000000;0.421104
9795.000000;0.420611
9794.000000;0.420236
9793.000000;0.419882
9792.000000;0.419381
9791.000000;0.418743
9790.000000;0.418121
9789.000000;0.417582
9788.000000;0.417090
9787.000000;0.416643
9786.000000;0.416254
9785.000000;0.415834
9784.000000;0.415273
9783.000000;0.414620
9782.000000;0.414037
9781.000000;0.413578
9780.000000;0.413162
9779.000000;0.412721
9778.000000;0.412228
9777.000000;0.411634
9776.000000;0.410935
9775.000000;0.410288
9774.000000;0.409888
9773.000000;0.409720
9772.000000;0.409556
9771.000000;0.409219
9770.000000;0.408713
9769.000000;0.408134
9768.000000;0.407572
9767.000000;0.407130
9766.000000;0.406877
9765.000000;0.406734
9764.000000;0.406500
9763.000000;0.406029
9762.000000;0.405312
9761.000000;0.404462
9760.000000;0.403698
9759.000000;0.403279
9758.000000;0.403263
9757.000000;0.403368
9756.000000;0.403214
9755.000000;0.402714
9754.000000;0.402101
9753.000000;0.401585
9752.000000;0.401180
9751.000000;0.400857
9750.000000;0.400638
9749.000000;0.400455
9748.000000;0.400111
9747.000000;0.399491
9746.000000;0.398727
9745.000000;0.398036
9744.000000;0.397495
9743.000000;0.397039
9742.000000;0.396613
9741.000000;0.396211
9740.000000;0.395805
9739.000000;0.395328
9738.000000;0.394725
9737.000000;0.394011
9736.000000;0.393286
9735.000000;0.392695
9734.000000;0.392317
9733.000000;0.392071
9732.000000;0.391778
9731.000000;0.391326
9730.000000;0.390768
9729.000000;0.390260
9728.000000;0.389921
9727.000000;0.389732
9726.000000;0.389521
9725.000000;0.389112
9724.000000;0.388513
9723.000000;0.387936
9722.000000;0.387559
9721.000000;0.387318
9720.000000;0.386990
9719.000000;0.386437
9718.000000;0.385694
9717.000000;0.384884
9716.000000;0.384166
9715.000000;0.383688
9714.000000;0.383480
9713.000000;0.383357
9712.000000;0.383043
9711.000000;0.382447
9710.000000;0.381729
9709.000000;0.381105
9708.000000;0.380623
9707.000000;0.380173
9706.000000;0.379654
9705.000000;0.379098
9704.000000;0.378641
9703.000000;0.378372
9702.000000;0.378232
9701.000000;0.378083
9700.000000;0.377859
9699.000000;0.377591
9698.000000;0.377290
9697.000000;0.376916
9696.000000;0.376477
9695.000000;0.376054
9694.000000;0.375663
9693.000000;0.375218
9692.000000;0.374675
9691.000000;0.374114
9690.000000;0.373602
9689.000000;0.373090
9688.000000;0.372551
9687.000000;0.372085
9686.000000;0.371755
9685.000000;0.371433
9684.000000;0.370952
9683.000000;0.370350
9682.000000;0.369808
9681.000000;0.369400
9680.000000;0.369055
9679.000000;0.368718
9678.000000;0.368391
9677.000000;0.368051
9676.000000;0.367652
9675.000000;0.367213
9674.000000;0.366796
9673.000000;0.366400
9672.000000;0.365993
9671.000000;0.365600
9670.000000;0.365267
9669.000000;0.364974
9668.000000;0.364671
9667.000000;0.364347
9666.000000;0.363977
9665.000000;0.363442
9664.000000;0.362671
9663.000000;0.361801
9662.000000;0.361080
9661.000000;0.360627
9660.000000;0.360387
9659.000000;0.360277
9658.000000;0.360215
9657.000000;0.360059
9656.000000;0.359674
9655.000000;0.359074
9654.000000;0.358407
9653.000000;0.357785
9652.000000;0.357245
9651.000000;0.356814
9650.000000;0.356489
9649.000000;0.356163
9648.000000;0.355732
9647.000000;0.355243
9646.000000;0.354804
9645.000000;0.354365
9644.000000;0.353776
9643.000000;0.353054
9642.000000;0.352428
9641.000000;0.352059
9640.000000;0.351852
9639.000000;0.351612
9638.000000;0.351269
9637.000000;0.350879
9636.000000;0.350504
9635.000000;0.350154
9634.000000;0.349792
9633.000000;0.349360
9632.000000;0.348842
9631.000000;0.348317
9630.000000;0.347883
9629.000000;0.347559
9628.000000;0.347304
9627.000000;0.347101
9626.000000;0.346929
9625.000000;0.346679
9624.000000;0.346226
9623.000000;0.345603
9622.000000;0.344983
9621.000000;0.344481
9620.000000;0.344053
9619.000000;0.343608
9618.000000;0.343136
9617.000000;0.342678
9616.000000;0.342274
9615.000000;0.341949
9614.000000;0.341685
9613.000000;0.341378
9612.000000;0.340917
9611.000000;0.340315
9610.000000;0.339719
9609.000000;0.339245
9608.000000;0.338872
9607.000000;0.338510
9606.000000;0.338113
9605.000000;0.337701
9604.000000;0.337313
9603.000000;0.336966
9602.000000;0.336627
9601.000000;0.336246
9600.000000;0.335839
9599.000000;0.335494
9598.000000;0.335255
9597.000000;0.335025
9596.000000;0.334662
9595.000000;0.334127
9594.000000;0.333489
9593.000000;0.332831
9592.000000;0.332233
9591.000000;0.331803
9590.000000;0.331610
9589.000000;0.331567
9588.000000;0.331477
9587.000000;0.331208
9586.000000;0.330765
9585.000000;0.330231
9584.000000;0.329694
9583.000000;0.329242
9582.000000;0.328921
9581.000000;0.328687
9580.000000;0.328454
9579.000000;0.328161
9578.000000;0.327777
9577.000000;0.327266
9576.000000;0.326646
9575.000000;0.326037
9574.000000;0.325554
9573.000000;0.325172
9572.000000;0.324785
9571.000000;0.324371
9570.000000;0.324001
9569.000000;0.323684
9568.000000;0.323338
9567.000000;0.322911
9566.000000;0.322434
9565.000000;0.321945
9564.000000;0.321458
9563.000000;0.321039
9562.000000;0.320791
9561.000000;0.320711
9560.000000;0.320642
9559.000000;0.320425
9558.000000;0.320054
9557.000000;0.319636
9556.000000;0.319249
9555.000000;0.318887
9554.000000;0.318487
9553.000000;0.317954
9552.000000;0.317210
9551.000000;0.316286
9550.000000;0.315366
9549.000000;0.314706
9548.000000;0.314462
9547.000000;0.314559
9546.000000;0.314731
9545.000000;0.314700
9544.000000;0.314364
9543.000000;0.313815
9542.000000;0.313222
9541.000000;0.312703
9540.000000;0.312293
9539.000000;0.311957
9538.000000;0.311599
9537.000000;0.311120
9536.000000;0.310535
9535.000000;0.309985
9534.000000;0.309611
9533.000000;0.309427
9532.000000;0.309350
9531.000000;0.309294
9530.000000;0.309198
9529.000000;0.308998
9528.000000;0.308656
9527.000000;0.308198
9526.000000;0.307683
9525.000000;0.307171
9524.000000;0.306717
9523.000000;0.306366
9522.000000;0.306087
9521.000000;0.305775
9520.000000;0.305361
9519.000000;0.304881
9518.000000;0.304416
9517.000000;0.303992
9516.000000;0.303593
9515.000000;0.303200
9514.000000;0.302803
9513.000000;0.302407
9512.000000;0.302069
9511.000000;0.301856
9510.000000;0.301727
9509.000000;0.301529
9508.000000;0.301171
9507.000000;0.300733
9506.000000;0.300352
9505.000000;0.300060
9504.000000;0.299796
9503.000000;0.299524
9502.000000;0.299226
9501.000000;0.298856
9500.000000;0.298372
9499.000000;0.297799
9498.000000;0.297194
9497.000000;0.296568
9496.000000;0.295929
9495.000000;0.295335
9494.000000;0.294867
9493.000000;0.294555
9492.000000;0.294382
9491.000000;0.294306
9490.000000;0.294236
9489.000000;0.294043
9488.000000;0.293659
9487.000000;0.293136
9486.000000;0.292569
9485.000000;0.292034
9484.000000;0.291612
9483.000000;0.291377
9482.000000;0.291271
9481.000000;0.291093
9480.000000;0.290691
9479.000000;0.290110
9478.000000;0.289481
9477.000000;0.288866
9476.000000;0.288291
9475.000000;0.287820
9474.000000;0.287470
9473.000000;0.287159
9472.000000;0.286864
9471.000000;0.286735
9470.000000;0.286887
9469.000000;0.287132
9468.000000;0.287108
9467.000000;0.286673
9466.000000;0.286007
9465.000000;0.285347
9464.000000;0.284760
9463.000000;0.284206
9462.000000;0.283672
9461.000000;0.283174
9460.000000;0.282736
9459.000000;0.282407
9458.000000;0.282210
9457.000000;0.282058
9456.000000;0.281791
9455.000000;0.281364
9454.000000;0.280910
9453.000000;0.280574
9452.000000;0.280358
9451.000000;0.280160
9450.000000;0.279917
9449.000000;0.279637
9448.000000;0.279324
9447.000000;0.278937
9446.000000;0.278449
9445.000000;0.277914
9444.000000;0.277455
9443.000000;0.277149
9442.000000;0.276953
9441.000000;0.276755
9440.000000;0.276492
9439.000000;0.276167
9438.000000;0.275786
9437.000000;0.275349
9436.000000;0.274917
9435.000000;0.274583
9434.000000;0.274351
9433.000000;0.274113
9432.000000;0.273798
9431.000000;0.273465
9430.000000;0.273207
9429.000000;0.273025
9428.000000;0.272854
9427.000000;0.272643
9426.000000;0.272360
9425.000000;0.271967
9424.000000;0.271470
9423.000000;0.270929
9422.000000;0.270393
9421.000000;0.269865
9420.000000;0.269382
9419.000000;0.269025
9418.000000;0.268801
9417.000000;0.268586
9416.000000;0.268258
9415.000000;0.267820
9414.000000;0.267333
9413.000000;0.266826
9412.000000;0.266332
9411.000000;0.265949
9410.000000;0.265749
9409.000000;0.265664
9408.000000;0.265545
9407.000000;0.265285
9406.000000;0.264845
9405.000000;0.264258
9404.000000;0.263673
9403.000000;0.263291
9402.000000;0.263166
9401.000000;0.263123
9400.000000;0.262976
9399.000000;0.262737
9398.000000;0.262529
9397.000000;0.262364
9396.000000;0.262143
9395.000000;0.261820
9394.000000;0.261429
9393.000000;0.260995
9392.000000;0.260526
9391.000000;0.260069
9390.000000;0.259686
9389.000000;0.259389
9388.000000;0.259157
9387.000000;0.258978
9386.000000;0.258812
9385.000000;0.258578
9384.000000;0.258269
9383.000000;0.257984
9382.000000;0.257779
9381.000000;0.257550
9380.000000;0.257188
9379.000000;0.256745
9378.000000;0.256327
9377.000000;0.255901
9376.000000;0.255376
9375.000000;0.254816
9374.000000;0.254389
9373.000000;0.254136
9372.000000;0.253940
9371.000000;0.253728
9370.000000;0.253535
9369.000000;0.253377
9368.000000;0.253184
9367.000000;0.252919
9366.000000;0.252612
9365.000000;0.252275
9364.000000;0.251864
9363.000000;0.251367
9362.000000;0.250839
9361.000000;0.250338
9360.000000;0.249905
9359.000000;0.249602
9358.000000;0.249460
9357.000000;0.249398
9356.000000;0.249282
9355.000000;0.249080
9354.000000;0.248848
9353.000000;0.248583
9352.000000;0.248205
9351.000000;0.247717
9350.000000;0.247250
9349.000000;0.246914
9348.000000;0.246670
9347.000000;0.246419
9346.000000;0.246130
9345.000000;0.245823
9344.000000;0.245489
9343.000000;0.245082
9342.000000;0.244594
9341.000000;0.244092
9340.000000;0.243689
9339.000000;0.243465
9338.000000;0.243390
9337.000000;0.243337
9336.000000;0.243202
9335.000000;0.242975
9334.000000;0.242700
9333.000000;0.242392
9332.000000;0.242048
9331.000000;0.241692
9330.000000;0.241352
9329.000000;0.241017
9328.000000;0.240663
9327.000000;0.240301
9326.000000;0.239940
9325.000000;0.239571
9324.000000;0.239211
9323.000000;0.238931
9322.000000;0.238773
9321.000000;0.238667
9320.000000;0.238516
9319.000000;0.238292
9318.000000;0.238020
9317.000000;0.237702
9316.000000;0.237360
9315.000000;0.237084
9314.000000;0.236934
9313.000000;0.236830
9312.000000;0.236613
9311.000000;0.236203
9310.000000;0.235642
9309.000000;0.235031
9308.000000;0.234497
9307.000000;0.234166
9306.000000;0.234047
9305.000000;0.233971
9304.000000;0.233761
9303.000000;0.233436
9302.000000;0.233150
9301.000000;0.232955
9300.000000;0.232743
9299.000000;0.232422
9298.000000;0.232032
9297.000000;0.231660
9296.000000;0.231360
9295.000000;0.231160
9294.000000;0.231063
9293.000000;0.231003
9292.000000;0.230870
9291.000000;0.230612
9290.000000;0.230272
9289.000000;0.229923
9288.000000;0.229614
9287.000000;0.229367
9286.000000;0.229163
9285.000000;0.228918
9284.000000;0.228541
9283.000000;0.228035
9282.000000;0.227505
9281.000000;0.227074
9280.000000;0.226816
9279.000000;0.226742
9278.000000;0.226783
9277.000000;0.226809
9276.000000;0.226727
9275.000000;0.226558
9274.000000;0.226349
9273.000000;0.226033
9272.000000;0.225491
9271.000000;0.224750
9270.000000;0.224025
9269.000000;0.223516
9268.000000;0.223242
9267.000000;0.223089
9266.000000;0.222968
9265.000000;0.222862
9264.000000;0.222758
9263.000000;0.222610
9262.000000;0.222383
9261.000000;0.222126
9260.000000;0.221929
9259.000000;0.221808
9258.000000;0.221647
9257.000000;0.221323
9256.000000;0.220883
9255.000000;0.220495
9254.000000;0.220225
9253.000000;0.219944
9252.000000;0.219536
9251.000000;0.219092
9250.000000;0.218795
9249.000000;0.218672
9248.000000;0.218555
9247.000000;0.218284
9246.000000;0.217875
9245.000000;0.217474
9244.000000;0.217231
9243.000000;0.217184
9242.000000;0.217218
9241.000000;0.217122
9240.000000;0.216769
9239.000000;0.216222
9238.000000;0.215656
9237.000000;0.215197
9236.000000;0.214861
9235.000000;0.214612
9234.000000;0.214407
9233.000000;0.214202
9232.000000;0.213980
9231.000000;0.213755
9230.000000;0.213552
9229.000000;0.213372
9228.000000;0.213230
9227.000000;0.213149
9226.000000;0.213101
9225.000000;0.212992
9224.000000;0.212764
9223.000000;0.212455
9222.000000;0.212125
9221.000000;0.211776
9220.000000;0.211416
9219.000000;0.211132
9218.000000;0.211000
9217.000000;0.210970
9216.000000;0.210896
9215.000000;0.210689
9214.000000;0.210366
9213.000000;0.209987
9212.000000;0.209619
9211.000000;0.209321
9210.000000;0.209096
9209.000000;0.208886
9208.000000;0.208643
9207.000000;0.208393
9206.000000;0.208169
9205.000000;0.207948
9204.000000;0.207706
9203.000000;0.207484
9202.000000;0.207327
9201.000000;0.207194
9200.000000;0.206992
9199.000000;0.206691
9198.000000;0.206331
9197.000000;0.205968
9196.000000;0.205660
9195.000000;0.205451
9194.000000;0.205296
9193.000000;0.205046
9192.000000;0.204616
9191.000000;0.204114
9190.000000;0.203736
9189.000000;0.203532
9188.000000;0.203392
9187.000000;0.203213
9186.000000;0.203001
9185.000000;0.202799
9184.000000;0.202624
9183.000000;0.202484
9182.000000;0.202374
9181.000000;0.202257
9180.000000;0.202099
9179.000000;0.201927
9178.000000;0.201785
9177.000000;0.201625
9176.000000;0.201327
9175.000000;0.200839
9174.000000;0.200265
9173.000000;0.199791
9172.000000;0.199548
9171.000000;0.199524
9170.000000;0.199562
9169.000000;0.199463
9168.000000;0.199151
9167.000000;0.198736
9166.000000;0.198397
9165.000000;0.198215
9164.000000;0.198135
9163.000000;0.198058
9162.000000;0.197922
9161.000000;0.197715
9160.000000;0.197468
9159.000000;0.197224
9158.000000;0.196995
9157.000000;0.196740
9156.000000;0.196434
9155.000000;0.196109
9154.000000;0.195820
9153.000000;0.195602
9152.000000;0.195480
9151.000000;0.195461
9150.000000;0.195471
9149.000000;0.195371
9148.000000;0.195097
9147.000000;0.194748
9146.000000;0.194460
9145.000000;0.194259
9144.000000;0.194081
9143.000000;0.193884
9142.000000;0.193665
9141.000000;0.193414
9140.000000;0.193118
9139.000000;0.192789
9138.000000;0.192435
9137.000000;0.192040
9136.000000;0.191625
9135.000000;0.191273
9134.000000;0.191033
9133.000000;0.190860
9132.000000;0.190705
9131.000000;0.190606
9130.000000;0.190612
9129.000000;0.190639
9128.000000;0.190533
9127.000000;0.190255
9126.000000;0.189911
9125.000000;0.189615
9124.000000;0.189393
9123.000000;0.189219
9122.000000;0.189067
9121.000000;0.188901
9120.000000;0.188685
9119.000000;0.188408
9118.000000;0.188095
9117.000000;0.187774
9116.000000;0.187467
9115.000000;0.187198
9114.000000;0.186971
9113.000000;0.186770
9112.000000;0.186593
9111.000000;0.186460
9110.000000;0.186374
9109.000000;0.186293
9108.000000;0.186191
9107.000000;0.186079
9106.000000;0.185954
9105.000000;0.185763
9104.000000;0.185484
9103.000000;0.185180
9102.000000;0.184941
9101.000000;0.184797
9100.000000;0.184718
9099.000000;0.184660
9098.000000;0.184571
9097.000000;0.184393
9096.000000;0.184125
9095.000000;0.183830
9094.000000;0.183562
9093.000000;0.183316
9092.000000;0.183089
9091.000000;0.182915
9090.000000;0.182808
9089.000000;0.182714
9088.000000;0.182584
9087.000000;0.182412
9086.000000;0.182183
9085.000000;0.181858
9084.000000;0.181474
9083.000000;0.181162
9082.000000;0.180988
9081.000000;0.180863
9080.000000;0.180682
9079.000000;0.180488
9078.000000;0.180393
9077.000000;0.180391
9076.000000;0.180363
9075.000000;0.180229
9074.000000;0.180005
9073.000000;0.179730
9072.000000;0.179429
9071.000000;0.179130
9070.000000;0.178871
9069.000000;0.178661
9068.000000;0.178487
9067.000000;0.178322
9066.000000;0.178115
9065.000000;0.177829
9064.000000;0.177539
9063.000000;0.177384
9062.000000;0.177385
9061.000000;0.177374
9060.000000;0.177198
9059.000000;0.176908
9058.000000;0.176655
9057.000000;0.176470
9056.000000;0.176291
9055.000000;0.176117
9054.000000;0.176014
9053.000000;0.175960
