Criado como novo conjunto de dados;"e2410_daniel_v2.spp","68045.6 Secs"
cm-1;Abs
10000.000000;1.301922
9999.000000;1.301425
9998.000000;1.300945
9997.000000;1.300017
9996.000000;1.298504
9995.000000;1.296856
9994.000000;1.295631
9993.000000;1.295198
9992.000000;1.295547
9991.000000;1.296298
9990.000000;1.296848
9989.000000;1.296803
9988.000000;1.296201
9987.000000;1.295336
9986.000000;1.294532
9985.000000;1.294131
9984.000000;1.294355
9983.000000;1.294976
9982.000000;1.295320
9981.000000;1.294853
9980.000000;1.293665
9979.000000;1.292244
9978.000000;1.290948
9977.000000;1.289864
9976.000000;1.289004
9975.000000;1.288426
9974.000000;1.288159
9973.000000;1.288150
9972.000000;1.288244
9971.000000;1.288161
9970.000000;1.287626
9969.000000;1.286647
9968.000000;1.285632
9967.000000;1.285050
9966.000000;1.284966
9965.000000;1.285000
9964.000000;1.284805
9963.000000;1.284491
9962.000000;1.284418
9961.000000;1.284572
9960.000000;1.284368
9959.000000;1.283270
9958.000000;1.281489
9957.000000;1.279736
9956.000000;1.278351
9955.000000;1.277090
9954.000000;1.275856
9953.000000;1.275106
9952.000000;1.275161
9951.000000;1.275474
9950.000000;1.275158
9949.000000;1.274158
9948.000000;1.273392
9947.000000;1.273636
9946.000000;1.274651
9945.000000;1.275492
9944.000000;1.275405
9943.000000;1.274333
9942.000000;1.272811
9941.000000;1.271505
9940.000000;1.270713
9939.000000;1.270224
9938.000000;1.269689
9937.000000;1.269057
9936.000000;1.268490
9935.000000;1.267962
9934.000000;1.267220
9933.000000;1.266165
9932.000000;1.265061
9931.000000;1.264312
9930.000000;1.264169
9929.000000;1.264614
9928.000000;1.265322
9927.000000;1.265777
9926.000000;1.265617
9925.000000;1.264883
9924.000000;1.263834
9923.000000;1.262655
9922.000000;1.261473
9921.000000;1.260544
9920.000000;1.260196
9919.000000;1.260568
9918.000000;1.261471
9917.000000;1.262416
9916.000000;1.262733
9915.000000;1.261945
9914.000000;1.260258
9913.000000;1.258492
9912.000000;1.257305
9911.000000;1.256679
9910.000000;1.256322
9909.000000;1.256194
9908.000000;1.256249
9907.000000;1.256032
9906.000000;1.255139
9905.000000;1.253934
9904.000000;1.253222
9903.000000;1.253199
9902.000000;1.253218
9901.000000;1.252681
9900.000000;1.251710
9899.000000;1.250800
9898.000000;1.250215
9897.000000;1.249912
9896.000000;1.249736
9895.000000;1.249511
9894.000000;1.249165
9893.000000;1.248839
9892.000000;1.248654
9891.000000;1.248374
9890.000000;1.247582
9889.000000;1.246260
9888.000000;1.244903
9887.000000;1.244013
9886.000000;1.243692
9885.000000;1.243762
9884.000000;1.243995
9883.000000;1.244172
9882.000000;1.244168
9881.000000;1.243995
9880.000000;1.243570
9879.000000;1.242535
9878.000000;1.240718
9877.000000;1.238792
9876.000000;1.237929
9875.000000;1.238570
9874.000000;1.239803
9873.000000;1.240216
9872.000000;1.239252
9871.000000;1.237552
9870.000000;1.236122
9869.000000;1.235403
9868.000000;1.235068
9867.000000;1.234520
9866.000000;1.233527
9865.000000;1.232383
9864.000000;1.231511
9863.000000;1.231078
9862.000000;1.231044
9861.000000;1.231319
9860.000000;1.231658
9859.000000;1.231589
9858.000000;1.230835
9857.000000;1.229738
9856.000000;1.228949
9855.000000;1.228740
9854.000000;1.228822
9853.000000;1.228747
9852.000000;1.228243
9851.000000;1.227283
9850.000000;1.226170
9849.000000;1.225455
9848.000000;1.225399
9847.000000;1.225541
9846.000000;1.225162
9845.000000;1.224176
9844.000000;1.223215
9843.000000;1.222788
9842.000000;1.222733
9841.000000;1.222529
9840.000000;1.221847
9839.000000;1.220733
9838.000000;1.219516
9837.000000;1.218624
9836.000000;1.218228
9835.000000;1.218071
9834.000000;1.217824
9833.000000;1.217504
9832.000000;1.217279
9831.000000;1.217030
9830.000000;1.216504
9829.000000;1.215789
9828.000000;1.215158
9827.000000;1.214497
9826.000000;1.213432
9825.000000;1.212085
9824.000000;1.211144
9823.000000;1.211029
9822.000000;1.211429
9821.000000;1.211821
9820.000000;1.212003
9819.000000;1.211943
9818.000000;1.211539
9817.000000;1.210858
9816.000000;1.210243
9815.000000;1.209859
9814.000000;1.209391
9813.000000;1.208517
9812.000000;1.207461
9811.000000;1.206772
9810.000000;1.206673
9809.000000;1.206845
9808.000000;1.206748
9807.000000;1.206027
9806.000000;1.204753
9805.000000;1.203417
9804.000000;1.202574
9803.000000;1.202367
9802.000000;1.202472
9801.000000;1.202475
9800.000000;1.202159
9799.000000;1.201439
9798.000000;1.200334
9797.000000;1.199082
9796.000000;1.198049
9795.000000;1.197432
9794.000000;1.197210
9793.000000;1.197333
9792.000000;1.197676
9791.000000;1.197836
9790.000000;1.197383
9789.000000;1.196421
9788.000000;1.195570
9787.000000;1.195279
9786.000000;1.195436
9785.000000;1.195685
9784.000000;1.195766
9783.000000;1.195474
9782.000000;1.194727
9781.000000;1.193846
9780.000000;1.193331
9779.000000;1.193120
9778.000000;1.192522
9777.000000;1.191198
9776.000000;1.189794
9775.000000;1.189135
9774.000000;1.189133
9773.000000;1.189019
9772.000000;1.188484
9771.000000;1.188021
9770.000000;1.188076
9769.000000;1.188325
9768.000000;1.188039
9767.000000;1.186946
9766.000000;1.185533
9765.000000;1.184519
9764.000000;1.184150
9763.000000;1.184010
9762.000000;1.183534
9761.000000;1.182664
9760.000000;1.181902
9759.000000;1.181737
9758.000000;1.182179
9757.000000;1.182847
9756.000000;1.183268
9755.000000;1.183045
9754.000000;1.182062
9753.000000;1.180732
9752.000000;1.179806
9751.000000;1.179659
9750.000000;1.179875
9749.000000;1.179738
9748.000000;1.179016
9747.000000;1.178043
9746.000000;1.177151
9745.000000;1.176319
9744.000000;1.175383
9743.000000;1.174355
9742.000000;1.173467
9741.000000;1.172985
9740.000000;1.172985
9739.000000;1.173227
9738.000000;1.173275
9737.000000;1.172881
9736.000000;1.172217
9735.000000;1.171611
9734.000000;1.171089
9733.000000;1.170343
9732.000000;1.169166
9731.000000;1.167790
9730.000000;1.166704
9729.000000;1.166162
9728.000000;1.165898
9727.000000;1.165375
9726.000000;1.164382
9725.000000;1.163372
9724.000000;1.163085
9723.000000;1.163772
9722.000000;1.164829
9721.000000;1.165310
9720.000000;1.164784
9719.000000;1.163659
9718.000000;1.162697
9717.000000;1.162327
9716.000000;1.162389
9715.000000;1.162421
9714.000000;1.162112
9713.000000;1.161484
9712.000000;1.160729
9711.000000;1.159997
9710.000000;1.159368
9709.000000;1.158928
9708.000000;1.158762
9707.000000;1.158869
9706.000000;1.159125
9705.000000;1.159327
9704.000000;1.159244
9703.000000;1.158710
9702.000000;1.157734
9701.000000;1.156509
9700.000000;1.155260
9699.000000;1.154139
9698.000000;1.153249
9697.000000;1.152647
9696.000000;1.152265
9695.000000;1.151949
9694.000000;1.151636
9693.000000;1.151371
9692.000000;1.151085
9691.000000;1.150612
9690.000000;1.150088
9689.000000;1.150006
9688.000000;1.150532
9687.000000;1.150990
9686.000000;1.150507
9685.000000;1.149129
9684.000000;1.147795
9683.000000;1.147164
9682.000000;1.146954
9681.000000;1.146602
9680.000000;1.146105
9679.000000;1.145819
9678.000000;1.145758
9677.000000;1.145544
9676.000000;1.144964
9675.000000;1.144205
9674.000000;1.143517
9673.000000;1.142946
9672.000000;1.142456
9671.000000;1.142090
9670.000000;1.141889
9669.000000;1.141770
9668.000000;1.141580
9667.000000;1.141224
9666.000000;1.140705
9665.000000;1.140141
9664.000000;1.139763
9663.000000;1.139761
9662.000000;1.140004
9661.000000;1.139968
9660.000000;1.139133
9659.000000;1.137504
9658.000000;1.135624
9657.000000;1.134038
9656.000000;1.132878
9655.000000;1.132048
9654.000000;1.131581
9653.000000;1.131562
9652.000000;1.131776
9651.000000;1.131777
9650.000000;1.131388
9649.000000;1.130910
9648.000000;1.130705
9647.000000;1.130780
9646.000000;1.130914
9645.000000;1.130956
9644.000000;1.130792
9643.000000;1.130217
9642.000000;1.129162
9641.000000;1.127970
9640.000000;1.127171
9639.000000;1.126979
9638.000000;1.127163
9637.000000;1.127387
9636.000000;1.127503
9635.000000;1.127484
9634.000000;1.127255
9633.000000;1.126733
9632.000000;1.125951
9631.000000;1.125069
9630.000000;1.124283
9629.000000;1.123697
9628.000000;1.123259
9627.000000;1.122836
9626.000000;1.122364
9625.000000;1.121850
9624.000000;1.121237
9623.000000;1.120445
9622.000000;1.119563
9621.000000;1.118833
9620.000000;1.118336
9619.000000;1.117897
9618.000000;1.117426
9617.000000;1.117130
9616.000000;1.117212
9615.000000;1.117547
9614.000000;1.117861
9613.000000;1.118078
9612.000000;1.118235
9611.000000;1.118186
9610.000000;1.117662
9609.000000;1.116589
9608.000000;1.115181
9607.000000;1.113786
9606.000000;1.112759
9605.000000;1.112318
9604.000000;1.112311
9603.000000;1.112304
9602.000000;1.112109
9601.000000;1.112065
9600.000000;1.112505
9599.000000;1.113131
9598.000000;1.113275
9597.000000;1.112721
9596.000000;1.111876
9595.000000;1.111130
9594.000000;1.110421
9593.000000;1.109499
9592.000000;1.108341
9591.000000;1.107190
9590.000000;1.106325
9589.000000;1.105789
9588.000000;1.105265
9587.000000;1.104339
9586.000000;1.103076
9585.000000;1.102153
9584.000000;1.102094
9583.000000;1.102545
9582.000000;1.102676
9581.000000;1.102224
9580.000000;1.101674
9579.000000;1.101421
9578.000000;1.101285
9577.000000;1.100968
9576.000000;1.100502
9575.000000;1.099974
9574.000000;1.099220
9573.000000;1.098146
9572.000000;1.097140
9571.000000;1.096773
9570.000000;1.097146
9569.000000;1.097754
9568.000000;1.097997
9567.000000;1.097662
9566.000000;1.096940
9565.000000;1.096088
9564.000000;1.095161
9563.000000;1.094105
9562.000000;1.093090
9561.000000;1.092533
9560.000000;1.092621
9559.000000;1.092933
9558.000000;1.092821
9557.000000;1.092147
9556.000000;1.091371
9555.000000;1.090931
9554.000000;1.090855
9553.000000;1.091007
9552.000000;1.091331
9551.000000;1.091673
9550.000000;1.091686
9549.000000;1.091194
9548.000000;1.090493
9547.000000;1.090042
9546.000000;1.089941
9545.000000;1.089868
9544.000000;1.089439
9543.000000;1.088513
9542.000000;1.087250
9541.000000;1.086020
9540.000000;1.085213
9539.000000;1.085019
9538.000000;1.085348
9537.000000;1.085929
9536.000000;1.086402
9535.000000;1.086382
9534.000000;1.085671
9533.000000;1.084528
9532.000000;1.083550
9531.000000;1.083132
9530.000000;1.083077
9529.000000;1.082828
9528.000000;1.082054
9527.000000;1.081004
9526.000000;1.080329
9525.000000;1.080497
9524.000000;1.081295
9523.000000;1.081906
9522.000000;1.081647
9521.000000;1.080649
9520.000000;1.079650
9519.000000;1.079096
9518.000000;1.078701
9517.000000;1.077965
9516.000000;1.076904
9515.000000;1.076046
9514.000000;1.075802
9513.000000;1.076015
9512.000000;1.076130
9511.000000;1.075719
9510.000000;1.074843
9509.000000;1.073961
9508.000000;1.073470
9507.000000;1.073323
9506.000000;1.073118
9505.000000;1.072586
9504.000000;1.071903
9503.000000;1.071467
9502.000000;1.071415
9501.000000;1.071422
9500.000000;1.070997
9499.000000;1.069995
9498.000000;1.068803
9497.000000;1.067962
9496.000000;1.067633
9495.000000;1.067508
9494.000000;1.067262
9493.000000;1.066907
9492.000000;1.066629
9491.000000;1.066419
9490.000000;1.066096
9489.000000;1.065597
9488.000000;1.065039
9487.000000;1.064495
9486.000000;1.063926
9485.000000;1.063350
9484.000000;1.062924
9483.000000;1.062784
9482.000000;1.062885
9481.000000;1.063036
9480.000000;1.063048
9479.000000;1.062864
9478.000000;1.062613
9477.000000;1.062480
9476.000000;1.062422
9475.000000;1.062086
9474.000000;1.061170
9473.000000;1.059826
9472.000000;1.058561
9471.000000;1.057765
9470.000000;1.057484
9469.000000;1.057583
9468.000000;1.057919
9467.000000;1.058279
9466.000000;1.058337
9465.000000;1.057827
9464.000000;1.056780
9463.000000;1.055545
9462.000000;1.054585
9461.000000;1.054151
9460.000000;1.054056
9459.000000;1.053818
9458.000000;1.053115
9457.000000;1.052112
9456.000000;1.051242
9455.000000;1.050750
9454.000000;1.050511
9453.000000;1.050258
9452.000000;1.049879
9451.000000;1.049532
9450.000000;1.049530
9449.000000;1.050026
9448.000000;1.050748
9447.000000;1.051132
9446.000000;1.050814
9445.000000;1.049923
9444.000000;1.048865
9443.000000;1.047998
9442.000000;1.047590
9441.000000;1.047781
9440.000000;1.048307
9439.000000;1.048471
9438.000000;1.047762
9437.000000;1.046480
9436.000000;1.045464
9435.000000;1.045220
9434.000000;1.045562
9433.000000;1.046000
9432.000000;1.046178
9431.000000;1.045912
9430.000000;1.045147
9429.000000;1.044054
9428.000000;1.043006
9427.000000;1.042322
9426.000000;1.042058
9425.000000;1.042046
9424.000000;1.042035
9423.000000;1.041858
9422.000000;1.041541
9421.000000;1.041223
9420.000000;1.040880
9419.000000;1.040279
9418.000000;1.039360
9417.000000;1.038478
9416.000000;1.038036
9415.000000;1.037967
9414.000000;1.037860
9413.000000;1.037479
9412.000000;1.036926
9411.000000;1.036364
9410.000000;1.035909
9409.000000;1.035761
9408.000000;1.036045
9407.000000;1.036485
9406.000000;1.036563
9405.000000;1.036104
9404.000000;1.035412
9403.000000;1.034786
9402.000000;1.034210
9401.000000;1.033627
9400.000000;1.033195
9399.000000;1.033037
9398.000000;1.032979
9397.000000;1.032729
9396.000000;1.032201
9395.000000;1.031515
9394.000000;1.030809
9393.000000;1.030214
9392.000000;1.029903
9391.000000;1.030002
9390.000000;1.030437
9389.000000;1.030889
9388.000000;1.030896
9387.000000;1.030103
9386.000000;1.028603
9385.000000;1.027011
9384.000000;1.026012
9383.000000;1.025775
9382.000000;1.025921
9381.000000;1.025999
9380.000000;1.025821
9379.000000;1.025386
9378.000000;1.024751
9377.000000;1.024051
9376.000000;1.023451
9375.000000;1.022993
9374.000000;1.022623
9373.000000;1.022387
9372.000000;1.022418
9371.000000;1.022687
9370.000000;1.022942
9369.000000;1.022943
9368.000000;1.022596
9367.000000;1.021907
9366.000000;1.021015
9365.000000;1.020258
9364.000000;1.019936
9363.000000;1.019954
9362.000000;1.019930
9361.000000;1.019692
9360.000000;1.019374
9359.000000;1.019012
9358.000000;1.018421
9357.000000;1.017628
9356.000000;1.017056
9355.000000;1.017011
9354.000000;1.017254
9353.000000;1.017300
9352.000000;1.016965
9351.000000;1.016369
9350.000000;1.015661
9349.000000;1.015029
9348.000000;1.014776
9347.000000;1.015026
9346.000000;1.015402
9345.000000;1.015338
9344.000000;1.014715
9343.000000;1.013957
9342.000000;1.013476
9341.000000;1.013244
9340.000000;1.012965
9339.000000;1.012439
9338.000000;1.011700
9337.000000;1.010917
9336.000000;1.010249
9335.000000;1.009758
9334.000000;1.009407
9333.000000;1.009151
9332.000000;1.008977
9331.000000;1.008851
9330.000000;1.008689
9329.000000;1.008474
9328.000000;1.008302
9327.000000;1.008239
9326.000000;1.008180
9325.000000;1.007979
9324.000000;1.007671
9323.000000;1.007451
9322.000000;1.007441
9321.000000;1.007566
9320.000000;1.007642
9319.000000;1.007504
9318.000000;1.007102
9317.000000;1.006546
9316.000000;1.006056
9315.000000;1.005728
9314.000000;1.005391
9313.000000;1.004776
9312.000000;1.003837
9311.000000;1.002823
9310.000000;1.002052
9309.000000;1.001707
9308.000000;1.001837
9307.000000;1.002362
9306.000000;1.003012
9305.000000;1.003360
9304.000000;1.003087
9303.000000;1.002206
9302.000000;1.000994
9301.000000;0.999742
9300.000000;0.998668
9299.000000;0.997965
9298.000000;0.997759
9297.000000;0.997928
9296.000000;0.998102
9295.000000;0.997997
9294.000000;0.997721
9293.000000;0.997635
9292.000000;0.997898
9291.000000;0.998254
9290.000000;0.998286
9289.000000;0.997813
9288.000000;0.996996
9287.000000;0.996162
9286.000000;0.995575
9285.000000;0.995293
9284.000000;0.995157
9283.000000;0.994961
9282.000000;0.994651
9281.000000;0.994334
9280.000000;0.994082
9279.000000;0.993853
9278.000000;0.993633
9277.000000;0.993534
9276.000000;0.993657
9275.000000;0.993908
9274.000000;0.994068
9273.000000;0.994006
9272.000000;0.993751
9271.000000;0.993374
9270.000000;0.992894
9269.000000;0.992293
9268.000000;0.991576
9267.000000;0.990820
9266.000000;0.990163
9265.000000;0.989710
9264.000000;0.989408
9263.000000;0.989109
9262.000000;0.988780
9261.000000;0.988569
9260.000000;0.988599
9259.000000;0.988769
9258.000000;0.988856
9257.000000;0.988733
9256.000000;0.988407
9255.000000;0.987908
9254.000000;0.987253
9253.000000;0.986476
9252.000000;0.985659
9251.000000;0.984952
9250.000000;0.984589
9249.000000;0.984732
9248.000000;0.985239
9247.000000;0.985681
9246.000000;0.985700
9245.000000;0.985272
9244.000000;0.984562
9243.000000;0.983691
9242.000000;0.982775
9241.000000;0.982031
9240.000000;0.981636
9239.000000;0.981528
9238.000000;0.981481
9237.000000;0.981350
9236.000000;0.981125
9235.000000;0.980854
9234.000000;0.980645
9233.000000;0.980634
9232.000000;0.980779
9231.000000;0.980755
9230.000000;0.980237
9229.000000;0.979276
9228.000000;0.978256
9227.000000;0.977529
9226.000000;0.977226
9225.000000;0.977320
9224.000000;0.977681
9223.000000;0.978065
9222.000000;0.978242
9221.000000;0.978181
9220.000000;0.978015
9219.000000;0.977834
9218.000000;0.977607
9217.000000;0.977251
9216.000000;0.976714
9215.000000;0.976023
9214.000000;0.975346
9213.000000;0.974890
9212.000000;0.974642
9211.000000;0.974344
9210.000000;0.973878
9209.000000;0.973556
9208.000000;0.973761
9207.000000;0.974389
9206.000000;0.974896
9205.000000;0.974897
9204.000000;0.974487
9203.000000;0.973955
9202.000000;0.973420
9201.000000;0.972832
9200.000000;0.972151
9199.000000;0.971421
9198.000000;0.970760
9197.000000;0.970323
9196.000000;0.970159
9195.000000;0.970131
9194.000000;0.970089
9193.000000;0.970108
9192.000000;0.970349
9191.000000;0.970683
9190.000000;0.970654
9189.000000;0.969980
9188.000000;0.968957
9187.000000;0.968230
9186.000000;0.968141
9185.000000;0.968364
9184.000000;0.968187
9183.000000;0.967217
9182.000000;0.965807
9181.000000;0.964757
9180.000000;0.964589
9179.000000;0.965184
9178.000000;0.966057
9177.000000;0.966750
9176.000000;0.966899
9175.000000;0.966241
9174.000000;0.964897
9173.000000;0.963518
9172.000000;0.962802
9171.000000;0.962845
9170.000000;0.963155
9169.000000;0.963259
9168.000000;0.963093
9167.000000;0.962811
9166.000000;0.962523
9165.000000;0.962298
9164.000000;0.962209
9163.000000;0.962254
9162.000000;0.962337
9161.000000;0.962345
9160.000000;0.962159
9159.000000;0.961646
9158.000000;0.960843
9157.000000;0.960114
9156.000000;0.959867
9155.000000;0.960067
9154.000000;0.960246
9153.000000;0.960072
9152.000000;0.959678
9151.000000;0.959318
9150.000000;0.958955
9149.000000;0.958423
9148.000000;0.957847
9147.000000;0.957610
9146.000000;0.957872
9145.000000;0.958331
9144.000000;0.958533
9143.000000;0.958317
9142.000000;0.957863
9141.000000;0.957354
9140.000000;0.956778
9139.000000;0.956137
9138.000000;0.955674
9137.000000;0.955675
9136.000000;0.956044
9135.000000;0.956314
9134.000000;0.956160
9133.000000;0.955693
9132.000000;0.955156
9131.000000;0.954563
9130.000000;0.953846
9129.000000;0.953143
9128.000000;0.952683
9127.000000;0.952511
9126.000000;0.952548
9125.000000;0.952801
9124.000000;0.953204
9123.000000;0.953395
9122.000000;0.953014
9121.000000;0.952230
9120.000000;0.951590
9119.000000;0.951296
9118.000000;0.950970
9117.000000;0.950243
9116.000000;0.949276
9115.000000;0.948508
9114.000000;0.948117
9113.000000;0.947954
9112.000000;0.947860
9111.000000;0.947819
9110.000000;0.947858
9109.000000;0.947971
9108.000000;0.948133
9107.000000;0.948296
9106.000000;0.948367
9105.000000;0.948255
9104.000000;0.947955
9103.000000;0.947582
9102.000000;0.947314
9101.000000;0.947254
9100.000000;0.947328
9099.000000;0.947378
9098.000000;0.947353
9097.000000;0.947322
9096.000000;0.947256
9095.000000;0.947007
9094.000000;0.946576
9093.000000;0.946207
9092.000000;0.946038
9091.000000;0.945856
9090.000000;0.945445
9089.000000;0.944988
9088.000000;0.944800
9087.000000;0.944797
9086.000000;0.944602
9085.000000;0.944138
9084.000000;0.943733
9083.000000;0.943614
9082.000000;0.943646
9081.000000;0.943653
9080.000000;0.943667
9079.000000;0.943720
9078.000000;0.943682
9077.000000;0.943440
9076.000000;0.943028
9075.000000;0.942492
9074.000000;0.941852
9073.000000;0.941291
9072.000000;0.941099
9071.000000;0.941294
9070.000000;0.941529
9069.000000;0.941521
9068.000000;0.941361
9067.000000;0.941274
9066.000000;0.941265
9065.000000;0.941187
9064.000000;0.940931
9063.000000;0.940425
9062.000000;0.939640
9061.000000;0.938768
9060.000000;0.938191
9059.000000;0.938058
9058.000000;0.938090
9057.000000;0.937946
9056.000000;0.937619
9055.000000;0.937283
9054.000000;0.936949
9053.000000;0.936565
