Criado como novo conjunto de dados;"e2410_daniel_v2.spp","12242.4 Secs"
cm-1;Abs
10000.000000;0.395894
9999.000000;0.395076
9998.000000;0.394260
9997.000000;0.393443
9996.000000;0.392632
9995.000000;0.391815
9994.000000;0.391023
9993.000000;0.390364
9992.000000;0.389880
9991.000000;0.389587
9990.000000;0.389420
9989.000000;0.389233
9988.000000;0.388877
9987.000000;0.388348
9986.000000;0.387783
9985.000000;0.387246
9984.000000;0.386630
9983.000000;0.385877
9982.000000;0.385166
9981.000000;0.384721
9980.000000;0.384498
9979.000000;0.384245
9978.000000;0.383820
9977.000000;0.383289
9976.000000;0.382742
9975.000000;0.382205
9974.000000;0.381717
9973.000000;0.381311
9972.000000;0.380899
9971.000000;0.380333
9970.000000;0.379600
9969.000000;0.378843
9968.000000;0.378195
9967.000000;0.377712
9966.000000;0.377412
9965.000000;0.377218
9964.000000;0.376929
9963.000000;0.376413
9962.000000;0.375809
9961.000000;0.375362
9960.000000;0.375092
9959.000000;0.374803
9958.000000;0.374367
9957.000000;0.373801
9956.000000;0.373113
9955.000000;0.372317
9954.000000;0.371602
9953.000000;0.371219
9952.000000;0.371139
9951.000000;0.371044
9950.000000;0.370686
9949.000000;0.370089
9948.000000;0.369366
9947.000000;0.368590
9946.000000;0.367871
9945.000000;0.367351
9944.000000;0.367015
9943.000000;0.366683
9942.000000;0.366239
9941.000000;0.365729
9940.000000;0.365184
9939.000000;0.364550
9938.000000;0.363860
9937.000000;0.363296
9936.000000;0.362960
9935.000000;0.362734
9934.000000;0.362432
9933.000000;0.361982
9932.000000;0.361425
9931.000000;0.360853
9930.000000;0.360386
9929.000000;0.360057
9928.000000;0.359716
9927.000000;0.359194
9926.000000;0.358555
9925.000000;0.358027
9924.000000;0.357652
9923.000000;0.357219
9922.000000;0.356573
9921.000000;0.355821
9920.000000;0.355149
9919.000000;0.354628
9918.000000;0.354253
9917.000000;0.353991
9916.000000;0.353727
9915.000000;0.353311
9914.000000;0.352757
9913.000000;0.352237
9912.000000;0.351818
9911.000000;0.351361
9910.000000;0.350765
9909.000000;0.350146
9908.000000;0.349682
9907.000000;0.349406
9906.000000;0.349220
9905.000000;0.348997
9904.000000;0.348596
9903.000000;0.347929
9902.000000;0.347097
9901.000000;0.346354
9900.000000;0.345849
9899.000000;0.345514
9898.000000;0.345220
9897.000000;0.344927
9896.000000;0.344612
9895.000000;0.344197
9894.000000;0.343652
9893.000000;0.343063
9892.000000;0.342532
9891.000000;0.342062
9890.000000;0.341603
9889.000000;0.341127
9888.000000;0.340624
9887.000000;0.340098
9886.000000;0.339595
9885.000000;0.339162
9884.000000;0.338766
9883.000000;0.338345
9882.000000;0.337899
9881.000000;0.337443
9880.000000;0.336911
9879.000000;0.336232
9878.000000;0.335476
9877.000000;0.334785
9876.000000;0.334192
9875.000000;0.333651
9874.000000;0.333211
9873.000000;0.332948
9872.000000;0.332739
9871.000000;0.332316
9870.000000;0.331609
9869.000000;0.330848
9868.000000;0.330285
9867.000000;0.329951
9866.000000;0.329730
9865.000000;0.329508
9864.000000;0.329194
9863.000000;0.328749
9862.000000;0.328257
9861.000000;0.327849
9860.000000;0.327516
9859.000000;0.327121
9858.000000;0.326589
9857.000000;0.325972
9856.000000;0.325340
9855.000000;0.324731
9854.000000;0.324217
9853.000000;0.323851
9852.000000;0.323555
9851.000000;0.323201
9850.000000;0.322798
9849.000000;0.322415
9848.000000;0.321989
9847.000000;0.321419
9846.000000;0.320831
9845.000000;0.320453
9844.000000;0.320225
9843.000000;0.319828
9842.000000;0.319174
9841.000000;0.318570
9840.000000;0.318248
9839.000000;0.318003
9838.000000;0.317521
9837.000000;0.316837
9836.000000;0.316227
9835.000000;0.315793
9834.000000;0.315364
9833.000000;0.314779
9832.000000;0.314068
9831.000000;0.313376
9830.000000;0.312821
9829.000000;0.312404
9828.000000;0.311991
9827.000000;0.311420
9826.000000;0.310693
9825.000000;0.310002
9824.000000;0.309536
9823.000000;0.309304
9822.000000;0.309162
9821.000000;0.308938
9820.000000;0.308530
9819.000000;0.307974
9818.000000;0.307455
9817.000000;0.307149
9816.000000;0.307033
9815.000000;0.306904
9814.000000;0.306589
9813.000000;0.306042
9812.000000;0.305294
9811.000000;0.304448
9810.000000;0.303717
9809.000000;0.303280
9808.000000;0.303074
9807.000000;0.302864
9806.000000;0.302535
9805.000000;0.302153
9804.000000;0.301748
9803.000000;0.301229
9802.000000;0.300578
9801.000000;0.299948
9800.000000;0.299465
9799.000000;0.299061
9798.000000;0.298588
9797.000000;0.297981
9796.000000;0.297265
9795.000000;0.296527
9794.000000;0.295909
9793.000000;0.295511
9792.000000;0.295259
9791.000000;0.294984
9790.000000;0.294648
9789.000000;0.294349
9788.000000;0.294085
9787.000000;0.293709
9786.000000;0.293160
9785.000000;0.292566
9784.000000;0.292039
9783.000000;0.291531
9782.000000;0.290986
9781.000000;0.290479
9780.000000;0.290083
9779.000000;0.289738
9778.000000;0.289345
9777.000000;0.288898
9776.000000;0.288442
9775.000000;0.287992
9774.000000;0.287567
9773.000000;0.287210
9772.000000;0.286903
9771.000000;0.286568
9770.000000;0.286195
9769.000000;0.285856
9768.000000;0.285548
9767.000000;0.285156
9766.000000;0.284627
9765.000000;0.284072
9764.000000;0.283597
9763.000000;0.283175
9762.000000;0.282741
9761.000000;0.282321
9760.000000;0.281952
9759.000000;0.281582
9758.000000;0.281101
9757.000000;0.280440
9756.000000;0.279612
9755.000000;0.278729
9754.000000;0.278002
9753.000000;0.277602
9752.000000;0.277458
9751.000000;0.277310
9750.000000;0.276992
9749.000000;0.276568
9748.000000;0.276151
9747.000000;0.275734
9746.000000;0.275276
9745.000000;0.274838
9744.000000;0.274504
9743.000000;0.274252
9742.000000;0.273970
9741.000000;0.273552
9740.000000;0.272950
9739.000000;0.272215
9738.000000;0.271501
9737.000000;0.270948
9736.000000;0.270517
9735.000000;0.270029
9734.000000;0.269406
9733.000000;0.268768
9732.000000;0.268288
9731.000000;0.268024
9730.000000;0.267915
9729.000000;0.267842
9728.000000;0.267651
9727.000000;0.267247
9726.000000;0.266696
9725.000000;0.266148
9724.000000;0.265652
9723.000000;0.265144
9722.000000;0.264608
9721.000000;0.264122
9720.000000;0.263703
9719.000000;0.263255
9718.000000;0.262719
9717.000000;0.262149
9716.000000;0.261602
9715.000000;0.261080
9714.000000;0.260620
9713.000000;0.260310
9712.000000;0.260143
9711.000000;0.259984
9710.000000;0.259728
9709.000000;0.259395
9708.000000;0.259026
9707.000000;0.258599
9706.000000;0.258121
9705.000000;0.257658
9704.000000;0.257216
9703.000000;0.256705
9702.000000;0.256099
9701.000000;0.255521
9700.000000;0.255083
9699.000000;0.254744
9698.000000;0.254393
9697.000000;0.253997
9696.000000;0.253585
9695.000000;0.253167
9694.000000;0.252738
9693.000000;0.252318
9692.000000;0.251906
9691.000000;0.251468
9690.000000;0.250988
9689.000000;0.250507
9688.000000;0.250052
9687.000000;0.249596
9686.000000;0.249120
9685.000000;0.248659
9684.000000;0.248258
9683.000000;0.247911
9682.000000;0.247578
9681.000000;0.247209
9680.000000;0.246755
9679.000000;0.246205
9678.000000;0.245623
9677.000000;0.245081
9676.000000;0.244595
9675.000000;0.244162
9674.000000;0.243842
9673.000000;0.243687
9672.000000;0.243612
9671.000000;0.243426
9670.000000;0.243017
9669.000000;0.242434
9668.000000;0.241794
9667.000000;0.241197
9666.000000;0.240705
9665.000000;0.240315
9664.000000;0.239936
9663.000000;0.239490
9662.000000;0.239005
9661.000000;0.238551
9660.000000;0.238131
9659.000000;0.237717
9658.000000;0.237336
9657.000000;0.236990
9656.000000;0.236588
9655.000000;0.236056
9654.000000;0.235488
9653.000000;0.235035
9652.000000;0.234694
9651.000000;0.234372
9650.000000;0.234081
9649.000000;0.233885
9648.000000;0.233699
9647.000000;0.233340
9646.000000;0.232788
9645.000000;0.232202
9644.000000;0.231683
9643.000000;0.231209
9642.000000;0.230783
9641.000000;0.230459
9640.000000;0.230183
9639.000000;0.229818
9638.000000;0.229350
9637.000000;0.228896
9636.000000;0.228481
9635.000000;0.228003
9634.000000;0.227457
9633.000000;0.226975
9632.000000;0.226577
9631.000000;0.226099
9630.000000;0.225458
9629.000000;0.224808
9628.000000;0.224336
9627.000000;0.224043
9626.000000;0.223829
9625.000000;0.223643
9624.000000;0.223455
9623.000000;0.223217
9622.000000;0.222926
9621.000000;0.222634
9620.000000;0.222319
9619.000000;0.221878
9618.000000;0.221283
9617.000000;0.220636
9616.000000;0.220018
9615.000000;0.219436
9614.000000;0.218946
9613.000000;0.218654
9612.000000;0.218493
9611.000000;0.218206
9610.000000;0.217654
9609.000000;0.217018
9608.000000;0.216560
9607.000000;0.216305
9606.000000;0.216074
9605.000000;0.215750
9604.000000;0.215358
9603.000000;0.214971
9602.000000;0.214618
9601.000000;0.214276
9600.000000;0.213873
9599.000000;0.213371
9598.000000;0.212845
9597.000000;0.212425
9596.000000;0.212122
9595.000000;0.211810
9594.000000;0.211405
9593.000000;0.210953
9592.000000;0.210512
9591.000000;0.210077
9590.000000;0.209671
9589.000000;0.209380
9588.000000;0.209213
9587.000000;0.209023
9586.000000;0.208659
9585.000000;0.208128
9584.000000;0.207531
9583.000000;0.206939
9582.000000;0.206376
9581.000000;0.205863
9580.000000;0.205411
9579.000000;0.205027
9578.000000;0.204746
9577.000000;0.204590
9576.000000;0.204478
9575.000000;0.204277
9574.000000;0.203945
9573.000000;0.203556
9572.000000;0.203179
9571.000000;0.202823
9570.000000;0.202490
9569.000000;0.202170
9568.000000;0.201766
9567.000000;0.201192
9566.000000;0.200541
9565.000000;0.200020
9564.000000;0.199668
9563.000000;0.199305
9562.000000;0.198791
9561.000000;0.198209
9560.000000;0.197713
9559.000000;0.197346
9558.000000;0.197069
9557.000000;0.196843
9556.000000;0.196599
9555.000000;0.196248
9554.000000;0.195805
9553.000000;0.195409
9552.000000;0.195137
9551.000000;0.194899
9550.000000;0.194568
9549.000000;0.194134
9548.000000;0.193661
9547.000000;0.193195
9546.000000;0.192760
9545.000000;0.192373
9544.000000;0.191996
9543.000000;0.191575
9542.000000;0.191139
9541.000000;0.190764
9540.000000;0.190433
9539.000000;0.190038
9538.000000;0.189568
9537.000000;0.189140
9536.000000;0.188800
9535.000000;0.188460
9534.000000;0.188084
9533.000000;0.187781
9532.000000;0.187603
9531.000000;0.187411
9530.000000;0.187058
9529.000000;0.186605
9528.000000;0.186213
9527.000000;0.185910
9526.000000;0.185614
9525.000000;0.185299
9524.000000;0.185007
9523.000000;0.184742
9522.000000;0.184445
9521.000000;0.184075
9520.000000;0.183619
9519.000000;0.183082
9518.000000;0.182513
9517.000000;0.182007
9516.000000;0.181604
9515.000000;0.181243
9514.000000;0.180866
9513.000000;0.180511
9512.000000;0.180249
9511.000000;0.180062
9510.000000;0.179862
9509.000000;0.179580
9508.000000;0.179196
9507.000000;0.178709
9506.000000;0.178140
9505.000000;0.177550
9504.000000;0.177011
9503.000000;0.176581
9502.000000;0.176302
9501.000000;0.176165
9500.000000;0.176056
9499.000000;0.175801
9498.000000;0.175331
9497.000000;0.174755
9496.000000;0.174245
9495.000000;0.173877
9494.000000;0.173589
9493.000000;0.173276
9492.000000;0.172881
9491.000000;0.172448
9490.000000;0.172076
9489.000000;0.171791
9488.000000;0.171497
9487.000000;0.171093
9486.000000;0.170611
9485.000000;0.170178
9484.000000;0.169862
9483.000000;0.169627
9482.000000;0.169407
9481.000000;0.169141
9480.000000;0.168756
9479.000000;0.168217
9478.000000;0.167600
9477.000000;0.167044
9476.000000;0.166635
9475.000000;0.166377
9474.000000;0.166237
9473.000000;0.166126
9472.000000;0.165904
9471.000000;0.165503
9470.000000;0.165033
9469.000000;0.164644
9468.000000;0.164334
9467.000000;0.164010
9466.000000;0.163678
9465.000000;0.163406
9464.000000;0.163140
9463.000000;0.162744
9462.000000;0.162237
9461.000000;0.161807
9460.000000;0.161554
9459.000000;0.161384
9458.000000;0.161196
9457.000000;0.161010
9456.000000;0.160823
9455.000000;0.160515
9454.000000;0.159993
9453.000000;0.159344
9452.000000;0.158746
9451.000000;0.158303
9450.000000;0.158021
9449.000000;0.157846
9448.000000;0.157666
9447.000000;0.157371
9446.000000;0.156975
9445.000000;0.156605
9444.000000;0.156340
9443.000000;0.156129
9442.000000;0.155910
9441.000000;0.155689
9440.000000;0.155466
9439.000000;0.155172
9438.000000;0.154769
9437.000000;0.154322
9436.000000;0.153932
9435.000000;0.153636
9434.000000;0.153401
9433.000000;0.153159
9432.000000;0.152832
9431.000000;0.152385
9430.000000;0.151875
9429.000000;0.151396
9428.000000;0.150967
9427.000000;0.150554
9426.000000;0.150170
9425.000000;0.149863
9424.000000;0.149622
9423.000000;0.149404
9422.000000;0.149223
9421.000000;0.149097
9420.000000;0.148931
9419.000000;0.148598
9418.000000;0.148144
9417.000000;0.147738
9416.000000;0.147418
9415.000000;0.147049
9414.000000;0.146558
9413.000000;0.146055
9412.000000;0.145653
9411.000000;0.145325
9410.000000;0.145007
9409.000000;0.144710
9408.000000;0.144443
9407.000000;0.144146
9406.000000;0.143784
9405.000000;0.143407
9404.000000;0.143065
9403.000000;0.142746
9402.000000;0.142458
9401.000000;0.142241
9400.000000;0.142054
9399.000000;0.141778
9398.000000;0.141392
9397.000000;0.141030
9396.000000;0.140789
9395.000000;0.140589
9394.000000;0.140294
9393.000000;0.139862
9392.000000;0.139332
9391.000000;0.138748
9390.000000;0.138202
9389.000000;0.137822
9388.000000;0.137634
9387.000000;0.137501
9386.000000;0.137266
9385.000000;0.136899
9384.000000;0.136455
9383.000000;0.135998
9382.000000;0.135614
9381.000000;0.135396
9380.000000;0.135315
9379.000000;0.135192
9378.000000;0.134878
9377.000000;0.134417
9376.000000;0.133964
9375.000000;0.133601
9374.000000;0.133311
9373.000000;0.133067
9372.000000;0.132861
9371.000000;0.132682
9370.000000;0.132499
9369.000000;0.132273
9368.000000;0.131951
9367.000000;0.131528
9366.000000;0.131089
9365.000000;0.130728
9364.000000;0.130422
9363.000000;0.130075
9362.000000;0.129693
9361.000000;0.129402
9360.000000;0.129254
9359.000000;0.129143
9358.000000;0.128946
9357.000000;0.128654
9356.000000;0.128307
9355.000000;0.127922
9354.000000;0.127530
9353.000000;0.127200
9352.000000;0.126928
9351.000000;0.126601
9350.000000;0.126157
9349.000000;0.125717
9348.000000;0.125457
9347.000000;0.125397
9346.000000;0.125375
9345.000000;0.125225
9344.000000;0.124921
9343.000000;0.124558
9342.000000;0.124236
9341.000000;0.123942
9340.000000;0.123570
9339.000000;0.123082
9338.000000;0.122610
9337.000000;0.122316
9336.000000;0.122178
9335.000000;0.122011
9334.000000;0.121714
9333.000000;0.121367
9332.000000;0.121087
9331.000000;0.120879
9330.000000;0.120691
9329.000000;0.120486
9328.000000;0.120228
9327.000000;0.119874
9326.000000;0.119448
9325.000000;0.119041
9324.000000;0.118702
9323.000000;0.118402
9322.000000;0.118126
9321.000000;0.117909
9320.000000;0.117746
9319.000000;0.117559
9318.000000;0.117309
9317.000000;0.117058
9316.000000;0.116856
9315.000000;0.116657
9314.000000;0.116381
9313.000000;0.116005
9312.000000;0.115556
9311.000000;0.115087
9310.000000;0.114675
9309.000000;0.114380
9308.000000;0.114178
9307.000000;0.114004
9306.000000;0.113862
9305.000000;0.113794
9304.000000;0.113724
9303.000000;0.113469
9302.000000;0.112959
9301.000000;0.112353
9300.000000;0.111875
9299.000000;0.111594
9298.000000;0.111408
9297.000000;0.111172
9296.000000;0.110796
9295.000000;0.110297
9294.000000;0.109815
9293.000000;0.109495
9292.000000;0.109326
9291.000000;0.109167
9290.000000;0.108932
9289.000000;0.108674
9288.000000;0.108458
9287.000000;0.108271
9286.000000;0.108093
9285.000000;0.107942
9284.000000;0.107796
9283.000000;0.107562
9282.000000;0.107207
9281.000000;0.106828
9280.000000;0.106527
9279.000000;0.106283
9278.000000;0.106009
9277.000000;0.105675
9276.000000;0.105334
9275.000000;0.105056
9274.000000;0.104886
9273.000000;0.104786
9272.000000;0.104614
9271.000000;0.104236
9270.000000;0.103695
9269.000000;0.103191
9268.000000;0.102862
9267.000000;0.102664
9266.000000;0.102481
9265.000000;0.102272
9264.000000;0.102052
9263.000000;0.101830
9262.000000;0.101614
9261.000000;0.101404
9260.000000;0.101160
9259.000000;0.100850
9258.000000;0.100550
9257.000000;0.100406
9256.000000;0.100439
9255.000000;0.100487
9254.000000;0.100384
9253.000000;0.100110
9252.000000;0.099743
9251.000000;0.099347
9250.000000;0.098978
9249.000000;0.098699
9248.000000;0.098516
9247.000000;0.098359
9246.000000;0.098178
9245.000000;0.097976
9244.000000;0.097724
9243.000000;0.097334
9242.000000;0.096790
9241.000000;0.096224
9240.000000;0.095803
9239.000000;0.095575
9238.000000;0.095460
9237.000000;0.095324
9236.000000;0.095044
9235.000000;0.094597
9234.000000;0.094120
9233.000000;0.093793
9232.000000;0.093626
9231.000000;0.093465
9230.000000;0.093228
9229.000000;0.093015
9228.000000;0.092912
9227.000000;0.092821
9226.000000;0.092596
9225.000000;0.092244
9224.000000;0.091882
9223.000000;0.091555
9222.000000;0.091226
9221.000000;0.090900
9220.000000;0.090625
9219.000000;0.090402
9218.000000;0.090194
9217.000000;0.089999
9216.000000;0.089842
9215.000000;0.089704
9214.000000;0.089544
9213.000000;0.089363
9212.000000;0.089194
9211.000000;0.089022
9210.000000;0.088775
9209.000000;0.088408
9208.000000;0.087954
9207.000000;0.087510
9206.000000;0.087191
9205.000000;0.087060
9204.000000;0.087077
9203.000000;0.087118
9202.000000;0.087060
9201.000000;0.086859
9200.000000;0.086535
9199.000000;0.086136
9198.000000;0.085733
9197.000000;0.085395
9196.000000;0.085148
9195.000000;0.084953
9194.000000;0.084759
9193.000000;0.084527
9192.000000;0.084242
9191.000000;0.083934
9190.000000;0.083683
9189.000000;0.083542
9188.000000;0.083459
9187.000000;0.083329
9186.000000;0.083118
9185.000000;0.082885
9184.000000;0.082686
9183.000000;0.082507
9182.000000;0.082318
9181.000000;0.082115
9180.000000;0.081904
9179.000000;0.081696
9178.000000;0.081512
9177.000000;0.081335
9176.000000;0.081086
9175.000000;0.080714
9174.000000;0.080291
9173.000000;0.079946
9172.000000;0.079691
9171.000000;0.079437
9170.000000;0.079154
9169.000000;0.078925
9168.000000;0.078805
9167.000000;0.078749
9166.000000;0.078690
9165.000000;0.078606
9164.000000;0.078481
9163.000000;0.078295
9162.000000;0.078082
9161.000000;0.077901
9160.000000;0.077716
9159.000000;0.077415
9158.000000;0.076987
9157.000000;0.076580
9156.000000;0.076320
9155.000000;0.076175
9154.000000;0.076041
9153.000000;0.075873
9152.000000;0.075665
9151.000000;0.075404
9150.000000;0.075102
9149.000000;0.074824
9148.000000;0.074592
9147.000000;0.074335
9146.000000;0.073995
9145.000000;0.073629
9144.000000;0.073336
9143.000000;0.073134
9142.000000;0.072972
9141.000000;0.072832
9140.000000;0.072738
9139.000000;0.072693
9138.000000;0.072650
9137.000000;0.072546
9136.000000;0.072345
9135.000000;0.072066
9134.000000;0.071786
9133.000000;0.071559
9132.000000;0.071367
9131.000000;0.071154
9130.000000;0.070921
9129.000000;0.070707
9128.000000;0.070502
9127.000000;0.070261
9126.000000;0.069997
9125.000000;0.069781
9124.000000;0.069629
9123.000000;0.069470
9122.000000;0.069259
9121.000000;0.069016
9120.000000;0.068760
9119.000000;0.068475
9118.000000;0.068190
9117.000000;0.067981
9116.000000;0.067857
9115.000000;0.067723
9114.000000;0.067500
9113.000000;0.067215
9112.000000;0.066933
9111.000000;0.066685
9110.000000;0.066496
9109.000000;0.066391
9108.000000;0.066331
9107.000000;0.066211
9106.000000;0.065973
9105.000000;0.065661
9104.000000;0.065327
9103.000000;0.064980
9102.000000;0.064648
9101.000000;0.064412
9100.000000;0.064311
9099.000000;0.064285
9098.000000;0.064267
9097.000000;0.064252
9096.000000;0.064230
9095.000000;0.064145
9094.000000;0.063980
9093.000000;0.063807
9092.000000;0.063671
9091.000000;0.063487
9090.000000;0.063155
9089.000000;0.062713
9088.000000;0.062303
9087.000000;0.062003
9086.000000;0.061780
9085.000000;0.061590
9084.000000;0.061453
9083.000000;0.061397
9082.000000;0.061388
9081.000000;0.061330
9080.000000;0.061131
9079.000000;0.060804
9078.000000;0.060487
9077.000000;0.060312
9076.000000;0.060275
9075.000000;0.060249
9074.000000;0.060137
9073.000000;0.059937
9072.000000;0.059678
9071.000000;0.059382
9070.000000;0.059103
9069.000000;0.058920
9068.000000;0.058822
9067.000000;0.058692
9066.000000;0.058436
9065.000000;0.058092
9064.000000;0.057759
9063.000000;0.057495
9062.000000;0.057294
9061.000000;0.057117
9060.000000;0.056905
9059.000000;0.056628
9058.000000;0.056340
9057.000000;0.056138
9056.000000;0.056023
9055.000000;0.055892
9054.000000;0.055692
9053.000000;0.055503
