Criado como novo conjunto de dados;"e2410_daniel_v2.spp","18542.9 Secs"
cm-1;Abs
10000.000000;0.436734
9999.000000;0.436049
9998.000000;0.435366
9997.000000;0.434681
9996.000000;0.434002
9995.000000;0.433314
9994.000000;0.432660
9993.000000;0.432135
9992.000000;0.431643
9991.000000;0.431087
9990.000000;0.430474
9989.000000;0.429923
9988.000000;0.429494
9987.000000;0.429127
9986.000000;0.428768
9985.000000;0.428464
9984.000000;0.428252
9983.000000;0.428051
9982.000000;0.427747
9981.000000;0.427327
9980.000000;0.426841
9979.000000;0.426285
9978.000000;0.425642
9977.000000;0.424984
9976.000000;0.424463
9975.000000;0.424146
9974.000000;0.423935
9973.000000;0.423615
9972.000000;0.422991
9971.000000;0.422050
9970.000000;0.421029
9969.000000;0.420263
9968.000000;0.419876
9967.000000;0.419661
9966.000000;0.419325
9965.000000;0.418792
9964.000000;0.418217
9963.000000;0.417749
9962.000000;0.417393
9961.000000;0.417054
9960.000000;0.416654
9959.000000;0.416203
9958.000000;0.415790
9957.000000;0.415481
9956.000000;0.415216
9955.000000;0.414858
9954.000000;0.414354
9953.000000;0.413762
9952.000000;0.413110
9951.000000;0.412357
9950.000000;0.411546
9949.000000;0.410850
9948.000000;0.410343
9947.000000;0.409868
9946.000000;0.409281
9945.000000;0.408713
9944.000000;0.408399
9943.000000;0.408332
9942.000000;0.408243
9941.000000;0.407923
9940.000000;0.407378
9939.000000;0.406706
9938.000000;0.405998
9937.000000;0.405368
9936.000000;0.404944
9935.000000;0.404747
9934.000000;0.404661
9933.000000;0.404533
9932.000000;0.404236
9931.000000;0.403684
9930.000000;0.402906
9929.000000;0.402098
9928.000000;0.401430
9927.000000;0.400839
9926.000000;0.400122
9925.000000;0.399276
9924.000000;0.398565
9923.000000;0.398213
9922.000000;0.398145
9921.000000;0.398118
9920.000000;0.397960
9919.000000;0.397630
9918.000000;0.397155
9917.000000;0.396616
9916.000000;0.396122
9915.000000;0.395684
9914.000000;0.395170
9913.000000;0.394469
9912.000000;0.393647
9911.000000;0.392857
9910.000000;0.392151
9909.000000;0.391483
9908.000000;0.390850
9907.000000;0.390334
9906.000000;0.389959
9905.000000;0.389620
9904.000000;0.389191
9903.000000;0.388650
9902.000000;0.388078
9901.000000;0.387562
9900.000000;0.387140
9899.000000;0.386794
9898.000000;0.386433
9897.000000;0.385933
9896.000000;0.385260
9895.000000;0.384543
9894.000000;0.383982
9893.000000;0.383659
9892.000000;0.383471
9891.000000;0.383242
9890.000000;0.382867
9889.000000;0.382338
9888.000000;0.381701
9887.000000;0.381042
9886.000000;0.380452
9885.000000;0.379970
9884.000000;0.379569
9883.000000;0.379225
9882.000000;0.378952
9881.000000;0.378704
9880.000000;0.378332
9879.000000;0.377729
9878.000000;0.376999
9877.000000;0.376393
9876.000000;0.376051
9875.000000;0.375882
9874.000000;0.375697
9873.000000;0.375361
9872.000000;0.374850
9871.000000;0.374233
9870.000000;0.373649
9869.000000;0.373204
9868.000000;0.372860
9867.000000;0.372464
9866.000000;0.371880
9865.000000;0.371085
9864.000000;0.370165
9863.000000;0.369305
9862.000000;0.368737
9861.000000;0.368549
9860.000000;0.368536
9859.000000;0.368350
9858.000000;0.367843
9857.000000;0.367176
9856.000000;0.366562
9855.000000;0.366029
9854.000000;0.365487
9853.000000;0.364901
9852.000000;0.364323
9851.000000;0.363809
9850.000000;0.363391
9849.000000;0.363058
9848.000000;0.362750
9847.000000;0.362408
9846.000000;0.362069
9845.000000;0.361794
9844.000000;0.361515
9843.000000;0.361072
9842.000000;0.360453
9841.000000;0.359861
9840.000000;0.359443
9839.000000;0.359095
9838.000000;0.358651
9837.000000;0.358140
9836.000000;0.357698
9835.000000;0.357308
9834.000000;0.356801
9833.000000;0.356116
9832.000000;0.355383
9831.000000;0.354756
9830.000000;0.354261
9829.000000;0.353869
9828.000000;0.353581
9827.000000;0.353397
9826.000000;0.353227
9825.000000;0.352918
9824.000000;0.352371
9823.000000;0.351641
9822.000000;0.350901
9821.000000;0.350290
9820.000000;0.349782
9819.000000;0.349262
9818.000000;0.348707
9817.000000;0.348233
9816.000000;0.347928
9815.000000;0.347729
9814.000000;0.347511
9813.000000;0.347236
9812.000000;0.346931
9811.000000;0.346560
9810.000000;0.346016
9809.000000;0.345253
9808.000000;0.344376
9807.000000;0.343591
9806.000000;0.343064
9805.000000;0.342792
9804.000000;0.342594
9803.000000;0.342258
9802.000000;0.341728
9801.000000;0.341109
9800.000000;0.340520
9799.000000;0.339989
9798.000000;0.339514
9797.000000;0.339115
9796.000000;0.338776
9795.000000;0.338412
9794.000000;0.337974
9793.000000;0.337520
9792.000000;0.337129
9791.000000;0.336778
9790.000000;0.336384
9789.000000;0.335920
9788.000000;0.335425
9787.000000;0.334923
9786.000000;0.334406
9785.000000;0.333878
9784.000000;0.333388
9783.000000;0.332999
9782.000000;0.332738
9781.000000;0.332542
9780.000000;0.332278
9779.000000;0.331845
9778.000000;0.331278
9777.000000;0.330689
9776.000000;0.330124
9775.000000;0.329556
9774.000000;0.328997
9773.000000;0.328509
9772.000000;0.328064
9771.000000;0.327545
9770.000000;0.326929
9769.000000;0.326370
9768.000000;0.325986
9767.000000;0.325672
9766.000000;0.325211
9765.000000;0.324542
9764.000000;0.323822
9763.000000;0.323255
9762.000000;0.322909
9761.000000;0.322674
9760.000000;0.322350
9759.000000;0.321846
9758.000000;0.321304
9757.000000;0.320957
9756.000000;0.320839
9755.000000;0.320718
9754.000000;0.320373
9753.000000;0.319820
9752.000000;0.319203
9751.000000;0.318583
9750.000000;0.317965
9749.000000;0.317413
9748.000000;0.316983
9747.000000;0.316594
9746.000000;0.316117
9745.000000;0.315568
9744.000000;0.315107
9743.000000;0.314834
9742.000000;0.314693
9741.000000;0.314551
9740.000000;0.314302
9739.000000;0.313881
9738.000000;0.313289
9737.000000;0.312611
9736.000000;0.311959
9735.000000;0.311405
9734.000000;0.310977
9733.000000;0.310666
9732.000000;0.310392
9731.000000;0.310026
9730.000000;0.309525
9729.000000;0.309006
9728.000000;0.308604
9727.000000;0.308315
9726.000000;0.308029
9725.000000;0.307641
9724.000000;0.307077
9723.000000;0.306301
9722.000000;0.305424
9721.000000;0.304702
9720.000000;0.304279
9719.000000;0.303985
9718.000000;0.303539
9717.000000;0.302928
9716.000000;0.302411
9715.000000;0.302152
9714.000000;0.302030
9713.000000;0.301839
9712.000000;0.301515
9711.000000;0.301088
9710.000000;0.300560
9709.000000;0.299946
9708.000000;0.299346
9707.000000;0.298862
9706.000000;0.298465
9705.000000;0.298019
9704.000000;0.297448
9703.000000;0.296834
9702.000000;0.296349
9701.000000;0.296112
9700.000000;0.296070
9699.000000;0.296033
9698.000000;0.295816
9697.000000;0.295366
9696.000000;0.294728
9695.000000;0.293982
9694.000000;0.293239
9693.000000;0.292664
9692.000000;0.292354
9691.000000;0.292209
9690.000000;0.291993
9689.000000;0.291566
9688.000000;0.290989
9687.000000;0.290396
9686.000000;0.289858
9685.000000;0.289384
9684.000000;0.288967
9683.000000;0.288571
9682.000000;0.288135
9681.000000;0.287666
9680.000000;0.287246
9679.000000;0.286909
9678.000000;0.286558
9677.000000;0.286082
9676.000000;0.285523
9675.000000;0.285038
9674.000000;0.284700
9673.000000;0.284427
9672.000000;0.284118
9671.000000;0.283775
9670.000000;0.283448
9669.000000;0.283125
9668.000000;0.282735
9667.000000;0.282257
9666.000000;0.281748
9665.000000;0.281258
9664.000000;0.280775
9663.000000;0.280291
9662.000000;0.279849
9661.000000;0.279470
9660.000000;0.279076
9659.000000;0.278544
9658.000000;0.277863
9657.000000;0.277162
9656.000000;0.276576
9655.000000;0.276127
9654.000000;0.275750
9653.000000;0.275387
9652.000000;0.275028
9651.000000;0.274713
9650.000000;0.274513
9649.000000;0.274464
9648.000000;0.274474
9647.000000;0.274349
9646.000000;0.273948
9645.000000;0.273321
9644.000000;0.272659
9643.000000;0.272130
9642.000000;0.271774
9641.000000;0.271508
9640.000000;0.271182
9639.000000;0.270669
9638.000000;0.269963
9637.000000;0.269198
9636.000000;0.268543
9635.000000;0.268072
9634.000000;0.267726
9633.000000;0.267409
9632.000000;0.267090
9631.000000;0.266819
9630.000000;0.266648
9629.000000;0.266543
9628.000000;0.266366
9627.000000;0.265981
9626.000000;0.265379
9625.000000;0.264679
9624.000000;0.264003
9623.000000;0.263399
9622.000000;0.262879
9621.000000;0.262472
9620.000000;0.262187
9619.000000;0.261974
9618.000000;0.261741
9617.000000;0.261426
9616.000000;0.261026
9615.000000;0.260581
9614.000000;0.260157
9613.000000;0.259793
9612.000000;0.259441
9611.000000;0.258988
9610.000000;0.258374
9609.000000;0.257689
9608.000000;0.257110
9607.000000;0.256739
9606.000000;0.256510
9605.000000;0.256261
9604.000000;0.255858
9603.000000;0.255298
9602.000000;0.254701
9601.000000;0.254200
9600.000000;0.253844
9599.000000;0.253579
9598.000000;0.253334
9597.000000;0.253084
9596.000000;0.252825
9595.000000;0.252531
9594.000000;0.252152
9593.000000;0.251664
9592.000000;0.251105
9591.000000;0.250573
9590.000000;0.250150
9589.000000;0.249822
9588.000000;0.249480
9587.000000;0.249048
9586.000000;0.248584
9585.000000;0.248206
9584.000000;0.247935
9583.000000;0.247659
9582.000000;0.247265
9581.000000;0.246761
9580.000000;0.246246
9579.000000;0.245812
9578.000000;0.245474
9577.000000;0.245163
9576.000000;0.244784
9575.000000;0.244341
9574.000000;0.243963
9573.000000;0.243772
9572.000000;0.243710
9571.000000;0.243587
9570.000000;0.243282
9569.000000;0.242825
9568.000000;0.242283
9567.000000;0.241684
9566.000000;0.241060
9565.000000;0.240479
9564.000000;0.239958
9563.000000;0.239449
9562.000000;0.238941
9561.000000;0.238506
9560.000000;0.238185
9559.000000;0.237896
9558.000000;0.237540
9557.000000;0.237120
9556.000000;0.236694
9555.000000;0.236264
9554.000000;0.235796
9553.000000;0.235306
9552.000000;0.234858
9551.000000;0.234499
9550.000000;0.234250
9549.000000;0.234120
9548.000000;0.234060
9547.000000;0.233941
9546.000000;0.233657
9545.000000;0.233229
9544.000000;0.232761
9543.000000;0.232307
9542.000000;0.231841
9541.000000;0.231348
9540.000000;0.230861
9539.000000;0.230414
9538.000000;0.230004
9537.000000;0.229613
9536.000000;0.229242
9535.000000;0.228928
9534.000000;0.228718
9533.000000;0.228624
9532.000000;0.228562
9531.000000;0.228363
9530.000000;0.227905
9529.000000;0.227220
9528.000000;0.226468
9527.000000;0.225809
9526.000000;0.225317
9525.000000;0.224957
9524.000000;0.224638
9523.000000;0.224288
9522.000000;0.223909
9521.000000;0.223531
9520.000000;0.223133
9519.000000;0.222680
9518.000000;0.222239
9517.000000;0.221954
9516.000000;0.221863
9515.000000;0.221809
9514.000000;0.221596
9513.000000;0.221179
9512.000000;0.220659
9511.000000;0.220140
9510.000000;0.219693
9509.000000;0.219380
9508.000000;0.219211
9507.000000;0.219080
9506.000000;0.218829
9505.000000;0.218399
9504.000000;0.217850
9503.000000;0.217271
9502.000000;0.216715
9501.000000;0.216202
9500.000000;0.215723
9499.000000;0.215250
9498.000000;0.214793
9497.000000;0.214445
9496.000000;0.214292
9495.000000;0.214275
9494.000000;0.214210
9493.000000;0.213947
9492.000000;0.213485
9491.000000;0.212929
9490.000000;0.212396
9489.000000;0.211949
9488.000000;0.211568
9487.000000;0.211152
9486.000000;0.210630
9485.000000;0.210056
9484.000000;0.209572
9483.000000;0.209249
9482.000000;0.209027
9481.000000;0.208808
9480.000000;0.208547
9479.000000;0.208249
9478.000000;0.207923
9477.000000;0.207595
9476.000000;0.207303
9475.000000;0.207057
9474.000000;0.206794
9473.000000;0.206441
9472.000000;0.206003
9471.000000;0.205571
9470.000000;0.205235
9469.000000;0.204996
9468.000000;0.204756
9467.000000;0.204416
9466.000000;0.203988
9465.000000;0.203590
9464.000000;0.203301
9463.000000;0.203041
9462.000000;0.202654
9461.000000;0.202108
9460.000000;0.201551
9459.000000;0.201157
9458.000000;0.200943
9457.000000;0.200776
9456.000000;0.200533
9455.000000;0.200184
9454.000000;0.199760
9453.000000;0.199298
9452.000000;0.198841
9451.000000;0.198444
9450.000000;0.198134
9449.000000;0.197865
9448.000000;0.197550
9447.000000;0.197139
9446.000000;0.196656
9445.000000;0.196176
9444.000000;0.195776
9443.000000;0.195511
9442.000000;0.195382
9441.000000;0.195320
9440.000000;0.195213
9439.000000;0.194978
9438.000000;0.194608
9437.000000;0.194151
9436.000000;0.193664
9435.000000;0.193181
9434.000000;0.192727
9433.000000;0.192320
9432.000000;0.191978
9431.000000;0.191721
9430.000000;0.191551
9429.000000;0.191411
9428.000000;0.191203
9427.000000;0.190869
9426.000000;0.190435
9425.000000;0.189961
9424.000000;0.189478
9423.000000;0.189018
9422.000000;0.188639
9421.000000;0.188366
9420.000000;0.188114
9419.000000;0.187757
9418.000000;0.187284
9417.000000;0.186811
9416.000000;0.186432
9415.000000;0.186120
9414.000000;0.185804
9413.000000;0.185480
9412.000000;0.185184
9411.000000;0.184916
9410.000000;0.184621
9409.000000;0.184243
9408.000000;0.183757
9407.000000;0.183188
9406.000000;0.182647
9405.000000;0.182291
9404.000000;0.182195
9403.000000;0.182254
9402.000000;0.182270
9401.000000;0.182117
9400.000000;0.181815
9399.000000;0.181454
9398.000000;0.181090
9397.000000;0.180740
9396.000000;0.180404
9395.000000;0.180070
9394.000000;0.179727
9393.000000;0.179382
9392.000000;0.179072
9391.000000;0.178812
9390.000000;0.178557
9389.000000;0.178240
9388.000000;0.177857
9387.000000;0.177480
9386.000000;0.177176
9385.000000;0.176919
9384.000000;0.176614
9383.000000;0.176206
9382.000000;0.175731
9381.000000;0.175271
9380.000000;0.174885
9379.000000;0.174570
9378.000000;0.174271
9377.000000;0.173927
9376.000000;0.173530
9375.000000;0.173161
9374.000000;0.172922
9373.000000;0.172810
9372.000000;0.172698
9371.000000;0.172461
9370.000000;0.172093
9369.000000;0.171686
9368.000000;0.171311
9367.000000;0.170979
9366.000000;0.170671
9365.000000;0.170372
9364.000000;0.170072
9363.000000;0.169776
9362.000000;0.169492
9361.000000;0.169209
9360.000000;0.168901
9359.000000;0.168581
9358.000000;0.168314
9357.000000;0.168143
9356.000000;0.168012
9355.000000;0.167834
9354.000000;0.167582
9353.000000;0.167287
9352.000000;0.166955
9351.000000;0.166559
9350.000000;0.166111
9349.000000;0.165677
9348.000000;0.165309
9347.000000;0.164989
9346.000000;0.164668
9345.000000;0.164311
9344.000000;0.163921
9343.000000;0.163544
9342.000000;0.163246
9341.000000;0.163046
9340.000000;0.162881
9339.000000;0.162662
9338.000000;0.162360
9337.000000;0.162021
9336.000000;0.161696
9335.000000;0.161406
9334.000000;0.161148
9333.000000;0.160912
9332.000000;0.160671
9331.000000;0.160404
9330.000000;0.160110
9329.000000;0.159795
9328.000000;0.159459
9327.000000;0.159119
9326.000000;0.158829
9325.000000;0.158627
9324.000000;0.158472
9323.000000;0.158272
9322.000000;0.157964
9321.000000;0.157538
9320.000000;0.157024
9319.000000;0.156487
9318.000000;0.156008
9317.000000;0.155626
9316.000000;0.155321
9315.000000;0.155093
9314.000000;0.154993
9313.000000;0.155015
9312.000000;0.155022
9311.000000;0.154864
9310.000000;0.154559
9309.000000;0.154243
9308.000000;0.153979
9307.000000;0.153714
9306.000000;0.153415
9305.000000;0.153118
9304.000000;0.152819
9303.000000;0.152428
9302.000000;0.151899
9301.000000;0.151314
9300.000000;0.150815
9299.000000;0.150491
9298.000000;0.150354
9297.000000;0.150333
9296.000000;0.150270
9295.000000;0.150008
9294.000000;0.149547
9293.000000;0.149056
9292.000000;0.148705
9291.000000;0.148521
9290.000000;0.148429
9289.000000;0.148343
9288.000000;0.148178
9287.000000;0.147861
9286.000000;0.147416
9285.000000;0.146977
9284.000000;0.146664
9283.000000;0.146449
9282.000000;0.146213
9281.000000;0.145903
9280.000000;0.145577
9279.000000;0.145315
9278.000000;0.145133
9277.000000;0.144987
9276.000000;0.144813
9275.000000;0.144575
9274.000000;0.144293
9273.000000;0.144029
9272.000000;0.143831
9271.000000;0.143689
9270.000000;0.143538
9269.000000;0.143301
9268.000000;0.142941
9267.000000;0.142498
9266.000000;0.142075
9265.000000;0.141745
9264.000000;0.141476
9263.000000;0.141172
9262.000000;0.140786
9261.000000;0.140354
9260.000000;0.139951
9259.000000;0.139644
9258.000000;0.139464
9257.000000;0.139377
9256.000000;0.139293
9255.000000;0.139159
9254.000000;0.139014
9253.000000;0.138897
9252.000000;0.138724
9251.000000;0.138378
9250.000000;0.137903
9249.000000;0.137495
9248.000000;0.137251
9247.000000;0.137057
9246.000000;0.136768
9245.000000;0.136413
9244.000000;0.136123
9243.000000;0.135937
9242.000000;0.135772
9241.000000;0.135543
9240.000000;0.135237
9239.000000;0.134887
9238.000000;0.134549
9237.000000;0.134292
9236.000000;0.134156
9235.000000;0.134099
9234.000000;0.134024
9233.000000;0.133852
9232.000000;0.133555
9231.000000;0.133145
9230.000000;0.132662
9229.000000;0.132169
9228.000000;0.131731
9227.000000;0.131386
9226.000000;0.131144
9225.000000;0.130989
9224.000000;0.130877
9223.000000;0.130752
9222.000000;0.130571
9221.000000;0.130320
9220.000000;0.130015
9219.000000;0.129713
9218.000000;0.129493
9217.000000;0.129384
9216.000000;0.129310
9215.000000;0.129156
9214.000000;0.128898
9213.000000;0.128606
9212.000000;0.128328
9211.000000;0.128028
9210.000000;0.127665
9209.000000;0.127258
9208.000000;0.126868
9207.000000;0.126560
9206.000000;0.126391
9205.000000;0.126367
9204.000000;0.126377
9203.000000;0.126236
9202.000000;0.125868
9201.000000;0.125399
9200.000000;0.125022
9199.000000;0.124816
9198.000000;0.124727
9197.000000;0.124683
9196.000000;0.124630
9195.000000;0.124502
9194.000000;0.124236
9193.000000;0.123842
9192.000000;0.123421
9191.000000;0.123084
9190.000000;0.122874
9189.000000;0.122733
9188.000000;0.122553
9187.000000;0.122260
9186.000000;0.121884
9185.000000;0.121533
9184.000000;0.121288
9183.000000;0.121120
9182.000000;0.120930
9181.000000;0.120650
9180.000000;0.120318
9179.000000;0.120036
9178.000000;0.119859
9177.000000;0.119716
9176.000000;0.119469
9175.000000;0.119066
9174.000000;0.118622
9173.000000;0.118308
9172.000000;0.118170
9171.000000;0.118097
9170.000000;0.117956
9169.000000;0.117704
9168.000000;0.117392
9167.000000;0.117111
9166.000000;0.116931
9165.000000;0.116851
9164.000000;0.116797
9163.000000;0.116696
9162.000000;0.116554
9161.000000;0.116403
9160.000000;0.116224
9159.000000;0.115963
9158.000000;0.115627
9157.000000;0.115289
9156.000000;0.114995
9155.000000;0.114738
9154.000000;0.114504
9153.000000;0.114275
9152.000000;0.113995
9151.000000;0.113624
9150.000000;0.113247
9149.000000;0.113027
9148.000000;0.112996
9147.000000;0.112992
9146.000000;0.112842
9145.000000;0.112545
9144.000000;0.112212
9143.000000;0.111912
9142.000000;0.111635
9141.000000;0.111374
9140.000000;0.111144
9139.000000;0.110957
9138.000000;0.110823
9137.000000;0.110755
9136.000000;0.110728
9135.000000;0.110680
9134.000000;0.110559
9133.000000;0.110358
9132.000000;0.110072
9131.000000;0.109679
9130.000000;0.109213
9129.000000;0.108804
9128.000000;0.108577
9127.000000;0.108521
9126.000000;0.108504
9125.000000;0.108406
9124.000000;0.108193
9123.000000;0.107905
9122.000000;0.107608
9121.000000;0.107355
9120.000000;0.107144
9119.000000;0.106921
9118.000000;0.106658
9117.000000;0.106382
9116.000000;0.106129
9115.000000;0.105895
9114.000000;0.105665
9113.000000;0.105458
9112.000000;0.105299
9111.000000;0.105181
9110.000000;0.105088
9109.000000;0.105025
9108.000000;0.104971
9107.000000;0.104850
9106.000000;0.104617
9105.000000;0.104343
9104.000000;0.104148
9103.000000;0.104040
9102.000000;0.103917
9101.000000;0.103726
9100.000000;0.103531
9099.000000;0.103396
9098.000000;0.103254
9097.000000;0.102974
9096.000000;0.102549
9095.000000;0.102121
9094.000000;0.101808
9093.000000;0.101570
9092.000000;0.101289
9091.000000;0.100953
9090.000000;0.100677
9089.000000;0.100544
9088.000000;0.100488
9087.000000;0.100382
9086.000000;0.100181
9085.000000;0.099935
9084.000000;0.099696
9083.000000;0.099474
9082.000000;0.099273
9081.000000;0.099104
9080.000000;0.098962
9079.000000;0.098831
9078.000000;0.098714
9077.000000;0.098608
9076.000000;0.098475
9075.000000;0.098276
9074.000000;0.098050
9073.000000;0.097870
9072.000000;0.097743
9071.000000;0.097604
9070.000000;0.097423
9069.000000;0.097245
9068.000000;0.097109
9067.000000;0.096989
9066.000000;0.096856
9065.000000;0.096715
9064.000000;0.096573
9063.000000;0.096400
9062.000000;0.096176
9061.000000;0.095931
9060.000000;0.095706
9059.000000;0.095506
9058.000000;0.095314
9057.000000;0.095101
9056.000000;0.094833
9055.000000;0.094505
9054.000000;0.094182
9053.000000;0.093940
