Criado como novo conjunto de dados;"e2410_daniel_v2.spp","81546.3 Secs"
cm-1;Abs
10000.000000;1.129583
9999.000000;1.129382
9998.000000;1.130009
9997.000000;1.130896
9996.000000;1.131351
9995.000000;1.131274
9994.000000;1.130685
9993.000000;1.129706
9992.000000;1.128581
9991.000000;1.127731
9990.000000;1.127314
9989.000000;1.127095
9988.000000;1.126778
9987.000000;1.126321
9986.000000;1.125765
9985.000000;1.125011
9984.000000;1.123961
9983.000000;1.122726
9982.000000;1.121523
9981.000000;1.120481
9980.000000;1.119666
9979.000000;1.119105
9978.000000;1.118674
9977.000000;1.118136
9976.000000;1.117500
9975.000000;1.117129
9974.000000;1.117279
9973.000000;1.117648
9972.000000;1.117632
9971.000000;1.116978
9970.000000;1.115957
9969.000000;1.114955
9968.000000;1.114151
9967.000000;1.113582
9966.000000;1.113268
9965.000000;1.113132
9964.000000;1.112913
9963.000000;1.112311
9962.000000;1.111284
9961.000000;1.110189
9960.000000;1.109533
9959.000000;1.109489
9958.000000;1.109656
9957.000000;1.109404
9956.000000;1.108500
9955.000000;1.107278
9954.000000;1.106194
9953.000000;1.105406
9952.000000;1.104815
9951.000000;1.104297
9950.000000;1.103737
9949.000000;1.103048
9948.000000;1.102308
9947.000000;1.101771
9946.000000;1.101563
9945.000000;1.101478
9944.000000;1.101212
9943.000000;1.100701
9942.000000;1.100097
9941.000000;1.099516
9940.000000;1.098988
9939.000000;1.098562
9938.000000;1.098280
9937.000000;1.098101
9936.000000;1.097973
9935.000000;1.097920
9934.000000;1.097906
9933.000000;1.097685
9932.000000;1.096967
9931.000000;1.095731
9930.000000;1.094301
9929.000000;1.093116
9928.000000;1.092482
9927.000000;1.092439
9926.000000;1.092743
9925.000000;1.093024
9924.000000;1.093026
9923.000000;1.092715
9922.000000;1.092133
9921.000000;1.091282
9920.000000;1.090229
9919.000000;1.089140
9918.000000;1.088090
9917.000000;1.086998
9916.000000;1.085854
9915.000000;1.084877
9914.000000;1.084274
9913.000000;1.084011
9912.000000;1.083990
9911.000000;1.084279
9910.000000;1.084877
9909.000000;1.085358
9908.000000;1.085099
9907.000000;1.083907
9906.000000;1.082192
9905.000000;1.080496
9904.000000;1.079078
9903.000000;1.078024
9902.000000;1.077533
9901.000000;1.077834
9900.000000;1.078808
9899.000000;1.079775
9898.000000;1.079789
9897.000000;1.078357
9896.000000;1.075971
9895.000000;1.073811
9894.000000;1.072795
9893.000000;1.072916
9892.000000;1.073484
9891.000000;1.073877
9890.000000;1.073957
9889.000000;1.073857
9888.000000;1.073618
9887.000000;1.073093
9886.000000;1.072119
9885.000000;1.070775
9884.000000;1.069457
9883.000000;1.068634
9882.000000;1.068455
9881.000000;1.068659
9880.000000;1.068871
9879.000000;1.068857
9878.000000;1.068475
9877.000000;1.067665
9876.000000;1.066661
9875.000000;1.065984
9874.000000;1.065925
9873.000000;1.066115
9872.000000;1.065894
9871.000000;1.065075
9870.000000;1.064087
9869.000000;1.063365
9868.000000;1.062840
9867.000000;1.062105
9866.000000;1.060902
9865.000000;1.059374
9864.000000;1.057953
9863.000000;1.057070
9862.000000;1.056849
9861.000000;1.057030
9860.000000;1.057184
9859.000000;1.057039
9858.000000;1.056583
9857.000000;1.055999
9856.000000;1.055559
9855.000000;1.055466
9854.000000;1.055630
9853.000000;1.055671
9852.000000;1.055274
9851.000000;1.054515
9850.000000;1.053690
9849.000000;1.052924
9848.000000;1.052134
9847.000000;1.051295
9846.000000;1.050539
9845.000000;1.049988
9844.000000;1.049622
9843.000000;1.049327
9842.000000;1.048960
9841.000000;1.048436
9840.000000;1.047878
9839.000000;1.047577
9838.000000;1.047662
9837.000000;1.047840
9836.000000;1.047645
9835.000000;1.046906
9834.000000;1.045823
9833.000000;1.044658
9832.000000;1.043573
9831.000000;1.042713
9830.000000;1.042182
9829.000000;1.041873
9828.000000;1.041522
9827.000000;1.040958
9826.000000;1.040237
9825.000000;1.039521
9824.000000;1.038960
9823.000000;1.038654
9822.000000;1.038559
9821.000000;1.038435
9820.000000;1.038094
9819.000000;1.037671
9818.000000;1.037480
9817.000000;1.037579
9816.000000;1.037676
9815.000000;1.037450
9814.000000;1.036813
9813.000000;1.035848
9812.000000;1.034710
9811.000000;1.033600
9810.000000;1.032636
9809.000000;1.031709
9808.000000;1.030651
9807.000000;1.029563
9806.000000;1.028777
9805.000000;1.028447
9804.000000;1.028401
9803.000000;1.028448
9802.000000;1.028575
9801.000000;1.028768
9800.000000;1.028871
9799.000000;1.028782
9798.000000;1.028595
9797.000000;1.028376
9796.000000;1.027949
9795.000000;1.027124
9794.000000;1.026048
9793.000000;1.025138
9792.000000;1.024652
9791.000000;1.024447
9790.000000;1.024123
9789.000000;1.023357
9788.000000;1.022174
9787.000000;1.020974
9786.000000;1.020239
9785.000000;1.020095
9784.000000;1.020189
9783.000000;1.020033
9782.000000;1.019464
9781.000000;1.018757
9780.000000;1.018332
9779.000000;1.018376
9778.000000;1.018659
9777.000000;1.018657
9776.000000;1.017930
9775.000000;1.016488
9774.000000;1.014817
9773.000000;1.013504
9772.000000;1.012835
9771.000000;1.012690
9770.000000;1.012742
9769.000000;1.012723
9768.000000;1.012535
9767.000000;1.012181
9766.000000;1.011681
9765.000000;1.011132
9764.000000;1.010738
9763.000000;1.010596
9762.000000;1.010401
9761.000000;1.009628
9760.000000;1.008179
9759.000000;1.006656
9758.000000;1.005750
9757.000000;1.005545
9756.000000;1.005647
9755.000000;1.005841
9754.000000;1.006205
9753.000000;1.006630
9752.000000;1.006671
9751.000000;1.006038
9750.000000;1.004946
9749.000000;1.003819
9748.000000;1.002893
9747.000000;1.002239
9746.000000;1.001881
9745.000000;1.001679
9744.000000;1.001323
9743.000000;1.000662
9742.000000;0.999917
9741.000000;0.999400
9740.000000;0.999158
9739.000000;0.999048
9738.000000;0.998905
9737.000000;0.998471
9736.000000;0.997425
9735.000000;0.995844
9734.000000;0.994463
9733.000000;0.994049
9732.000000;0.994506
9731.000000;0.994913
9730.000000;0.994514
9729.000000;0.993434
9728.000000;0.992347
9727.000000;0.991721
9726.000000;0.991549
9725.000000;0.991544
9724.000000;0.991388
9723.000000;0.990896
9722.000000;0.990123
9721.000000;0.989291
9720.000000;0.988554
9719.000000;0.987921
9718.000000;0.987448
9717.000000;0.987315
9716.000000;0.987557
9715.000000;0.987830
9714.000000;0.987694
9713.000000;0.987095
9712.000000;0.986390
9711.000000;0.985881
9710.000000;0.985518
9709.000000;0.985102
9708.000000;0.984558
9707.000000;0.983902
9706.000000;0.983114
9705.000000;0.982240
9704.000000;0.981499
9703.000000;0.981062
9702.000000;0.980745
9701.000000;0.980184
9700.000000;0.979364
9699.000000;0.978725
9698.000000;0.978604
9697.000000;0.978764
9696.000000;0.978672
9695.000000;0.978170
9694.000000;0.977632
9693.000000;0.977450
9692.000000;0.977585
9691.000000;0.977699
9690.000000;0.977573
9689.000000;0.977220
9688.000000;0.976644
9687.000000;0.975670
9686.000000;0.974153
9685.000000;0.972306
9684.000000;0.970716
9683.000000;0.969907
9682.000000;0.969886
9681.000000;0.970151
9680.000000;0.970174
9679.000000;0.969867
9678.000000;0.969544
9677.000000;0.969496
9676.000000;0.969673
9675.000000;0.969784
9674.000000;0.969637
9673.000000;0.969328
9672.000000;0.969069
9671.000000;0.968878
9670.000000;0.968526
9669.000000;0.967797
9668.000000;0.966722
9667.000000;0.965488
9666.000000;0.964249
9665.000000;0.963153
9664.000000;0.962441
9663.000000;0.962230
9662.000000;0.962219
9661.000000;0.961881
9660.000000;0.961063
9659.000000;0.960175
9658.000000;0.959629
9657.000000;0.959350
9656.000000;0.959004
9655.000000;0.958490
9654.000000;0.957940
9653.000000;0.957384
9652.000000;0.956711
9651.000000;0.955919
9650.000000;0.955141
9649.000000;0.954486
9648.000000;0.954099
9647.000000;0.954260
9646.000000;0.955101
9645.000000;0.956189
9644.000000;0.956724
9643.000000;0.956277
9642.000000;0.955133
9641.000000;0.953837
9640.000000;0.952670
9639.000000;0.951694
9638.000000;0.951007
9637.000000;0.950696
9636.000000;0.950616
9635.000000;0.950450
9634.000000;0.949972
9633.000000;0.949191
9632.000000;0.948281
9631.000000;0.947451
9630.000000;0.946817
9629.000000;0.946347
9628.000000;0.945958
9627.000000;0.945657
9626.000000;0.945484
9625.000000;0.945343
9624.000000;0.945040
9623.000000;0.944525
9622.000000;0.943979
9621.000000;0.943571
9620.000000;0.943262
9619.000000;0.942901
9618.000000;0.942392
9617.000000;0.941720
9616.000000;0.940944
9615.000000;0.940256
9614.000000;0.939873
9613.000000;0.939776
9612.000000;0.939673
9611.000000;0.939343
9610.000000;0.938896
9609.000000;0.938550
9608.000000;0.938279
9607.000000;0.937831
9606.000000;0.937040
9605.000000;0.935982
9604.000000;0.934900
9603.000000;0.934112
9602.000000;0.933909
9601.000000;0.934308
9600.000000;0.934914
9599.000000;0.935189
9598.000000;0.934907
9597.000000;0.934275
9596.000000;0.933610
9595.000000;0.933040
9594.000000;0.932495
9593.000000;0.931860
9592.000000;0.931071
9591.000000;0.930200
9590.000000;0.929459
9589.000000;0.929012
9588.000000;0.928765
9587.000000;0.928443
9586.000000;0.927921
9585.000000;0.927369
9584.000000;0.927005
9583.000000;0.926827
9582.000000;0.926658
9581.000000;0.926378
9580.000000;0.925981
9579.000000;0.925494
9578.000000;0.924955
9577.000000;0.924444
9576.000000;0.923994
9575.000000;0.923477
9574.000000;0.922725
9573.000000;0.921809
9572.000000;0.921081
9571.000000;0.920833
9570.000000;0.920982
9569.000000;0.921169
9568.000000;0.921103
9567.000000;0.920719
9566.000000;0.920089
9565.000000;0.919354
9564.000000;0.918732
9563.000000;0.918391
9562.000000;0.918262
9561.000000;0.918081
9560.000000;0.917683
9559.000000;0.917140
9558.000000;0.916569
9557.000000;0.915975
9556.000000;0.915378
9555.000000;0.914899
9554.000000;0.914555
9553.000000;0.914112
9552.000000;0.913402
9551.000000;0.912692
9550.000000;0.912427
9549.000000;0.912567
9548.000000;0.912473
9547.000000;0.911641
9546.000000;0.910372
9545.000000;0.909484
9544.000000;0.909420
9543.000000;0.909805
9542.000000;0.909895
9541.000000;0.909319
9540.000000;0.908358
9539.000000;0.907558
9538.000000;0.907198
9537.000000;0.907129
9536.000000;0.907056
9535.000000;0.906844
9534.000000;0.906514
9533.000000;0.906067
9532.000000;0.905460
9531.000000;0.904758
9530.000000;0.904157
9529.000000;0.903789
9528.000000;0.903552
9527.000000;0.903200
9526.000000;0.902613
9525.000000;0.901953
9524.000000;0.901539
9523.000000;0.901519
9522.000000;0.901640
9521.000000;0.901441
9520.000000;0.900741
9519.000000;0.899858
9518.000000;0.899206
9517.000000;0.898800
9516.000000;0.898368
9515.000000;0.897863
9514.000000;0.897589
9513.000000;0.897720
9512.000000;0.897942
9511.000000;0.897736
9510.000000;0.896921
9509.000000;0.895797
9508.000000;0.894880
9507.000000;0.894568
9506.000000;0.894896
9505.000000;0.895451
9504.000000;0.895625
9503.000000;0.895151
9502.000000;0.894332
9501.000000;0.893619
9500.000000;0.893091
9499.000000;0.892537
9498.000000;0.891920
9497.000000;0.891477
9496.000000;0.891328
9495.000000;0.891259
9494.000000;0.891014
9493.000000;0.890607
9492.000000;0.890196
9491.000000;0.889774
9490.000000;0.889185
9489.000000;0.888387
9488.000000;0.887563
9487.000000;0.886929
9486.000000;0.886542
9485.000000;0.886283
9484.000000;0.885989
9483.000000;0.885553
9482.000000;0.884972
9481.000000;0.884345
9480.000000;0.883816
9479.000000;0.883464
9478.000000;0.883211
9477.000000;0.882833
9476.000000;0.882140
9475.000000;0.881201
9474.000000;0.880370
9473.000000;0.879997
9472.000000;0.880078
9471.000000;0.880255
9470.000000;0.880181
9469.000000;0.879829
9468.000000;0.879366
9467.000000;0.878859
9466.000000;0.878249
9465.000000;0.877602
9464.000000;0.877139
9463.000000;0.876931
9462.000000;0.876716
9461.000000;0.876198
9460.000000;0.875471
9459.000000;0.874956
9458.000000;0.874900
9457.000000;0.875082
9456.000000;0.875067
9455.000000;0.874640
9454.000000;0.873928
9453.000000;0.873183
9452.000000;0.872581
9451.000000;0.872161
9450.000000;0.871873
9449.000000;0.871641
9448.000000;0.871429
9447.000000;0.871240
9446.000000;0.871052
9445.000000;0.870807
9444.000000;0.870478
9443.000000;0.870092
9442.000000;0.869666
9441.000000;0.869159
9440.000000;0.868556
9439.000000;0.867922
9438.000000;0.867357
9437.000000;0.866923
9436.000000;0.866658
9435.000000;0.866554
9434.000000;0.866484
9433.000000;0.866238
9432.000000;0.865729
9431.000000;0.865095
9430.000000;0.864502
9429.000000;0.863952
9428.000000;0.863378
9427.000000;0.862824
9426.000000;0.862369
9425.000000;0.861963
9424.000000;0.861544
9423.000000;0.861283
9422.000000;0.861446
9421.000000;0.861956
9420.000000;0.862296
9419.000000;0.861981
9418.000000;0.861049
9417.000000;0.860000
9416.000000;0.859316
9415.000000;0.859105
9414.000000;0.859080
9413.000000;0.858821
9412.000000;0.858158
9411.000000;0.857365
9410.000000;0.856889
9409.000000;0.856855
9408.000000;0.856937
9407.000000;0.856762
9406.000000;0.856308
9405.000000;0.855808
9404.000000;0.855414
9403.000000;0.855104
9402.000000;0.854835
9401.000000;0.854590
9400.000000;0.854314
9399.000000;0.853932
9398.000000;0.853464
9397.000000;0.852979
9396.000000;0.852465
9395.000000;0.851858
9394.000000;0.851249
9393.000000;0.850905
9392.000000;0.850975
9391.000000;0.851229
9390.000000;0.851210
9389.000000;0.850672
9388.000000;0.849811
9387.000000;0.849055
9386.000000;0.848640
9385.000000;0.848415
9384.000000;0.848050
9383.000000;0.847374
9382.000000;0.846515
9381.000000;0.845754
9380.000000;0.845305
9379.000000;0.845213
9378.000000;0.845354
9377.000000;0.845485
9376.000000;0.845355
9375.000000;0.844838
9374.000000;0.844002
9373.000000;0.843065
9372.000000;0.842286
9371.000000;0.841859
9370.000000;0.841804
9369.000000;0.841933
9368.000000;0.841967
9367.000000;0.841736
9366.000000;0.841278
9365.000000;0.840777
9364.000000;0.840431
9363.000000;0.840326
9362.000000;0.840326
9361.000000;0.840105
9360.000000;0.839444
9359.000000;0.838521
9358.000000;0.837802
9357.000000;0.837541
9356.000000;0.837520
9355.000000;0.837341
9354.000000;0.836874
9353.000000;0.836317
9352.000000;0.835914
9351.000000;0.835766
9350.000000;0.835841
9349.000000;0.836004
9348.000000;0.836034
9347.000000;0.835782
9346.000000;0.835344
9345.000000;0.834959
9344.000000;0.834695
9343.000000;0.834347
9342.000000;0.833710
9341.000000;0.832893
9340.000000;0.832253
9339.000000;0.832035
9338.000000;0.832105
9337.000000;0.832088
9336.000000;0.831732
9335.000000;0.831143
9334.000000;0.830623
9333.000000;0.830322
9332.000000;0.830128
9331.000000;0.829896
9330.000000;0.829634
9329.000000;0.829375
9328.000000;0.829013
9327.000000;0.828436
9326.000000;0.827779
9325.000000;0.827314
9324.000000;0.827104
9323.000000;0.826929
9322.000000;0.826627
9321.000000;0.826326
9320.000000;0.826210
9319.000000;0.826218
9318.000000;0.826115
9317.000000;0.825812
9316.000000;0.825444
9315.000000;0.825144
9314.000000;0.824862
9313.000000;0.824419
9312.000000;0.823692
9311.000000;0.822765
9310.000000;0.821956
9309.000000;0.821607
9308.000000;0.821738
9307.000000;0.821920
9306.000000;0.821624
9305.000000;0.820741
9304.000000;0.819692
9303.000000;0.819011
9302.000000;0.818915
9301.000000;0.819224
9300.000000;0.819574
9299.000000;0.819626
9298.000000;0.819228
9297.000000;0.818516
9296.000000;0.817845
9295.000000;0.817530
9294.000000;0.817620
9293.000000;0.817912
9292.000000;0.818134
9291.000000;0.818086
9290.000000;0.817690
9289.000000;0.817045
9288.000000;0.816406
9287.000000;0.815995
9286.000000;0.815800
9285.000000;0.815629
9284.000000;0.815361
9283.000000;0.815073
9282.000000;0.814869
9281.000000;0.814694
9280.000000;0.814403
9279.000000;0.813939
9278.000000;0.813368
9277.000000;0.812773
9276.000000;0.812217
9275.000000;0.811792
9274.000000;0.811579
9273.000000;0.811517
9272.000000;0.811392
9271.000000;0.811033
9270.000000;0.810472
9269.000000;0.809864
9268.000000;0.809320
9267.000000;0.808893
9266.000000;0.808653
9265.000000;0.808628
9264.000000;0.808669
9263.000000;0.808505
9262.000000;0.808024
9261.000000;0.807434
9260.000000;0.807052
9259.000000;0.806982
9258.000000;0.807062
9257.000000;0.807087
9256.000000;0.806999
9255.000000;0.806833
9254.000000;0.806576
9253.000000;0.806137
9252.000000;0.805446
9251.000000;0.804538
9250.000000;0.803587
9249.000000;0.802841
9248.000000;0.802479
9247.000000;0.802458
9246.000000;0.802523
9245.000000;0.802402
9244.000000;0.802045
9243.000000;0.801666
9242.000000;0.801553
9241.000000;0.801785
9240.000000;0.802102
9239.000000;0.802067
9238.000000;0.801448
9237.000000;0.800454
9236.000000;0.799564
9235.000000;0.799099
9234.000000;0.799006
9233.000000;0.799011
9232.000000;0.798899
9231.000000;0.798641
9230.000000;0.798343
9229.000000;0.798172
9228.000000;0.798250
9227.000000;0.798497
9226.000000;0.798616
9225.000000;0.798340
9224.000000;0.797716
9223.000000;0.797082
9222.000000;0.796743
9221.000000;0.796719
9220.000000;0.796809
9219.000000;0.796790
9218.000000;0.796541
9217.000000;0.796060
9216.000000;0.795450
9215.000000;0.794885
9214.000000;0.794513
9213.000000;0.794364
9212.000000;0.794320
9211.000000;0.794177
9210.000000;0.793768
9209.000000;0.793106
9208.000000;0.792414
9207.000000;0.791963
9206.000000;0.791842
9205.000000;0.791886
9204.000000;0.791844
9203.000000;0.791604
9202.000000;0.791252
9201.000000;0.790926
9200.000000;0.790620
9199.000000;0.790175
9198.000000;0.789499
9197.000000;0.788762
9196.000000;0.788297
9195.000000;0.788246
9194.000000;0.788397
9193.000000;0.788437
9192.000000;0.788283
9191.000000;0.788046
9190.000000;0.787768
9189.000000;0.787388
9188.000000;0.786981
9187.000000;0.786790
9186.000000;0.786890
9185.000000;0.786994
9184.000000;0.786734
9183.000000;0.786104
9182.000000;0.785455
9181.000000;0.785098
9180.000000;0.785033
9179.000000;0.785033
9178.000000;0.784883
9177.000000;0.784504
9176.000000;0.783966
9175.000000;0.783440
9174.000000;0.783076
9173.000000;0.782876
9172.000000;0.782714
9171.000000;0.782506
9170.000000;0.782315
9169.000000;0.782227
9168.000000;0.782166
9167.000000;0.781899
9166.000000;0.781280
9165.000000;0.780475
9164.000000;0.779863
9163.000000;0.779683
9162.000000;0.779789
9161.000000;0.779803
9160.000000;0.779482
9159.000000;0.778917
9158.000000;0.778383
9157.000000;0.778080
9156.000000;0.778034
9155.000000;0.778141
9154.000000;0.778231
9153.000000;0.778129
9152.000000;0.777763
9151.000000;0.777244
9150.000000;0.776794
9149.000000;0.776557
9148.000000;0.776479
9147.000000;0.776363
9146.000000;0.776028
9145.000000;0.775448
9144.000000;0.774767
9143.000000;0.774189
9142.000000;0.773840
9141.000000;0.773723
9140.000000;0.773783
9139.000000;0.773967
9138.000000;0.774196
9137.000000;0.774330
9136.000000;0.774212
9135.000000;0.773792
9134.000000;0.773196
9133.000000;0.772680
9132.000000;0.772489
9131.000000;0.772677
9130.000000;0.773023
9129.000000;0.773149
9128.000000;0.772790
9127.000000;0.771976
9126.000000;0.770973
9125.000000;0.770078
9124.000000;0.769506
9123.000000;0.769354
9122.000000;0.769546
9121.000000;0.769799
9120.000000;0.769783
9119.000000;0.769407
9118.000000;0.768903
9117.000000;0.768567
9116.000000;0.768435
9115.000000;0.768292
9114.000000;0.767999
9113.000000;0.767689
9112.000000;0.767581
9111.000000;0.767676
9110.000000;0.767755
9109.000000;0.767625
9108.000000;0.767267
9107.000000;0.766754
9106.000000;0.766179
9105.000000;0.765718
9104.000000;0.765599
9103.000000;0.765851
9102.000000;0.766155
9101.000000;0.766105
9100.000000;0.765607
9099.000000;0.764917
9098.000000;0.764309
9097.000000;0.763846
9096.000000;0.763473
9095.000000;0.763145
9094.000000;0.762816
9093.000000;0.762427
9092.000000;0.762015
9091.000000;0.761743
9090.000000;0.761715
9089.000000;0.761813
9088.000000;0.761812
9087.000000;0.761638
9086.000000;0.761427
9085.000000;0.761346
9084.000000;0.761420
9083.000000;0.761506
9082.000000;0.761416
9081.000000;0.761071
9080.000000;0.760585
9079.000000;0.760174
9078.000000;0.759948
9077.000000;0.759814
9076.000000;0.759585
9075.000000;0.759164
9074.000000;0.758610
9073.000000;0.758076
9072.000000;0.757717
9071.000000;0.757589
9070.000000;0.757600
9069.000000;0.757563
9068.000000;0.757341
9067.000000;0.756938
9066.000000;0.756443
9065.000000;0.755971
9064.000000;0.755645
9063.000000;0.755549
9062.000000;0.755632
9061.000000;0.755706
9060.000000;0.755590
9059.000000;0.755241
9058.000000;0.754722
9057.000000;0.754121
9056.000000;0.753555
9055.000000;0.753176
9054.000000;0.753090
9053.000000;0.753286
