Criado como novo conjunto de dados;"e2410_daniel_v2.spp","19442.8 Secs"
cm-1;Abs
10000.000000;0.486148
9999.000000;0.486092
9998.000000;0.486036
9997.000000;0.485980
9996.000000;0.485924
9995.000000;0.485868
9994.000000;0.485813
9993.000000;0.485755
9992.000000;0.485708
9991.000000;0.485308
9990.000000;0.484571
9989.000000;0.483798
9988.000000;0.483160
9987.000000;0.482572
9986.000000;0.481954
9985.000000;0.481394
9984.000000;0.480960
9983.000000;0.480595
9982.000000;0.480258
9981.000000;0.479997
9980.000000;0.479758
9979.000000;0.479343
9978.000000;0.478650
9977.000000;0.477809
9976.000000;0.477009
9975.000000;0.476345
9974.000000;0.475879
9973.000000;0.475639
9972.000000;0.475504
9971.000000;0.475270
9970.000000;0.474910
9969.000000;0.474583
9968.000000;0.474326
9967.000000;0.473974
9966.000000;0.473445
9965.000000;0.472864
9964.000000;0.472301
9963.000000;0.471638
9962.000000;0.470809
9961.000000;0.469989
9960.000000;0.469394
9959.000000;0.469044
9958.000000;0.468806
9957.000000;0.468519
9956.000000;0.468017
9955.000000;0.467234
9954.000000;0.466382
9953.000000;0.465803
9952.000000;0.465554
9951.000000;0.465329
9950.000000;0.464868
9949.000000;0.464233
9948.000000;0.463585
9947.000000;0.462929
9946.000000;0.462257
9945.000000;0.461689
9944.000000;0.461297
9943.000000;0.460940
9942.000000;0.460465
9941.000000;0.459939
9940.000000;0.459514
9939.000000;0.459193
9938.000000;0.458867
9937.000000;0.458470
9936.000000;0.457980
9935.000000;0.457367
9934.000000;0.456647
9933.000000;0.455913
9932.000000;0.455243
9931.000000;0.454671
9930.000000;0.454268
9929.000000;0.454080
9928.000000;0.453936
9927.000000;0.453530
9926.000000;0.452781
9925.000000;0.451957
9924.000000;0.451360
9923.000000;0.451041
9922.000000;0.450903
9921.000000;0.450866
9920.000000;0.450806
9919.000000;0.450528
9918.000000;0.449959
9917.000000;0.449256
9916.000000;0.448583
9915.000000;0.447916
9914.000000;0.447159
9913.000000;0.446328
9912.000000;0.445499
9911.000000;0.444716
9910.000000;0.444039
9909.000000;0.443567
9908.000000;0.443320
9907.000000;0.443176
9906.000000;0.443011
9905.000000;0.442771
9904.000000;0.442398
9903.000000;0.441823
9902.000000;0.441109
9901.000000;0.440441
9900.000000;0.439912
9899.000000;0.439472
9898.000000;0.439102
9897.000000;0.438852
9896.000000;0.438651
9895.000000;0.438296
9894.000000;0.437749
9893.000000;0.437231
9892.000000;0.436917
9891.000000;0.436693
9890.000000;0.436335
9889.000000;0.435792
9888.000000;0.435158
9887.000000;0.434529
9886.000000;0.433998
9885.000000;0.433638
9884.000000;0.433370
9883.000000;0.432951
9882.000000;0.432231
9881.000000;0.431317
9880.000000;0.430429
9879.000000;0.429705
9878.000000;0.429189
9877.000000;0.428866
9876.000000;0.428617
9875.000000;0.428295
9874.000000;0.427916
9873.000000;0.427630
9872.000000;0.427437
9871.000000;0.427111
9870.000000;0.426509
9869.000000;0.425781
9868.000000;0.425145
9867.000000;0.424603
9866.000000;0.424021
9865.000000;0.423367
9864.000000;0.422749
9863.000000;0.422265
9862.000000;0.421934
9861.000000;0.421700
9860.000000;0.421436
9859.000000;0.421020
9858.000000;0.420460
9857.000000;0.419886
9856.000000;0.419398
9855.000000;0.418989
9854.000000;0.418621
9853.000000;0.418263
9852.000000;0.417864
9851.000000;0.417411
9850.000000;0.417009
9849.000000;0.416737
9848.000000;0.416445
9847.000000;0.415875
9846.000000;0.415013
9845.000000;0.414134
9844.000000;0.413472
9843.000000;0.413008
9842.000000;0.412632
9841.000000;0.412295
9840.000000;0.411953
9839.000000;0.411550
9838.000000;0.411120
9837.000000;0.410753
9836.000000;0.410396
9835.000000;0.409862
9834.000000;0.409086
9833.000000;0.408206
9832.000000;0.407370
9831.000000;0.406636
9830.000000;0.406097
9829.000000;0.405856
9828.000000;0.405804
9827.000000;0.405619
9826.000000;0.405105
9825.000000;0.404379
9824.000000;0.403654
9823.000000;0.403026
9822.000000;0.402532
9821.000000;0.402229
9820.000000;0.402092
9819.000000;0.401992
9818.000000;0.401847
9817.000000;0.401675
9816.000000;0.401436
9815.000000;0.401021
9814.000000;0.400457
9813.000000;0.399925
9812.000000;0.399481
9811.000000;0.398951
9810.000000;0.398205
9809.000000;0.397364
9808.000000;0.396642
9807.000000;0.396133
9806.000000;0.395824
9805.000000;0.395667
9804.000000;0.395532
9803.000000;0.395254
9802.000000;0.394796
9801.000000;0.394257
9800.000000;0.393686
9799.000000;0.393062
9798.000000;0.392468
9797.000000;0.392052
9796.000000;0.391750
9795.000000;0.391301
9794.000000;0.390632
9793.000000;0.389994
9792.000000;0.389603
9791.000000;0.389350
9790.000000;0.389009
9789.000000;0.388542
9788.000000;0.388059
9787.000000;0.387646
9786.000000;0.387362
9785.000000;0.387218
9784.000000;0.387043
9783.000000;0.386545
9782.000000;0.385646
9781.000000;0.384617
9780.000000;0.383754
9779.000000;0.383095
9778.000000;0.382563
9777.000000;0.382194
9776.000000;0.382031
9775.000000;0.381934
9774.000000;0.381693
9773.000000;0.381239
9772.000000;0.380652
9771.000000;0.380044
9770.000000;0.379537
9769.000000;0.379217
9768.000000;0.378996
9767.000000;0.378641
9766.000000;0.378056
9765.000000;0.377410
9764.000000;0.376881
9763.000000;0.376442
9762.000000;0.375997
9761.000000;0.375586
9760.000000;0.375273
9759.000000;0.374977
9758.000000;0.374578
9757.000000;0.374098
9756.000000;0.373633
9755.000000;0.373158
9754.000000;0.372568
9753.000000;0.371843
9752.000000;0.371093
9751.000000;0.370454
9750.000000;0.370022
9749.000000;0.369799
9748.000000;0.369646
9747.000000;0.369358
9746.000000;0.368864
9745.000000;0.368280
9744.000000;0.367732
9743.000000;0.367223
9742.000000;0.366722
9741.000000;0.366265
9740.000000;0.365893
9739.000000;0.365567
9738.000000;0.365208
9737.000000;0.364757
9736.000000;0.364194
9735.000000;0.363580
9734.000000;0.363105
9733.000000;0.362920
9732.000000;0.362913
9731.000000;0.362779
9730.000000;0.362360
9729.000000;0.361775
9728.000000;0.361188
9727.000000;0.360613
9726.000000;0.360012
9725.000000;0.359411
9724.000000;0.358839
9723.000000;0.358284
9722.000000;0.357769
9721.000000;0.357347
9720.000000;0.356957
9719.000000;0.356461
9718.000000;0.355878
9717.000000;0.355415
9716.000000;0.355184
9715.000000;0.355035
9714.000000;0.354770
9713.000000;0.354364
9712.000000;0.353895
9711.000000;0.353395
9710.000000;0.352892
9709.000000;0.352476
9708.000000;0.352185
9707.000000;0.351934
9706.000000;0.351625
9705.000000;0.351249
9704.000000;0.350804
9703.000000;0.350253
9702.000000;0.349609
9701.000000;0.348956
9700.000000;0.348321
9699.000000;0.347668
9698.000000;0.347052
9697.000000;0.346633
9696.000000;0.346455
9695.000000;0.346349
9694.000000;0.346137
9693.000000;0.345813
9692.000000;0.345447
9691.000000;0.345056
9690.000000;0.344652
9689.000000;0.344260
9688.000000;0.343824
9687.000000;0.343235
9686.000000;0.342546
9685.000000;0.341990
9684.000000;0.341689
9683.000000;0.341472
9682.000000;0.341090
9681.000000;0.340500
9680.000000;0.339816
9679.000000;0.339134
9678.000000;0.338509
9677.000000;0.338016
9676.000000;0.337683
9675.000000;0.337435
9674.000000;0.337190
9673.000000;0.336940
9672.000000;0.336681
9671.000000;0.336374
9670.000000;0.336028
9669.000000;0.335715
9668.000000;0.335426
9667.000000;0.335016
9666.000000;0.334370
9665.000000;0.333554
9664.000000;0.332729
9663.000000;0.332029
9662.000000;0.331546
9661.000000;0.331296
9660.000000;0.331139
9659.000000;0.330840
9658.000000;0.330318
9657.000000;0.329730
9656.000000;0.329261
9655.000000;0.328936
9654.000000;0.328687
9653.000000;0.328463
9652.000000;0.328189
9651.000000;0.327752
9650.000000;0.327128
9649.000000;0.326454
9648.000000;0.325885
9647.000000;0.325456
9646.000000;0.325114
9645.000000;0.324784
9644.000000;0.324375
9643.000000;0.323844
9642.000000;0.323312
9641.000000;0.322973
9640.000000;0.322838
9639.000000;0.322679
9638.000000;0.322307
9637.000000;0.321768
9636.000000;0.321220
9635.000000;0.320734
9634.000000;0.320306
9633.000000;0.319923
9632.000000;0.319536
9631.000000;0.319080
9630.000000;0.318598
9629.000000;0.318217
9628.000000;0.317951
9627.000000;0.317639
9626.000000;0.317177
9625.000000;0.316670
9624.000000;0.316274
9623.000000;0.315982
9622.000000;0.315668
9621.000000;0.315258
9620.000000;0.314775
9619.000000;0.314280
9618.000000;0.313839
9617.000000;0.313457
9616.000000;0.313025
9615.000000;0.312444
9614.000000;0.311801
9613.000000;0.311309
9612.000000;0.311013
9611.000000;0.310746
9610.000000;0.310384
9609.000000;0.310009
9608.000000;0.309724
9607.000000;0.309481
9606.000000;0.309189
9605.000000;0.308844
9604.000000;0.308447
9603.000000;0.307929
9602.000000;0.307286
9601.000000;0.306672
9600.000000;0.306237
9599.000000;0.305963
9598.000000;0.305740
9597.000000;0.305498
9596.000000;0.305182
9595.000000;0.304726
9594.000000;0.304154
9593.000000;0.303605
9592.000000;0.303152
9591.000000;0.302696
9590.000000;0.302161
9589.000000;0.301650
9588.000000;0.301316
9587.000000;0.301140
9586.000000;0.300982
9585.000000;0.300760
9584.000000;0.300484
9583.000000;0.300154
9582.000000;0.299754
9581.000000;0.299293
9580.000000;0.298769
9579.000000;0.298158
9578.000000;0.297495
9577.000000;0.296918
9576.000000;0.296535
9575.000000;0.296292
9574.000000;0.296044
9573.000000;0.295718
9572.000000;0.295344
9571.000000;0.294981
9570.000000;0.294667
9569.000000;0.294411
9568.000000;0.294178
9567.000000;0.293910
9566.000000;0.293588
9565.000000;0.293213
9564.000000;0.292733
9563.000000;0.292070
9562.000000;0.291282
9561.000000;0.290581
9560.000000;0.290135
9559.000000;0.289883
9558.000000;0.289606
9557.000000;0.289163
9556.000000;0.288600
9555.000000;0.288101
9554.000000;0.287819
9553.000000;0.287726
9552.000000;0.287618
9551.000000;0.287303
9550.000000;0.286796
9549.000000;0.286254
9548.000000;0.285779
9547.000000;0.285369
9546.000000;0.285035
9545.000000;0.284816
9544.000000;0.284682
9543.000000;0.284537
9542.000000;0.284340
9541.000000;0.284111
9540.000000;0.283830
9539.000000;0.283450
9538.000000;0.283007
9537.000000;0.282589
9536.000000;0.282178
9535.000000;0.281687
9534.000000;0.281149
9533.000000;0.280715
9532.000000;0.280408
9531.000000;0.280056
9530.000000;0.279531
9529.000000;0.278946
9528.000000;0.278489
9527.000000;0.278198
9526.000000;0.277951
9525.000000;0.277636
9524.000000;0.277237
9523.000000;0.276815
9522.000000;0.276436
9521.000000;0.276074
9520.000000;0.275614
9519.000000;0.275024
9518.000000;0.274479
9517.000000;0.274192
9516.000000;0.274126
9515.000000;0.274041
9514.000000;0.273793
9513.000000;0.273442
9512.000000;0.273045
9511.000000;0.272564
9510.000000;0.272042
9509.000000;0.271648
9508.000000;0.271441
9507.000000;0.271231
9506.000000;0.270814
9505.000000;0.270220
9504.000000;0.269641
9503.000000;0.269195
9502.000000;0.268878
9501.000000;0.268656
9500.000000;0.268489
9499.000000;0.268324
9498.000000;0.268116
9497.000000;0.267831
9496.000000;0.267413
9495.000000;0.266837
9494.000000;0.266209
9493.000000;0.265692
9492.000000;0.265316
9491.000000;0.264960
9490.000000;0.264552
9489.000000;0.264146
9488.000000;0.263778
9487.000000;0.263370
9486.000000;0.262855
9485.000000;0.262299
9484.000000;0.261815
9483.000000;0.261454
9482.000000;0.261218
9481.000000;0.261075
9480.000000;0.260903
9479.000000;0.260556
9478.000000;0.260029
9477.000000;0.259492
9476.000000;0.259090
9475.000000;0.258797
9474.000000;0.258515
9473.000000;0.258200
9472.000000;0.257852
9471.000000;0.257464
9470.000000;0.257063
9469.000000;0.256703
9468.000000;0.256394
9467.000000;0.256083
9466.000000;0.255748
9465.000000;0.255409
9464.000000;0.255041
9463.000000;0.254591
9462.000000;0.254094
9461.000000;0.253674
9460.000000;0.253371
9459.000000;0.253105
9458.000000;0.252822
9457.000000;0.252570
9456.000000;0.252354
9455.000000;0.252063
9454.000000;0.251625
9453.000000;0.251128
9452.000000;0.250709
9451.000000;0.250397
9450.000000;0.250124
9449.000000;0.249828
9448.000000;0.249482
9447.000000;0.249096
9446.000000;0.248729
9445.000000;0.248440
9444.000000;0.248203
9443.000000;0.247941
9442.000000;0.247646
9441.000000;0.247387
9440.000000;0.247172
9439.000000;0.246914
9438.000000;0.246564
9437.000000;0.246176
9436.000000;0.245808
9435.000000;0.245449
9434.000000;0.245080
9433.000000;0.244722
9432.000000;0.244381
9431.000000;0.244039
9430.000000;0.243717
9429.000000;0.243448
9428.000000;0.243186
9427.000000;0.242828
9426.000000;0.242361
9425.000000;0.241887
9424.000000;0.241480
9423.000000;0.241115
9422.000000;0.240761
9421.000000;0.240439
9420.000000;0.240161
9419.000000;0.239905
9418.000000;0.239685
9417.000000;0.239536
9416.000000;0.239404
9415.000000;0.239151
9414.000000;0.238696
9413.000000;0.238082
9412.000000;0.237399
9411.000000;0.236748
9410.000000;0.236270
9409.000000;0.236055
9408.000000;0.235980
9407.000000;0.235777
9406.000000;0.235307
9405.000000;0.234695
9404.000000;0.234147
9403.000000;0.233746
9402.000000;0.233455
9401.000000;0.233227
9400.000000;0.233035
9399.000000;0.232861
9398.000000;0.232693
9397.000000;0.232482
9396.000000;0.232155
9395.000000;0.231708
9394.000000;0.231271
9393.000000;0.230959
9392.000000;0.230713
9391.000000;0.230418
9390.000000;0.230120
9389.000000;0.229958
9388.000000;0.229895
9387.000000;0.229716
9386.000000;0.229327
9385.000000;0.228863
9384.000000;0.228457
9383.000000;0.228080
9382.000000;0.227681
9381.000000;0.227320
9380.000000;0.227051
9379.000000;0.226793
9378.000000;0.226430
9377.000000;0.225953
9376.000000;0.225453
9375.000000;0.225029
9374.000000;0.224748
9373.000000;0.224603
9372.000000;0.224487
9371.000000;0.224273
9370.000000;0.223958
9369.000000;0.223655
9368.000000;0.223422
9367.000000;0.223198
9366.000000;0.222884
9365.000000;0.222425
9364.000000;0.221814
9363.000000;0.221141
9362.000000;0.220613
9361.000000;0.220385
9360.000000;0.220367
9359.000000;0.220317
9358.000000;0.220105
9357.000000;0.219788
9356.000000;0.219428
9355.000000;0.219028
9354.000000;0.218639
9353.000000;0.218354
9352.000000;0.218157
9351.000000;0.217918
9350.000000;0.217595
9349.000000;0.217284
9348.000000;0.217042
9347.000000;0.216803
9346.000000;0.216496
9345.000000;0.216131
9344.000000;0.215720
9343.000000;0.215259
9342.000000;0.214822
9341.000000;0.214528
9340.000000;0.214380
9339.000000;0.214248
9338.000000;0.214054
9337.000000;0.213818
9336.000000;0.213532
9335.000000;0.213128
9334.000000;0.212626
9333.000000;0.212163
9332.000000;0.211843
9331.000000;0.211671
9330.000000;0.211639
9329.000000;0.211701
9328.000000;0.211669
9327.000000;0.211337
9326.000000;0.210755
9325.000000;0.210208
9324.000000;0.209851
9323.000000;0.209570
9322.000000;0.209229
9321.000000;0.208865
9320.000000;0.208530
9319.000000;0.208163
9318.000000;0.207724
9317.000000;0.207323
9316.000000;0.207066
9315.000000;0.206912
9314.000000;0.206768
9313.000000;0.206615
9312.000000;0.206439
9311.000000;0.206181
9310.000000;0.205837
9309.000000;0.205496
9308.000000;0.205203
9307.000000;0.204899
9306.000000;0.204559
9305.000000;0.204244
9304.000000;0.203950
9303.000000;0.203579
9302.000000;0.203141
9301.000000;0.202826
9300.000000;0.202745
9299.000000;0.202750
9298.000000;0.202624
9297.000000;0.202320
9296.000000;0.201901
9295.000000;0.201393
9294.000000;0.200874
9293.000000;0.200543
9292.000000;0.200511
9291.000000;0.200595
9290.000000;0.200483
9289.000000;0.200070
9288.000000;0.199508
9287.000000;0.198983
9286.000000;0.198582
9285.000000;0.198327
9284.000000;0.198179
9283.000000;0.198026
9282.000000;0.197761
9281.000000;0.197384
9280.000000;0.196980
9279.000000;0.196620
9278.000000;0.196349
9277.000000;0.196195
9276.000000;0.196128
9275.000000;0.196046
9274.000000;0.195876
9273.000000;0.195649
9272.000000;0.195405
9271.000000;0.195100
9270.000000;0.194673
9269.000000;0.194166
9268.000000;0.193699
9267.000000;0.193349
9266.000000;0.193122
9265.000000;0.192988
9264.000000;0.192915
9263.000000;0.192868
9262.000000;0.192815
9261.000000;0.192726
9260.000000;0.192548
9259.000000;0.192241
9258.000000;0.191831
9257.000000;0.191398
9256.000000;0.191004
9255.000000;0.190672
9254.000000;0.190422
9253.000000;0.190247
9252.000000;0.190061
9251.000000;0.189764
9250.000000;0.189385
9249.000000;0.189068
9248.000000;0.188887
9247.000000;0.188757
9246.000000;0.188549
9245.000000;0.188230
9244.000000;0.187854
9243.000000;0.187499
9242.000000;0.187225
9241.000000;0.187024
9240.000000;0.186799
9239.000000;0.186474
9238.000000;0.186102
9237.000000;0.185791
9236.000000;0.185543
9235.000000;0.185270
9234.000000;0.184961
9233.000000;0.184696
9232.000000;0.184477
9231.000000;0.184199
9230.000000;0.183803
9229.000000;0.183373
9228.000000;0.183013
9227.000000;0.182765
9226.000000;0.182658
9225.000000;0.182712
9224.000000;0.182834
9223.000000;0.182846
9222.000000;0.182661
9221.000000;0.182358
9220.000000;0.182035
9219.000000;0.181696
9218.000000;0.181319
9217.000000;0.180924
9216.000000;0.180533
9215.000000;0.180167
9214.000000;0.179905
9213.000000;0.179836
9212.000000;0.179898
9211.000000;0.179882
9210.000000;0.179648
9209.000000;0.179266
9208.000000;0.178897
9207.000000;0.178631
9206.000000;0.178483
9205.000000;0.178411
9204.000000;0.178313
9203.000000;0.178096
9202.000000;0.177798
9201.000000;0.177533
9200.000000;0.177299
9199.000000;0.176959
9198.000000;0.176456
9197.000000;0.175926
9196.000000;0.175530
9195.000000;0.175298
9194.000000;0.175179
9193.000000;0.175129
9192.000000;0.175074
9191.000000;0.174894
9190.000000;0.174545
9189.000000;0.174123
9188.000000;0.173752
9187.000000;0.173471
9186.000000;0.173284
9185.000000;0.173196
9184.000000;0.173163
9183.000000;0.173080
9182.000000;0.172886
9181.000000;0.172607
9180.000000;0.172281
9179.000000;0.171907
9178.000000;0.171522
9177.000000;0.171212
9176.000000;0.170998
9175.000000;0.170807
9174.000000;0.170602
9173.000000;0.170447
9172.000000;0.170374
9171.000000;0.170294
9170.000000;0.170100
9169.000000;0.169790
9168.000000;0.169425
9167.000000;0.169050
9166.000000;0.168695
9165.000000;0.168397
9164.000000;0.168157
9163.000000;0.167937
9162.000000;0.167739
9161.000000;0.167611
9160.000000;0.167534
9159.000000;0.167408
9158.000000;0.167154
9157.000000;0.166791
9156.000000;0.166380
9155.000000;0.165986
9154.000000;0.165695
9153.000000;0.165562
9152.000000;0.165526
9151.000000;0.165462
9150.000000;0.165339
9149.000000;0.165221
9148.000000;0.165101
9147.000000;0.164873
9146.000000;0.164518
9145.000000;0.164166
9144.000000;0.163915
9143.000000;0.163718
9142.000000;0.163503
9141.000000;0.163300
9140.000000;0.163154
9139.000000;0.163026
9138.000000;0.162855
9137.000000;0.162646
9136.000000;0.162413
9135.000000;0.162129
9134.000000;0.161795
9133.000000;0.161480
9132.000000;0.161230
9131.000000;0.160997
9130.000000;0.160729
9129.000000;0.160460
9128.000000;0.160238
9127.000000;0.160045
9126.000000;0.159837
9125.000000;0.159621
9124.000000;0.159425
9123.000000;0.159267
9122.000000;0.159156
9121.000000;0.159083
9120.000000;0.158982
9119.000000;0.158785
9118.000000;0.158532
9117.000000;0.158342
9116.000000;0.158250
9115.000000;0.158159
9114.000000;0.157993
9113.000000;0.157783
9112.000000;0.157572
9111.000000;0.157347
9110.000000;0.157097
9109.000000;0.156854
9108.000000;0.156608
9107.000000;0.156303
9106.000000;0.155950
9105.000000;0.155663
9104.000000;0.155509
9103.000000;0.155409
9102.000000;0.155250
9101.000000;0.155022
9100.000000;0.154794
9099.000000;0.154604
9098.000000;0.154452
9097.000000;0.154307
9096.000000;0.154121
9095.000000;0.153879
9094.000000;0.153663
9093.000000;0.153563
9092.000000;0.153520
9091.000000;0.153364
9090.000000;0.153043
9089.000000;0.152694
9088.000000;0.152446
9087.000000;0.152277
9086.000000;0.152128
9085.000000;0.152017
9084.000000;0.151958
9083.000000;0.151854
9082.000000;0.151601
9081.000000;0.151242
9080.000000;0.150923
9079.000000;0.150738
9078.000000;0.150669
9077.000000;0.150632
9076.000000;0.150529
9075.000000;0.150303
9074.000000;0.149997
9073.000000;0.149728
9072.000000;0.149558
9071.000000;0.149438
9070.000000;0.149289
9069.000000;0.149066
9068.000000;0.148757
9067.000000;0.148377
9066.000000;0.148024
9065.000000;0.147824
9064.000000;0.147784
9063.000000;0.147765
9062.000000;0.147630
9061.000000;0.147361
9060.000000;0.147017
9059.000000;0.146669
9058.000000;0.146395
9057.000000;0.146239
9056.000000;0.146136
9055.000000;0.145965
9054.000000;0.145723
9053.000000;0.145545
