Criado como novo conjunto de dados;"e2410_daniel_v2.spp","26823.2 Secs"
cm-1;Abs
10000.000000;0.523569
9999.000000;0.523238
9998.000000;0.522906
9997.000000;0.522575
9996.000000;0.522244
9995.000000;0.521914
9994.000000;0.521583
9993.000000;0.521255
9992.000000;0.520916
9991.000000;0.520893
9990.000000;0.521008
9989.000000;0.520890
9988.000000;0.520416
9987.000000;0.519762
9986.000000;0.519012
9985.000000;0.518058
9984.000000;0.517022
9983.000000;0.516334
9982.000000;0.516171
9981.000000;0.516168
9980.000000;0.515911
9979.000000;0.515382
9978.000000;0.514732
9977.000000;0.513953
9976.000000;0.513038
9975.000000;0.512200
9974.000000;0.511637
9973.000000;0.511304
9972.000000;0.511057
9971.000000;0.510836
9970.000000;0.510546
9969.000000;0.510022
9968.000000;0.509288
9967.000000;0.508582
9966.000000;0.507999
9965.000000;0.507375
9964.000000;0.506658
9963.000000;0.506099
9962.000000;0.505863
9961.000000;0.505752
9960.000000;0.505495
9959.000000;0.505078
9958.000000;0.504596
9957.000000;0.504047
9956.000000;0.503458
9955.000000;0.502965
9954.000000;0.502603
9953.000000;0.502217
9952.000000;0.501759
9951.000000;0.501389
9950.000000;0.501149
9949.000000;0.500805
9948.000000;0.500219
9947.000000;0.499585
9946.000000;0.499096
9945.000000;0.498618
9944.000000;0.497937
9943.000000;0.497107
9942.000000;0.496338
9941.000000;0.495721
9940.000000;0.495258
9939.000000;0.494992
9938.000000;0.494878
9937.000000;0.494701
9936.000000;0.494279
9935.000000;0.493653
9934.000000;0.492924
9933.000000;0.492105
9932.000000;0.491242
9931.000000;0.490520
9930.000000;0.490077
9929.000000;0.489853
9928.000000;0.489727
9927.000000;0.489634
9926.000000;0.489485
9925.000000;0.489151
9924.000000;0.488649
9923.000000;0.488146
9922.000000;0.487688
9921.000000;0.487110
9920.000000;0.486335
9919.000000;0.485539
9918.000000;0.484903
9917.000000;0.484407
9916.000000;0.483974
9915.000000;0.483625
9914.000000;0.483358
9913.000000;0.483042
9912.000000;0.482574
9911.000000;0.481991
9910.000000;0.481339
9909.000000;0.480602
9908.000000;0.479826
9907.000000;0.479140
9906.000000;0.478586
9905.000000;0.478086
9904.000000;0.477633
9903.000000;0.477305
9902.000000;0.477048
9901.000000;0.476671
9900.000000;0.476134
9899.000000;0.475610
9898.000000;0.475178
9897.000000;0.474697
9896.000000;0.474085
9895.000000;0.473476
9894.000000;0.472997
9893.000000;0.472586
9892.000000;0.472149
9891.000000;0.471722
9890.000000;0.471369
9889.000000;0.471078
9888.000000;0.470838
9887.000000;0.470648
9886.000000;0.470405
9885.000000;0.469964
9884.000000;0.469376
9883.000000;0.468869
9882.000000;0.468518
9881.000000;0.468136
9880.000000;0.467543
9879.000000;0.466744
9878.000000;0.465817
9877.000000;0.464847
9876.000000;0.464021
9875.000000;0.463537
9874.000000;0.463316
9873.000000;0.462989
9872.000000;0.462303
9871.000000;0.461400
9870.000000;0.460635
9869.000000;0.460258
9868.000000;0.460282
9867.000000;0.460486
9866.000000;0.460514
9865.000000;0.460151
9864.000000;0.459536
9863.000000;0.458977
9862.000000;0.458584
9861.000000;0.458256
9860.000000;0.457947
9859.000000;0.457687
9858.000000;0.457384
9857.000000;0.456892
9856.000000;0.456262
9855.000000;0.455662
9854.000000;0.455075
9853.000000;0.454353
9852.000000;0.453572
9851.000000;0.453015
9850.000000;0.452756
9849.000000;0.452567
9848.000000;0.452249
9847.000000;0.451799
9846.000000;0.451200
9845.000000;0.450395
9844.000000;0.449516
9843.000000;0.448855
9842.000000;0.448489
9841.000000;0.448197
9840.000000;0.447813
9839.000000;0.447394
9838.000000;0.446998
9837.000000;0.446577
9836.000000;0.446159
9835.000000;0.445852
9834.000000;0.445575
9833.000000;0.445072
9832.000000;0.444301
9831.000000;0.443536
9830.000000;0.442994
9829.000000;0.442607
9828.000000;0.442228
9827.000000;0.441833
9826.000000;0.441396
9825.000000;0.440836
9824.000000;0.440199
9823.000000;0.439691
9822.000000;0.439409
9821.000000;0.439215
9820.000000;0.438935
9819.000000;0.438516
9818.000000;0.437960
9817.000000;0.437318
9816.000000;0.436752
9815.000000;0.436384
9814.000000;0.436062
9813.000000;0.435530
9812.000000;0.434833
9811.000000;0.434282
9810.000000;0.434002
9809.000000;0.433800
9808.000000;0.433499
9807.000000;0.433103
9806.000000;0.432596
9805.000000;0.431872
9804.000000;0.430984
9803.000000;0.430178
9802.000000;0.429594
9801.000000;0.429137
9800.000000;0.428714
9799.000000;0.428353
9798.000000;0.428068
9797.000000;0.427822
9796.000000;0.427656
9795.000000;0.427582
9794.000000;0.427369
9793.000000;0.426736
9792.000000;0.425808
9791.000000;0.425034
9790.000000;0.424629
9789.000000;0.424389
9788.000000;0.424122
9787.000000;0.423886
9786.000000;0.423704
9785.000000;0.423391
9784.000000;0.422836
9783.000000;0.422180
9782.000000;0.421573
9781.000000;0.420994
9780.000000;0.420432
9779.000000;0.419974
9778.000000;0.419593
9777.000000;0.419113
9776.000000;0.418501
9775.000000;0.417962
9774.000000;0.417610
9773.000000;0.417289
9772.000000;0.416828
9771.000000;0.416258
9770.000000;0.415658
9769.000000;0.415029
9768.000000;0.414429
9767.000000;0.414007
9766.000000;0.413791
9765.000000;0.413622
9764.000000;0.413384
9763.000000;0.413070
9762.000000;0.412615
9761.000000;0.411898
9760.000000;0.411015
9759.000000;0.410264
9758.000000;0.409772
9757.000000;0.409361
9756.000000;0.408892
9755.000000;0.408464
9754.000000;0.408179
9753.000000;0.407930
9752.000000;0.407584
9751.000000;0.407153
9750.000000;0.406684
9749.000000;0.406151
9748.000000;0.405572
9747.000000;0.405056
9746.000000;0.404641
9745.000000;0.404261
9744.000000;0.403899
9743.000000;0.403598
9742.000000;0.403292
9741.000000;0.402849
9740.000000;0.402321
9739.000000;0.401924
9738.000000;0.401700
9737.000000;0.401447
9736.000000;0.401027
9735.000000;0.400499
9734.000000;0.399910
9733.000000;0.399225
9732.000000;0.398519
9731.000000;0.397997
9730.000000;0.397708
9729.000000;0.397455
9728.000000;0.397062
9727.000000;0.396536
9726.000000;0.395925
9725.000000;0.395256
9724.000000;0.394645
9723.000000;0.394244
9722.000000;0.393998
9721.000000;0.393706
9720.000000;0.393331
9719.000000;0.393032
9718.000000;0.392840
9717.000000;0.392569
9716.000000;0.392107
9715.000000;0.391539
9714.000000;0.390919
9713.000000;0.390214
9712.000000;0.389522
9711.000000;0.389074
9710.000000;0.388893
9709.000000;0.388725
9708.000000;0.388378
9707.000000;0.387915
9706.000000;0.387417
9705.000000;0.386858
9704.000000;0.386306
9703.000000;0.385956
9702.000000;0.385825
9701.000000;0.385635
9700.000000;0.385142
9699.000000;0.384408
9698.000000;0.383635
9697.000000;0.382944
9696.000000;0.382404
9695.000000;0.382057
9694.000000;0.381811
9693.000000;0.381477
9692.000000;0.381010
9691.000000;0.380535
9690.000000;0.380096
9689.000000;0.379596
9688.000000;0.379032
9687.000000;0.378559
9686.000000;0.378245
9685.000000;0.377959
9684.000000;0.377594
9683.000000;0.377186
9682.000000;0.376766
9681.000000;0.376288
9680.000000;0.375760
9679.000000;0.375256
9678.000000;0.374748
9677.000000;0.374163
9676.000000;0.373590
9675.000000;0.373193
9674.000000;0.372912
9673.000000;0.372513
9672.000000;0.371980
9671.000000;0.371557
9670.000000;0.371351
9669.000000;0.371160
9668.000000;0.370789
9667.000000;0.370282
9666.000000;0.369746
9665.000000;0.369209
9664.000000;0.368736
9663.000000;0.368434
9662.000000;0.368236
9661.000000;0.367926
9660.000000;0.367441
9659.000000;0.366915
9658.000000;0.366389
9657.000000;0.365747
9656.000000;0.365029
9655.000000;0.364480
9654.000000;0.364184
9653.000000;0.363917
9652.000000;0.363512
9651.000000;0.363092
9650.000000;0.362808
9649.000000;0.362588
9648.000000;0.362327
9647.000000;0.362074
9646.000000;0.361861
9645.000000;0.361543
9644.000000;0.360997
9643.000000;0.360313
9642.000000;0.359661
9641.000000;0.359118
9640.000000;0.358724
9639.000000;0.358502
9638.000000;0.358328
9637.000000;0.357958
9636.000000;0.357315
9635.000000;0.356600
9634.000000;0.356016
9633.000000;0.355548
9632.000000;0.355110
9631.000000;0.354702
9630.000000;0.354348
9629.000000;0.354024
9628.000000;0.353738
9627.000000;0.353529
9626.000000;0.353308
9625.000000;0.352898
9624.000000;0.352288
9623.000000;0.351681
9622.000000;0.351220
9621.000000;0.350842
9620.000000;0.350448
9619.000000;0.350044
9618.000000;0.349628
9617.000000;0.349151
9616.000000;0.348638
9615.000000;0.348181
9614.000000;0.347759
9613.000000;0.347263
9612.000000;0.346733
9611.000000;0.346361
9610.000000;0.346191
9609.000000;0.346037
9608.000000;0.345762
9607.000000;0.345419
9606.000000;0.345041
9605.000000;0.344544
9604.000000;0.343936
9603.000000;0.343405
9602.000000;0.343071
9601.000000;0.342817
9600.000000;0.342477
9599.000000;0.342030
9598.000000;0.341517
9597.000000;0.340936
9596.000000;0.340334
9595.000000;0.339834
9594.000000;0.339501
9593.000000;0.339275
9592.000000;0.339078
9591.000000;0.338868
9590.000000;0.338540
9589.000000;0.337982
9588.000000;0.337280
9587.000000;0.336713
9586.000000;0.336462
9585.000000;0.336434
9584.000000;0.336386
9583.000000;0.336124
9582.000000;0.335575
9581.000000;0.334850
9580.000000;0.334225
9579.000000;0.333897
9578.000000;0.333768
9577.000000;0.333592
9576.000000;0.333288
9575.000000;0.332910
9574.000000;0.332428
9573.000000;0.331790
9572.000000;0.331151
9571.000000;0.330743
9570.000000;0.330495
9569.000000;0.330095
9568.000000;0.329464
9567.000000;0.328874
9566.000000;0.328524
9565.000000;0.328292
9564.000000;0.327987
9563.000000;0.327594
9562.000000;0.327158
9561.000000;0.326671
9560.000000;0.326174
9559.000000;0.325778
9558.000000;0.325485
9557.000000;0.325168
9556.000000;0.324797
9555.000000;0.324458
9554.000000;0.324141
9553.000000;0.323712
9552.000000;0.323185
9551.000000;0.322761
9550.000000;0.322535
9549.000000;0.322349
9548.000000;0.322036
9547.000000;0.321607
9546.000000;0.321126
9545.000000;0.320593
9544.000000;0.320046
9543.000000;0.319581
9542.000000;0.319208
9541.000000;0.318843
9540.000000;0.318470
9539.000000;0.318136
9538.000000;0.317775
9537.000000;0.317251
9536.000000;0.316615
9535.000000;0.316113
9534.000000;0.315886
9533.000000;0.315842
9532.000000;0.315847
9531.000000;0.315830
9530.000000;0.315677
9529.000000;0.315281
9528.000000;0.314734
9527.000000;0.314268
9526.000000;0.313949
9525.000000;0.313633
9524.000000;0.313242
9523.000000;0.312850
9522.000000;0.312473
9521.000000;0.312019
9520.000000;0.311492
9519.000000;0.311025
9518.000000;0.310650
9517.000000;0.310264
9516.000000;0.309846
9515.000000;0.309470
9514.000000;0.309079
9513.000000;0.308524
9512.000000;0.307877
9511.000000;0.307417
9510.000000;0.307221
9509.000000;0.307033
9508.000000;0.306632
9507.000000;0.306096
9506.000000;0.305599
9505.000000;0.305190
9504.000000;0.304867
9503.000000;0.304650
9502.000000;0.304464
9501.000000;0.304170
9500.000000;0.303786
9499.000000;0.303470
9498.000000;0.303223
9497.000000;0.302852
9496.000000;0.302293
9495.000000;0.301743
9494.000000;0.301359
9493.000000;0.301054
9492.000000;0.300704
9491.000000;0.300346
9490.000000;0.300047
9489.000000;0.299773
9488.000000;0.299479
9487.000000;0.299174
9486.000000;0.298824
9485.000000;0.298365
9484.000000;0.297868
9483.000000;0.297488
9482.000000;0.297198
9481.000000;0.296795
9480.000000;0.296219
9479.000000;0.295659
9478.000000;0.295262
9477.000000;0.294965
9476.000000;0.294705
9475.000000;0.294534
9474.000000;0.294432
9473.000000;0.294241
9472.000000;0.293892
9471.000000;0.293518
9470.000000;0.293221
9469.000000;0.292925
9468.000000;0.292546
9467.000000;0.292137
9466.000000;0.291753
9465.000000;0.291359
9464.000000;0.290961
9463.000000;0.290639
9462.000000;0.290382
9461.000000;0.290057
9460.000000;0.289622
9459.000000;0.289216
9458.000000;0.288955
9457.000000;0.288793
9456.000000;0.288640
9455.000000;0.288434
9454.000000;0.288065
9453.000000;0.287456
9452.000000;0.286761
9451.000000;0.286274
9450.000000;0.286070
9449.000000;0.285942
9448.000000;0.285717
9447.000000;0.285434
9446.000000;0.285129
9445.000000;0.284729
9444.000000;0.284257
9443.000000;0.283888
9442.000000;0.283667
9441.000000;0.283369
9440.000000;0.282801
9439.000000;0.282064
9438.000000;0.281395
9437.000000;0.280891
9436.000000;0.280511
9435.000000;0.280207
9434.000000;0.279946
9433.000000;0.279706
9432.000000;0.279528
9431.000000;0.279444
9430.000000;0.279344
9429.000000;0.279040
9428.000000;0.278518
9427.000000;0.277945
9426.000000;0.277432
9425.000000;0.276955
9424.000000;0.276547
9423.000000;0.276319
9422.000000;0.276242
9421.000000;0.276102
9420.000000;0.275770
9419.000000;0.275318
9418.000000;0.274825
9417.000000;0.274275
9416.000000;0.273728
9415.000000;0.273368
9414.000000;0.273261
9413.000000;0.273237
9412.000000;0.273118
9411.000000;0.272913
9410.000000;0.272714
9409.000000;0.272516
9408.000000;0.272261
9407.000000;0.271923
9406.000000;0.271523
9405.000000;0.271114
9404.000000;0.270785
9403.000000;0.270535
9402.000000;0.270188
9401.000000;0.269603
9400.000000;0.268935
9399.000000;0.268489
9398.000000;0.268322
9397.000000;0.268208
9396.000000;0.267986
9395.000000;0.267690
9394.000000;0.267339
9393.000000;0.266868
9392.000000;0.266332
9391.000000;0.265913
9390.000000;0.265644
9389.000000;0.265349
9388.000000;0.264933
9387.000000;0.264522
9386.000000;0.264242
9385.000000;0.264054
9384.000000;0.263878
9383.000000;0.263696
9382.000000;0.263462
9381.000000;0.263117
9380.000000;0.262717
9379.000000;0.262390
9378.000000;0.262112
9377.000000;0.261743
9376.000000;0.261298
9375.000000;0.260942
9374.000000;0.260694
9373.000000;0.260396
9372.000000;0.260023
9371.000000;0.259750
9370.000000;0.259631
9369.000000;0.259475
9368.000000;0.259155
9367.000000;0.258790
9366.000000;0.258509
9365.000000;0.258246
9364.000000;0.257920
9363.000000;0.257593
9362.000000;0.257331
9361.000000;0.257073
9360.000000;0.256768
9359.000000;0.256460
9358.000000;0.256165
9357.000000;0.255812
9356.000000;0.255399
9355.000000;0.255026
9354.000000;0.254721
9353.000000;0.254392
9352.000000;0.254018
9351.000000;0.253702
9350.000000;0.253456
9349.000000;0.253147
9348.000000;0.252719
9347.000000;0.252287
9346.000000;0.251932
9345.000000;0.251600
9344.000000;0.251271
9343.000000;0.251016
9342.000000;0.250823
9341.000000;0.250558
9340.000000;0.250197
9339.000000;0.249876
9338.000000;0.249650
9337.000000;0.249395
9336.000000;0.249031
9335.000000;0.248641
9334.000000;0.248296
9333.000000;0.247961
9332.000000;0.247636
9331.000000;0.247389
9330.000000;0.247185
9329.000000;0.246912
9328.000000;0.246623
9327.000000;0.246509
9326.000000;0.246554
9325.000000;0.246480
9324.000000;0.246153
9323.000000;0.245764
9322.000000;0.245488
9321.000000;0.245229
9320.000000;0.244872
9319.000000;0.244537
9318.000000;0.244352
9317.000000;0.244199
9316.000000;0.243886
9315.000000;0.243445
9314.000000;0.243046
9313.000000;0.242752
9312.000000;0.242512
9311.000000;0.242293
9310.000000;0.242072
9309.000000;0.241786
9308.000000;0.241423
9307.000000;0.241059
9306.000000;0.240729
9305.000000;0.240350
9304.000000;0.239873
9303.000000;0.239374
9302.000000;0.238914
9301.000000;0.238459
9300.000000;0.238019
9299.000000;0.237716
9298.000000;0.237618
9297.000000;0.237617
9296.000000;0.237565
9295.000000;0.237414
9294.000000;0.237174
9293.000000;0.236864
9292.000000;0.236568
9291.000000;0.236388
9290.000000;0.236268
9289.000000;0.236027
9288.000000;0.235622
9287.000000;0.235210
9286.000000;0.234895
9285.000000;0.234588
9284.000000;0.234185
9283.000000;0.233735
9282.000000;0.233324
9281.000000;0.232973
9280.000000;0.232704
9279.000000;0.232540
9278.000000;0.232384
9277.000000;0.232061
9276.000000;0.231600
9275.000000;0.231258
9274.000000;0.231176
9273.000000;0.231187
9272.000000;0.231058
9271.000000;0.230777
9270.000000;0.230458
9269.000000;0.230138
9268.000000;0.229819
9267.000000;0.229552
9266.000000;0.229352
9265.000000;0.229125
9264.000000;0.228803
9263.000000;0.228457
9262.000000;0.228154
9261.000000;0.227845
9260.000000;0.227468
9259.000000;0.227071
9258.000000;0.226735
9257.000000;0.226461
9256.000000;0.226225
9255.000000;0.226041
9254.000000;0.225914
9253.000000;0.225796
9252.000000;0.225661
9251.000000;0.225523
9250.000000;0.225355
9249.000000;0.225105
9248.000000;0.224812
9247.000000;0.224579
9246.000000;0.224402
9245.000000;0.224168
9244.000000;0.223848
9243.000000;0.223546
9242.000000;0.223308
9241.000000;0.223051
9240.000000;0.222725
9239.000000;0.222394
9238.000000;0.222082
9237.000000;0.221726
9236.000000;0.221322
9235.000000;0.220962
9234.000000;0.220665
9233.000000;0.220322
9232.000000;0.219902
9231.000000;0.219534
9230.000000;0.219311
9229.000000;0.219171
9228.000000;0.219040
9227.000000;0.218938
9226.000000;0.218852
9225.000000;0.218673
9224.000000;0.218353
9223.000000;0.217992
9222.000000;0.217683
9221.000000;0.217398
9220.000000;0.217102
9219.000000;0.216843
9218.000000;0.216651
9217.000000;0.216468
9216.000000;0.216282
9215.000000;0.216170
9214.000000;0.216129
9213.000000;0.216000
9212.000000;0.215654
9211.000000;0.215178
9210.000000;0.214768
9209.000000;0.214529
9208.000000;0.214435
9207.000000;0.214389
9206.000000;0.214255
9205.000000;0.213932
9204.000000;0.213469
9203.000000;0.213032
9202.000000;0.212733
9201.000000;0.212548
9200.000000;0.212410
9199.000000;0.212259
9198.000000;0.212021
9197.000000;0.211653
9196.000000;0.211240
9195.000000;0.210921
9194.000000;0.210709
9193.000000;0.210518
9192.000000;0.210334
9191.000000;0.210213
9190.000000;0.210099
9189.000000;0.209846
9188.000000;0.209460
9187.000000;0.209122
9186.000000;0.208929
9185.000000;0.208793
9184.000000;0.208633
9183.000000;0.208483
9182.000000;0.208342
9181.000000;0.208097
9180.000000;0.207721
9179.000000;0.207367
9178.000000;0.207181
9177.000000;0.207126
9176.000000;0.207062
9175.000000;0.206880
9174.000000;0.206514
9173.000000;0.205970
9172.000000;0.205401
9171.000000;0.205006
9170.000000;0.204797
9169.000000;0.204602
9168.000000;0.204342
9167.000000;0.204125
9166.000000;0.204021
9165.000000;0.203917
9164.000000;0.203716
9163.000000;0.203502
9162.000000;0.203389
9161.000000;0.203330
9160.000000;0.203196
9159.000000;0.202956
9158.000000;0.202678
9157.000000;0.202427
9156.000000;0.202239
9155.000000;0.202106
9154.000000;0.201953
9153.000000;0.201696
9152.000000;0.201377
9151.000000;0.201140
9150.000000;0.201036
9149.000000;0.200963
9148.000000;0.200810
9147.000000;0.200552
9146.000000;0.200188
9145.000000;0.199733
9144.000000;0.199283
9143.000000;0.198949
9142.000000;0.198712
9141.000000;0.198466
9140.000000;0.198229
9139.000000;0.198124
9138.000000;0.198132
9137.000000;0.198052
9136.000000;0.197797
9135.000000;0.197532
9134.000000;0.197426
9133.000000;0.197432
9132.000000;0.197417
9131.000000;0.197350
9130.000000;0.197247
9129.000000;0.197057
9128.000000;0.196733
9127.000000;0.196332
9126.000000;0.195934
9125.000000;0.195553
9124.000000;0.195210
9123.000000;0.194994
9122.000000;0.194949
9121.000000;0.194953
9120.000000;0.194815
9119.000000;0.194459
9118.000000;0.193975
9117.000000;0.193516
9116.000000;0.193187
9115.000000;0.192990
9114.000000;0.192836
9113.000000;0.192652
9112.000000;0.192456
9111.000000;0.192292
9110.000000;0.192137
9109.000000;0.191961
9108.000000;0.191819
9107.000000;0.191756
9106.000000;0.191660
9105.000000;0.191377
9104.000000;0.190964
9103.000000;0.190649
9102.000000;0.190534
9101.000000;0.190482
9100.000000;0.190345
9099.000000;0.190143
9098.000000;0.189964
9097.000000;0.189830
9096.000000;0.189713
9095.000000;0.189581
9094.000000;0.189393
9093.000000;0.189130
9092.000000;0.188875
9091.000000;0.188728
9090.000000;0.188651
9089.000000;0.188497
9088.000000;0.188210
9087.000000;0.187881
9086.000000;0.187591
9085.000000;0.187332
9084.000000;0.187096
9083.000000;0.186900
9082.000000;0.186708
9081.000000;0.186447
9080.000000;0.186136
9079.000000;0.185866
9078.000000;0.185654
9077.000000;0.185441
9076.000000;0.185231
9075.000000;0.185109
9074.000000;0.185078
9073.000000;0.185042
9072.000000;0.184952
9071.000000;0.184841
9070.000000;0.184690
9069.000000;0.184414
9068.000000;0.184016
9067.000000;0.183630
9066.000000;0.183352
9065.000000;0.183151
9064.000000;0.182978
9063.000000;0.182835
9062.000000;0.182695
9061.000000;0.182488
9060.000000;0.182207
9059.000000;0.181940
9058.000000;0.181759
9057.000000;0.181657
9056.000000;0.181614
9055.000000;0.181595
9054.000000;0.181496
9053.000000;0.181221
