Criado como novo conjunto de dados;"e2410_daniel_v2.spp","18363.0 Secs"
cm-1;Abs
10000.000000;0.373346
9999.000000;0.372611
9998.000000;0.371870
9997.000000;0.371142
9996.000000;0.370386
9995.000000;0.369744
9994.000000;0.369315
9993.000000;0.368883
9992.000000;0.368194
9991.000000;0.367255
9990.000000;0.366404
9989.000000;0.365929
9988.000000;0.365751
9987.000000;0.365539
9986.000000;0.365097
9985.000000;0.364534
9984.000000;0.364045
9983.000000;0.363686
9982.000000;0.363393
9981.000000;0.363103
9980.000000;0.362777
9979.000000;0.362366
9978.000000;0.361850
9977.000000;0.361274
9976.000000;0.360680
9975.000000;0.360047
9974.000000;0.359353
9973.000000;0.358676
9972.000000;0.358135
9971.000000;0.357745
9970.000000;0.357406
9969.000000;0.357028
9968.000000;0.356617
9967.000000;0.356212
9966.000000;0.355796
9965.000000;0.355306
9964.000000;0.354679
9963.000000;0.353918
9962.000000;0.353137
9961.000000;0.352533
9960.000000;0.352220
9959.000000;0.352084
9958.000000;0.351858
9957.000000;0.351387
9956.000000;0.350770
9955.000000;0.350210
9954.000000;0.349797
9953.000000;0.349464
9952.000000;0.349099
9951.000000;0.348642
9950.000000;0.348099
9949.000000;0.347511
9948.000000;0.346918
9947.000000;0.346342
9946.000000;0.345804
9945.000000;0.345365
9944.000000;0.345068
9943.000000;0.344840
9942.000000;0.344536
9941.000000;0.344109
9940.000000;0.343657
9939.000000;0.343246
9938.000000;0.342769
9937.000000;0.342067
9936.000000;0.341173
9935.000000;0.340323
9934.000000;0.339727
9933.000000;0.339405
9932.000000;0.339228
9931.000000;0.339057
9930.000000;0.338796
9929.000000;0.338388
9928.000000;0.337825
9927.000000;0.337169
9926.000000;0.336541
9925.000000;0.336062
9924.000000;0.335762
9923.000000;0.335517
9922.000000;0.335115
9921.000000;0.334438
9920.000000;0.333575
9919.000000;0.332755
9918.000000;0.332155
9917.000000;0.331790
9916.000000;0.331533
9915.000000;0.331195
9914.000000;0.330627
9913.000000;0.329831
9912.000000;0.328983
9911.000000;0.328291
9910.000000;0.327820
9909.000000;0.327472
9908.000000;0.327127
9907.000000;0.326756
9906.000000;0.326423
9905.000000;0.326194
9904.000000;0.326071
9903.000000;0.325940
9902.000000;0.325626
9901.000000;0.325025
9900.000000;0.324209
9899.000000;0.323366
9898.000000;0.322635
9897.000000;0.322052
9896.000000;0.321611
9895.000000;0.321298
9894.000000;0.321043
9893.000000;0.320702
9892.000000;0.320166
9891.000000;0.319453
9890.000000;0.318683
9889.000000;0.317953
9888.000000;0.317282
9887.000000;0.316651
9886.000000;0.316060
9885.000000;0.315543
9884.000000;0.315111
9883.000000;0.314736
9882.000000;0.314391
9881.000000;0.314107
9880.000000;0.313938
9879.000000;0.313845
9878.000000;0.313677
9877.000000;0.313308
9876.000000;0.312758
9875.000000;0.312133
9874.000000;0.311486
9873.000000;0.310815
9872.000000;0.310165
9871.000000;0.309622
9870.000000;0.309188
9869.000000;0.308761
9868.000000;0.308275
9867.000000;0.307780
9866.000000;0.307347
9865.000000;0.306955
9864.000000;0.306528
9863.000000;0.306045
9862.000000;0.305541
9861.000000;0.305029
9860.000000;0.304494
9859.000000;0.303949
9858.000000;0.303457
9857.000000;0.303053
9856.000000;0.302670
9855.000000;0.302162
9854.000000;0.301444
9853.000000;0.300631
9852.000000;0.299987
9851.000000;0.299699
9850.000000;0.299688
9849.000000;0.299678
9848.000000;0.299444
9847.000000;0.298963
9846.000000;0.298369
9845.000000;0.297819
9844.000000;0.297407
9843.000000;0.297099
9842.000000;0.296753
9841.000000;0.296247
9840.000000;0.295605
9839.000000;0.294949
9838.000000;0.294346
9837.000000;0.293792
9836.000000;0.293330
9835.000000;0.293031
9834.000000;0.292821
9833.000000;0.292474
9832.000000;0.291871
9831.000000;0.291178
9830.000000;0.290643
9829.000000;0.290284
9828.000000;0.289906
9827.000000;0.289381
9826.000000;0.288769
9825.000000;0.288170
9824.000000;0.287586
9823.000000;0.286983
9822.000000;0.286404
9821.000000;0.285930
9820.000000;0.285567
9819.000000;0.285239
9818.000000;0.284881
9817.000000;0.284510
9816.000000;0.284184
9815.000000;0.283916
9814.000000;0.283633
9813.000000;0.283245
9812.000000;0.282753
9811.000000;0.282250
9810.000000;0.281809
9809.000000;0.281397
9808.000000;0.280931
9807.000000;0.280388
9806.000000;0.279816
9805.000000;0.279262
9804.000000;0.278718
9803.000000;0.278142
9802.000000;0.277496
9801.000000;0.276812
9800.000000;0.276216
9799.000000;0.275840
9798.000000;0.275657
9797.000000;0.275466
9796.000000;0.275107
9795.000000;0.274652
9794.000000;0.274288
9793.000000;0.274024
9792.000000;0.273656
9791.000000;0.273045
9790.000000;0.272321
9789.000000;0.271736
9788.000000;0.271381
9787.000000;0.271131
9786.000000;0.270829
9785.000000;0.270441
9784.000000;0.270027
9783.000000;0.269627
9782.000000;0.269201
9781.000000;0.268684
9780.000000;0.268070
9779.000000;0.267433
9778.000000;0.266849
9777.000000;0.266325
9776.000000;0.265834
9775.000000;0.265392
9774.000000;0.265048
9773.000000;0.264771
9772.000000;0.264432
9771.000000;0.263957
9770.000000;0.263444
9769.000000;0.263067
9768.000000;0.262862
9767.000000;0.262686
9766.000000;0.262381
9765.000000;0.261900
9764.000000;0.261280
9763.000000;0.260569
9762.000000;0.259830
9761.000000;0.259157
9760.000000;0.258613
9759.000000;0.258157
9758.000000;0.257703
9757.000000;0.257221
9756.000000;0.256745
9755.000000;0.256292
9754.000000;0.255825
9753.000000;0.255336
9752.000000;0.254890
9751.000000;0.254549
9750.000000;0.254296
9749.000000;0.254047
9748.000000;0.253741
9747.000000;0.253364
9746.000000;0.252919
9745.000000;0.252404
9744.000000;0.251826
9743.000000;0.251215
9742.000000;0.250624
9741.000000;0.250118
9740.000000;0.249739
9739.000000;0.249454
9738.000000;0.249159
9737.000000;0.248782
9736.000000;0.248340
9735.000000;0.247877
9734.000000;0.247358
9733.000000;0.246721
9732.000000;0.246033
9731.000000;0.245475
9730.000000;0.245151
9729.000000;0.244950
9728.000000;0.244674
9727.000000;0.244252
9726.000000;0.243768
9725.000000;0.243321
9724.000000;0.242921
9723.000000;0.242515
9722.000000;0.242050
9721.000000;0.241505
9720.000000;0.240909
9719.000000;0.240348
9718.000000;0.239918
9717.000000;0.239640
9716.000000;0.239452
9715.000000;0.239262
9714.000000;0.238994
9713.000000;0.238597
9712.000000;0.238063
9711.000000;0.237441
9710.000000;0.236795
9709.000000;0.236134
9708.000000;0.235443
9707.000000;0.234792
9706.000000;0.234346
9705.000000;0.234193
9704.000000;0.234197
9703.000000;0.234094
9702.000000;0.233756
9701.000000;0.233285
9700.000000;0.232838
9699.000000;0.232421
9698.000000;0.231929
9697.000000;0.231327
9696.000000;0.230732
9695.000000;0.230288
9694.000000;0.230009
9693.000000;0.229772
9692.000000;0.229435
9691.000000;0.228946
9690.000000;0.228357
9689.000000;0.227780
9688.000000;0.227303
9687.000000;0.226942
9686.000000;0.226649
9685.000000;0.226358
9684.000000;0.226019
9683.000000;0.225596
9682.000000;0.225081
9681.000000;0.224508
9680.000000;0.223940
9679.000000;0.223406
9678.000000;0.222894
9677.000000;0.222408
9676.000000;0.222019
9675.000000;0.221772
9674.000000;0.221578
9673.000000;0.221254
9672.000000;0.220704
9671.000000;0.220026
9670.000000;0.219411
9669.000000;0.218953
9668.000000;0.218583
9667.000000;0.218171
9666.000000;0.217649
9665.000000;0.217052
9664.000000;0.216458
9663.000000;0.215934
9662.000000;0.215514
9661.000000;0.215212
9660.000000;0.215004
9659.000000;0.214823
9658.000000;0.214581
9657.000000;0.214240
9656.000000;0.213828
9655.000000;0.213392
9654.000000;0.212949
9653.000000;0.212489
9652.000000;0.212006
9651.000000;0.211506
9650.000000;0.211004
9649.000000;0.210545
9648.000000;0.210191
9647.000000;0.209955
9646.000000;0.209751
9645.000000;0.209470
9644.000000;0.209090
9643.000000;0.208667
9642.000000;0.208234
9641.000000;0.207759
9640.000000;0.207212
9639.000000;0.206632
9638.000000;0.206090
9637.000000;0.205639
9636.000000;0.205285
9635.000000;0.204973
9634.000000;0.204591
9633.000000;0.204057
9632.000000;0.203431
9631.000000;0.202879
9630.000000;0.202501
9629.000000;0.202243
9628.000000;0.202004
9627.000000;0.201749
9626.000000;0.201465
9625.000000;0.201064
9624.000000;0.200463
9623.000000;0.199748
9622.000000;0.199145
9621.000000;0.198788
9620.000000;0.198580
9619.000000;0.198319
9618.000000;0.197914
9617.000000;0.197434
9616.000000;0.196968
9615.000000;0.196537
9614.000000;0.196129
9613.000000;0.195772
9612.000000;0.195500
9611.000000;0.195268
9610.000000;0.194960
9609.000000;0.194513
9608.000000;0.193984
9607.000000;0.193479
9606.000000;0.193026
9605.000000;0.192578
9604.000000;0.192116
9603.000000;0.191693
9602.000000;0.191344
9601.000000;0.191017
9600.000000;0.190635
9599.000000;0.190201
9598.000000;0.189797
9597.000000;0.189493
9596.000000;0.189273
9595.000000;0.189058
9594.000000;0.188765
9593.000000;0.188361
9592.000000;0.187881
9591.000000;0.187385
9590.000000;0.186904
9589.000000;0.186435
9588.000000;0.185991
9587.000000;0.185612
9586.000000;0.185309
9585.000000;0.185038
9584.000000;0.184734
9583.000000;0.184360
9582.000000;0.183881
9581.000000;0.183279
9580.000000;0.182630
9579.000000;0.182114
9578.000000;0.181838
9577.000000;0.181684
9576.000000;0.181404
9575.000000;0.180874
9574.000000;0.180201
9573.000000;0.179560
9572.000000;0.179042
9571.000000;0.178661
9570.000000;0.178408
9569.000000;0.178225
9568.000000;0.177995
9567.000000;0.177639
9566.000000;0.177201
9565.000000;0.176794
9564.000000;0.176461
9563.000000;0.176157
9562.000000;0.175814
9561.000000;0.175381
9560.000000;0.174819
9559.000000;0.174145
9558.000000;0.173481
9557.000000;0.172999
9556.000000;0.172753
9555.000000;0.172618
9554.000000;0.172425
9553.000000;0.172137
9552.000000;0.171836
9551.000000;0.171578
9550.000000;0.171306
9549.000000;0.170919
9548.000000;0.170387
9547.000000;0.169777
9546.000000;0.169178
9545.000000;0.168649
9544.000000;0.168228
9543.000000;0.167943
9542.000000;0.167786
9541.000000;0.167669
9540.000000;0.167469
9539.000000;0.167118
9538.000000;0.166641
9537.000000;0.166105
9536.000000;0.165560
9535.000000;0.165046
9534.000000;0.164608
9533.000000;0.164258
9532.000000;0.163951
9531.000000;0.163628
9530.000000;0.163300
9529.000000;0.163035
9528.000000;0.162839
9527.000000;0.162618
9526.000000;0.162264
9525.000000;0.161771
9524.000000;0.161227
9523.000000;0.160725
9522.000000;0.160321
9521.000000;0.160032
9520.000000;0.159843
9519.000000;0.159682
9518.000000;0.159450
9517.000000;0.159070
9516.000000;0.158530
9515.000000;0.157878
9514.000000;0.157223
9513.000000;0.156704
9512.000000;0.156405
9511.000000;0.156260
9510.000000;0.156088
9509.000000;0.155757
9508.000000;0.155290
9507.000000;0.154805
9506.000000;0.154375
9505.000000;0.153994
9504.000000;0.153639
9503.000000;0.153318
9502.000000;0.153018
9501.000000;0.152666
9500.000000;0.152189
9499.000000;0.151620
9498.000000;0.151095
9497.000000;0.150734
9496.000000;0.150526
9495.000000;0.150364
9494.000000;0.150164
9493.000000;0.149924
9492.000000;0.149648
9491.000000;0.149279
9490.000000;0.148761
9489.000000;0.148166
9488.000000;0.147691
9487.000000;0.147472
9486.000000;0.147439
9485.000000;0.147374
9484.000000;0.147119
9483.000000;0.146703
9482.000000;0.146257
9481.000000;0.145857
9480.000000;0.145475
9479.000000;0.145064
9478.000000;0.144639
9477.000000;0.144246
9476.000000;0.143886
9475.000000;0.143522
9474.000000;0.143157
9473.000000;0.142851
9472.000000;0.142631
9471.000000;0.142419
9470.000000;0.142099
9469.000000;0.141646
9468.000000;0.141142
9467.000000;0.140678
9466.000000;0.140285
9465.000000;0.139952
9464.000000;0.139634
9463.000000;0.139252
9462.000000;0.138740
9461.000000;0.138131
9460.000000;0.137566
9459.000000;0.137178
9458.000000;0.136993
9457.000000;0.136938
9456.000000;0.136893
9455.000000;0.136726
9454.000000;0.136350
9453.000000;0.135808
9452.000000;0.135262
9451.000000;0.134832
9450.000000;0.134501
9449.000000;0.134201
9448.000000;0.133919
9447.000000;0.133673
9446.000000;0.133419
9445.000000;0.133092
9444.000000;0.132718
9443.000000;0.132389
9442.000000;0.132118
9441.000000;0.131813
9440.000000;0.131410
9439.000000;0.130962
9438.000000;0.130565
9437.000000;0.130251
9436.000000;0.129980
9435.000000;0.129701
9434.000000;0.129380
9433.000000;0.129024
9432.000000;0.128694
9431.000000;0.128464
9430.000000;0.128325
9429.000000;0.128164
9428.000000;0.127875
9427.000000;0.127454
9426.000000;0.126975
9425.000000;0.126501
9424.000000;0.126048
9423.000000;0.125611
9422.000000;0.125190
9421.000000;0.124787
9420.000000;0.124409
9419.000000;0.124070
9418.000000;0.123787
9417.000000;0.123570
9416.000000;0.123409
9415.000000;0.123252
9414.000000;0.123023
9413.000000;0.122697
9412.000000;0.122343
9411.000000;0.122036
9410.000000;0.121754
9409.000000;0.121387
9408.000000;0.120877
9407.000000;0.120282
9406.000000;0.119703
9405.000000;0.119197
9404.000000;0.118776
9403.000000;0.118437
9402.000000;0.118155
9401.000000;0.117892
9400.000000;0.117646
9399.000000;0.117459
9398.000000;0.117335
9397.000000;0.117192
9396.000000;0.116936
9395.000000;0.116556
9394.000000;0.116119
9393.000000;0.115685
9392.000000;0.115296
9391.000000;0.114985
9390.000000;0.114759
9389.000000;0.114568
9388.000000;0.114340
9387.000000;0.114041
9386.000000;0.113685
9385.000000;0.113303
9384.000000;0.112946
9383.000000;0.112668
9382.000000;0.112462
9381.000000;0.112227
9380.000000;0.111874
9379.000000;0.111452
9378.000000;0.111098
9377.000000;0.110863
9376.000000;0.110659
9375.000000;0.110402
9374.000000;0.110133
9373.000000;0.109940
9372.000000;0.109813
9371.000000;0.109638
9370.000000;0.109312
9369.000000;0.108823
9368.000000;0.108246
9367.000000;0.107694
9366.000000;0.107272
9365.000000;0.106994
9364.000000;0.106758
9363.000000;0.106430
9362.000000;0.105994
9361.000000;0.105577
9360.000000;0.105315
9359.000000;0.105208
9358.000000;0.105124
9357.000000;0.104934
9356.000000;0.104611
9355.000000;0.104219
9354.000000;0.103842
9353.000000;0.103514
9352.000000;0.103203
9351.000000;0.102853
9350.000000;0.102458
9349.000000;0.102089
9348.000000;0.101812
9347.000000;0.101602
9346.000000;0.101353
9345.000000;0.100994
9344.000000;0.100560
9343.000000;0.100145
9342.000000;0.099793
9341.000000;0.099473
9340.000000;0.099141
9339.000000;0.098802
9338.000000;0.098494
9337.000000;0.098253
9336.000000;0.098070
9335.000000;0.097892
9334.000000;0.097664
9333.000000;0.097373
9332.000000;0.097064
9331.000000;0.096795
9330.000000;0.096580
9329.000000;0.096364
9328.000000;0.096065
9327.000000;0.095637
9326.000000;0.095136
9325.000000;0.094692
9324.000000;0.094404
9323.000000;0.094239
9322.000000;0.094073
9321.000000;0.093849
9320.000000;0.093642
9319.000000;0.093539
9318.000000;0.093494
9317.000000;0.093363
9316.000000;0.093064
9315.000000;0.092641
9314.000000;0.092190
9313.000000;0.091762
9312.000000;0.091370
9311.000000;0.091015
9310.000000;0.090670
9309.000000;0.090298
9308.000000;0.089898
9307.000000;0.089540
9306.000000;0.089285
9305.000000;0.089105
9304.000000;0.088887
9303.000000;0.088545
9302.000000;0.088118
9301.000000;0.087757
9300.000000;0.087607
9299.000000;0.087669
9298.000000;0.087765
9297.000000;0.087675
9296.000000;0.087311
9295.000000;0.086774
9294.000000;0.086244
9293.000000;0.085849
9292.000000;0.085619
9291.000000;0.085494
9290.000000;0.085359
9289.000000;0.085113
9288.000000;0.084756
9287.000000;0.084382
9286.000000;0.084088
9285.000000;0.083884
9284.000000;0.083703
9283.000000;0.083481
9282.000000;0.083187
9281.000000;0.082821
9280.000000;0.082417
9279.000000;0.082034
9278.000000;0.081722
9277.000000;0.081472
9276.000000;0.081226
9275.000000;0.080926
9274.000000;0.080569
9273.000000;0.080218
9272.000000;0.079948
9271.000000;0.079773
9270.000000;0.079607
9269.000000;0.079343
9268.000000;0.078979
9267.000000;0.078630
9266.000000;0.078393
9265.000000;0.078241
9264.000000;0.078060
9263.000000;0.077775
9262.000000;0.077394
9261.000000;0.076967
9260.000000;0.076550
9259.000000;0.076203
9258.000000;0.075957
9257.000000;0.075786
9256.000000;0.075621
9255.000000;0.075420
9254.000000;0.075200
9253.000000;0.075007
9252.000000;0.074856
9251.000000;0.074716
9250.000000;0.074531
9249.000000;0.074281
9248.000000;0.074016
9247.000000;0.073807
9246.000000;0.073656
9245.000000;0.073476
9244.000000;0.073206
9243.000000;0.072914
9242.000000;0.072718
9241.000000;0.072628
9240.000000;0.072503
9239.000000;0.072204
9238.000000;0.071738
9237.000000;0.071240
9236.000000;0.070831
9235.000000;0.070529
9234.000000;0.070276
9233.000000;0.070031
9232.000000;0.069821
9231.000000;0.069679
9230.000000;0.069561
9229.000000;0.069339
9228.000000;0.068918
9227.000000;0.068355
9226.000000;0.067820
9225.000000;0.067453
9224.000000;0.067277
9223.000000;0.067226
9222.000000;0.067217
9221.000000;0.067177
9220.000000;0.067046
9219.000000;0.066816
9218.000000;0.066557
9217.000000;0.066363
9216.000000;0.066263
9215.000000;0.066169
9214.000000;0.065932
9213.000000;0.065474
9212.000000;0.064882
9211.000000;0.064361
9210.000000;0.064064
9209.000000;0.063966
9208.000000;0.063907
9207.000000;0.063761
9206.000000;0.063519
9205.000000;0.063227
9204.000000;0.062896
9203.000000;0.062511
9202.000000;0.062101
9201.000000;0.061733
9200.000000;0.061453
9199.000000;0.061262
9198.000000;0.061133
9197.000000;0.061026
9196.000000;0.060893
9195.000000;0.060700
9194.000000;0.060479
9193.000000;0.060287
9192.000000;0.060130
9191.000000;0.059937
9190.000000;0.059640
9189.000000;0.059262
9188.000000;0.058892
9187.000000;0.058597
9186.000000;0.058384
9185.000000;0.058222
9184.000000;0.058086
9183.000000;0.057973
9182.000000;0.057887
9181.000000;0.057820
9180.000000;0.057732
9179.000000;0.057566
9178.000000;0.057306
9177.000000;0.056996
9176.000000;0.056698
9175.000000;0.056428
9174.000000;0.056164
9173.000000;0.055888
9172.000000;0.055600
9171.000000;0.055290
9170.000000;0.054951
9169.000000;0.054614
9168.000000;0.054337
9167.000000;0.054144
9166.000000;0.054000
9165.000000;0.053867
9164.000000;0.053733
9163.000000;0.053574
9162.000000;0.053341
9161.000000;0.053022
9160.000000;0.052700
9159.000000;0.052480
9158.000000;0.052362
9157.000000;0.052235
9156.000000;0.052002
9155.000000;0.051684
9154.000000;0.051387
9153.000000;0.051205
9152.000000;0.051150
9151.000000;0.051160
9150.000000;0.051143
9149.000000;0.051033
9148.000000;0.050825
9147.000000;0.050552
9146.000000;0.050250
9145.000000;0.049934
9144.000000;0.049606
9143.000000;0.049280
9142.000000;0.048976
9141.000000;0.048705
9140.000000;0.048474
9139.000000;0.048276
9138.000000;0.048085
9137.000000;0.047866
9136.000000;0.047592
9135.000000;0.047269
9134.000000;0.046933
9133.000000;0.046631
9132.000000;0.046383
9131.000000;0.046178
9130.000000;0.045996
9129.000000;0.045836
9128.000000;0.045701
9127.000000;0.045575
9126.000000;0.045423
9125.000000;0.045235
9124.000000;0.045031
9123.000000;0.044833
9122.000000;0.044643
9121.000000;0.044473
9120.000000;0.044334
9119.000000;0.044195
9118.000000;0.043978
9117.000000;0.043651
9116.000000;0.043288
9115.000000;0.042995
9114.000000;0.042790
9113.000000;0.042607
9112.000000;0.042402
9111.000000;0.042192
9110.000000;0.042009
9109.000000;0.041842
9108.000000;0.041672
9107.000000;0.041494
9106.000000;0.041315
9105.000000;0.041144
9104.000000;0.041007
9103.000000;0.040935
9102.000000;0.040904
9101.000000;0.040831
9100.000000;0.040648
9099.000000;0.040378
9098.000000;0.040111
9097.000000;0.039903
9096.000000;0.039724
9095.000000;0.039499
9094.000000;0.039188
9093.000000;0.038833
9092.000000;0.038514
9091.000000;0.038275
9090.000000;0.038098
9089.000000;0.037946
9088.000000;0.037811
9087.000000;0.037693
9086.000000;0.037564
9085.000000;0.037393
9084.000000;0.037193
9083.000000;0.037007
9082.000000;0.036836
9081.000000;0.036638
9080.000000;0.036390
9079.000000;0.036112
9078.000000;0.035821
9077.000000;0.035518
9076.000000;0.035233
9075.000000;0.035034
9074.000000;0.034951
9073.000000;0.034919
9072.000000;0.034844
9071.000000;0.034690
9070.000000;0.034486
9069.000000;0.034261
9068.000000;0.034019
9067.000000;0.033771
9066.000000;0.033535
9065.000000;0.033327
9064.000000;0.033149
9063.000000;0.032989
9062.000000;0.032827
9061.000000;0.032640
9060.000000;0.032428
9059.000000;0.032223
9058.000000;0.032068
9057.000000;0.031984
9056.000000;0.031958
9055.000000;0.031951
9054.000000;0.031909
9053.000000;0.031785
