Criado como novo conjunto de dados;"e2410_daniel_v2.spp","50584.4 Secs"
cm-1;Abs
10000.000000;0.996625
9999.000000;0.996221
9998.000000;0.995817
9997.000000;0.995414
9996.000000;0.995011
9995.000000;0.994609
9994.000000;0.994206
9993.000000;0.993806
9992.000000;0.993399
9991.000000;0.993166
9990.000000;0.992733
9989.000000;0.991945
9988.000000;0.991189
9987.000000;0.990827
9986.000000;0.990681
9985.000000;0.990349
9984.000000;0.989733
9983.000000;0.988933
9982.000000;0.987908
9981.000000;0.986647
9980.000000;0.985494
9979.000000;0.984909
9978.000000;0.985017
9977.000000;0.985559
9976.000000;0.986139
9975.000000;0.986326
9974.000000;0.985788
9973.000000;0.984609
9972.000000;0.983306
9971.000000;0.982324
9970.000000;0.981710
9969.000000;0.981355
9968.000000;0.981218
9967.000000;0.981150
9966.000000;0.980879
9965.000000;0.980415
9964.000000;0.980116
9963.000000;0.980110
9962.000000;0.979974
9961.000000;0.979283
9960.000000;0.978137
9959.000000;0.976891
9958.000000;0.975706
9957.000000;0.974654
9956.000000;0.973915
9955.000000;0.973528
9954.000000;0.973210
9953.000000;0.972738
9952.000000;0.972222
9951.000000;0.971783
9950.000000;0.971292
9949.000000;0.970736
9948.000000;0.970473
9947.000000;0.970737
9946.000000;0.971180
9945.000000;0.971235
9944.000000;0.970741
9943.000000;0.969893
9942.000000;0.968844
9941.000000;0.967705
9940.000000;0.966692
9939.000000;0.965934
9938.000000;0.965319
9937.000000;0.964795
9936.000000;0.964568
9935.000000;0.964736
9934.000000;0.964966
9933.000000;0.964855
9932.000000;0.964383
9931.000000;0.963753
9930.000000;0.963016
9929.000000;0.962195
9928.000000;0.961505
9927.000000;0.961135
9926.000000;0.960981
9925.000000;0.960848
9924.000000;0.960735
9923.000000;0.960649
9922.000000;0.960373
9921.000000;0.959700
9920.000000;0.958742
9919.000000;0.957754
9918.000000;0.956825
9917.000000;0.955924
9916.000000;0.955044
9915.000000;0.954116
9914.000000;0.953029
9913.000000;0.951901
9912.000000;0.951080
9911.000000;0.950680
9910.000000;0.950426
9909.000000;0.950135
9908.000000;0.949981
9907.000000;0.950043
9906.000000;0.949955
9905.000000;0.949374
9904.000000;0.948503
9903.000000;0.947783
9902.000000;0.947294
9901.000000;0.946807
9900.000000;0.946221
9899.000000;0.945619
9898.000000;0.945035
9897.000000;0.944478
9896.000000;0.944090
9895.000000;0.944055
9894.000000;0.944417
9893.000000;0.945065
9892.000000;0.945715
9891.000000;0.945872
9890.000000;0.945146
9889.000000;0.943784
9888.000000;0.942522
9887.000000;0.941720
9886.000000;0.940994
9885.000000;0.939901
9884.000000;0.938597
9883.000000;0.937538
9882.000000;0.936829
9881.000000;0.936234
9880.000000;0.935578
9879.000000;0.934851
9878.000000;0.934120
9877.000000;0.933577
9876.000000;0.933470
9875.000000;0.933749
9874.000000;0.934003
9873.000000;0.933931
9872.000000;0.933628
9871.000000;0.933265
9870.000000;0.932811
9869.000000;0.932257
9868.000000;0.931754
9867.000000;0.931281
9866.000000;0.930535
9865.000000;0.929429
9864.000000;0.928371
9863.000000;0.927740
9862.000000;0.927392
9861.000000;0.926993
9860.000000;0.926515
9859.000000;0.926088
9858.000000;0.925678
9857.000000;0.925273
9856.000000;0.925107
9855.000000;0.925313
9854.000000;0.925546
9853.000000;0.925316
9852.000000;0.924547
9851.000000;0.923534
9850.000000;0.922558
9849.000000;0.921804
9848.000000;0.921403
9847.000000;0.921241
9846.000000;0.920922
9845.000000;0.920219
9844.000000;0.919417
9843.000000;0.918960
9842.000000;0.918967
9841.000000;0.919282
9840.000000;0.919692
9839.000000;0.919837
9838.000000;0.919233
9837.000000;0.917831
9836.000000;0.916319
9835.000000;0.915453
9834.000000;0.915225
9833.000000;0.915002
9832.000000;0.914364
9831.000000;0.913474
9830.000000;0.912691
9829.000000;0.912161
9828.000000;0.911787
9827.000000;0.911379
9826.000000;0.910838
9825.000000;0.910268
9824.000000;0.909861
9823.000000;0.909609
9822.000000;0.909307
9821.000000;0.908864
9820.000000;0.908384
9819.000000;0.907870
9818.000000;0.907164
9817.000000;0.906298
9816.000000;0.905570
9815.000000;0.905106
9814.000000;0.904689
9813.000000;0.904190
9812.000000;0.903820
9811.000000;0.903716
9810.000000;0.903606
9809.000000;0.903194
9808.000000;0.902573
9807.000000;0.901955
9806.000000;0.901297
9805.000000;0.900525
9804.000000;0.899860
9803.000000;0.899554
9802.000000;0.899474
9801.000000;0.899282
9800.000000;0.898855
9799.000000;0.898274
9798.000000;0.897570
9797.000000;0.896794
9796.000000;0.896169
9795.000000;0.895864
9794.000000;0.895724
9793.000000;0.895457
9792.000000;0.894978
9791.000000;0.894392
9790.000000;0.893796
9789.000000;0.893295
9788.000000;0.893025
9787.000000;0.892928
9786.000000;0.892683
9785.000000;0.892102
9784.000000;0.891413
9783.000000;0.890898
9782.000000;0.890452
9781.000000;0.889782
9780.000000;0.888900
9779.000000;0.888114
9778.000000;0.887578
9777.000000;0.887114
9776.000000;0.886466
9775.000000;0.885576
9774.000000;0.884651
9773.000000;0.884026
9772.000000;0.883896
9771.000000;0.884104
9770.000000;0.884269
9769.000000;0.884153
9768.000000;0.883765
9767.000000;0.883147
9766.000000;0.882328
9765.000000;0.881535
9764.000000;0.881132
9763.000000;0.881167
9762.000000;0.881241
9761.000000;0.880956
9760.000000;0.880322
9759.000000;0.879606
9758.000000;0.878995
9757.000000;0.878533
9756.000000;0.878160
9755.000000;0.877711
9754.000000;0.877085
9753.000000;0.876458
9752.000000;0.876067
9751.000000;0.875744
9750.000000;0.875033
9749.000000;0.873874
9748.000000;0.872812
9747.000000;0.872317
9746.000000;0.872246
9745.000000;0.872185
9744.000000;0.871985
9743.000000;0.871718
9742.000000;0.871402
9741.000000;0.871043
9740.000000;0.870743
9739.000000;0.870505
9738.000000;0.870148
9737.000000;0.869586
9736.000000;0.868969
9735.000000;0.868371
9734.000000;0.867596
9733.000000;0.866550
9732.000000;0.865558
9731.000000;0.865037
9730.000000;0.864992
9729.000000;0.865067
9728.000000;0.864953
9727.000000;0.864583
9726.000000;0.864054
9725.000000;0.863549
9724.000000;0.863211
9723.000000;0.862972
9722.000000;0.862640
9721.000000;0.862195
9720.000000;0.861815
9719.000000;0.861558
9718.000000;0.861237
9717.000000;0.860716
9716.000000;0.860088
9715.000000;0.859450
9714.000000;0.858758
9713.000000;0.857984
9712.000000;0.857198
9711.000000;0.856426
9710.000000;0.855685
9709.000000;0.855193
9708.000000;0.855203
9707.000000;0.855533
9706.000000;0.855631
9705.000000;0.855255
9704.000000;0.854741
9703.000000;0.854416
9702.000000;0.854138
9701.000000;0.853639
9700.000000;0.852984
9699.000000;0.852400
9698.000000;0.851936
9697.000000;0.851561
9696.000000;0.851366
9695.000000;0.851367
9694.000000;0.851286
9693.000000;0.850775
9692.000000;0.849809
9691.000000;0.848684
9690.000000;0.847732
9689.000000;0.847113
9688.000000;0.846739
9687.000000;0.846348
9686.000000;0.845823
9685.000000;0.845404
9684.000000;0.845350
9683.000000;0.845439
9682.000000;0.845168
9681.000000;0.844458
9680.000000;0.843759
9679.000000;0.843376
9678.000000;0.843096
9677.000000;0.842636
9676.000000;0.842020
9675.000000;0.841347
9674.000000;0.840542
9673.000000;0.839599
9672.000000;0.838739
9671.000000;0.838113
9670.000000;0.837615
9669.000000;0.837175
9668.000000;0.836912
9667.000000;0.836865
9666.000000;0.836852
9665.000000;0.836759
9664.000000;0.836645
9663.000000;0.836443
9662.000000;0.835936
9661.000000;0.835175
9660.000000;0.834522
9659.000000;0.834108
9658.000000;0.833625
9657.000000;0.832857
9656.000000;0.832022
9655.000000;0.831377
9654.000000;0.830911
9653.000000;0.830637
9652.000000;0.830726
9651.000000;0.831028
9650.000000;0.830917
9649.000000;0.830031
9648.000000;0.828825
9647.000000;0.828021
9646.000000;0.827793
9645.000000;0.827821
9644.000000;0.827816
9643.000000;0.827611
9642.000000;0.827020
9641.000000;0.826050
9640.000000;0.825081
9639.000000;0.824462
9638.000000;0.824089
9637.000000;0.823686
9636.000000;0.823254
9635.000000;0.822938
9634.000000;0.822662
9633.000000;0.822260
9632.000000;0.821798
9631.000000;0.821440
9630.000000;0.821136
9629.000000;0.820773
9628.000000;0.820472
9627.000000;0.820431
9626.000000;0.820552
9625.000000;0.820508
9624.000000;0.820108
9623.000000;0.819413
9622.000000;0.818601
9621.000000;0.817927
9620.000000;0.817625
9619.000000;0.817606
9618.000000;0.817412
9617.000000;0.816709
9616.000000;0.815688
9615.000000;0.814796
9614.000000;0.814219
9613.000000;0.813862
9612.000000;0.813632
9611.000000;0.813483
9610.000000;0.813328
9609.000000;0.813137
9608.000000;0.813008
9607.000000;0.812956
9606.000000;0.812778
9605.000000;0.812328
9604.000000;0.811768
9603.000000;0.811320
9602.000000;0.810941
9601.000000;0.810430
9600.000000;0.809751
9599.000000;0.809013
9598.000000;0.808282
9597.000000;0.807614
9596.000000;0.807168
9595.000000;0.807021
9594.000000;0.806963
9593.000000;0.806676
9592.000000;0.806075
9591.000000;0.805333
9590.000000;0.804638
9589.000000;0.804037
9588.000000;0.803472
9587.000000;0.802874
9586.000000;0.802250
9585.000000;0.801739
9584.000000;0.801461
9583.000000;0.801316
9582.000000;0.801074
9581.000000;0.800693
9580.000000;0.800357
9579.000000;0.800154
9578.000000;0.799930
9577.000000;0.799540
9576.000000;0.799030
9575.000000;0.798486
9574.000000;0.797897
9573.000000;0.797259
9572.000000;0.796644
9571.000000;0.796074
9570.000000;0.795510
9569.000000;0.794989
9568.000000;0.794609
9567.000000;0.794358
9566.000000;0.794153
9565.000000;0.794036
9564.000000;0.794084
9563.000000;0.794134
9562.000000;0.793882
9561.000000;0.793298
9560.000000;0.792652
9559.000000;0.792119
9558.000000;0.791666
9557.000000;0.791314
9556.000000;0.791133
9555.000000;0.790942
9554.000000;0.790432
9553.000000;0.789673
9552.000000;0.789116
9551.000000;0.788931
9550.000000;0.788761
9549.000000;0.788285
9548.000000;0.787641
9547.000000;0.787079
9546.000000;0.786563
9545.000000;0.785973
9544.000000;0.785408
9543.000000;0.785025
9542.000000;0.784818
9541.000000;0.784751
9540.000000;0.784870
9539.000000;0.785113
9538.000000;0.785243
9537.000000;0.785111
9536.000000;0.784748
9535.000000;0.784119
9534.000000;0.783105
9533.000000;0.781881
9532.000000;0.780932
9531.000000;0.780505
9530.000000;0.780342
9529.000000;0.780151
9528.000000;0.779997
9527.000000;0.780002
9526.000000;0.779978
9525.000000;0.779658
9524.000000;0.779054
9523.000000;0.778344
9522.000000;0.777619
9521.000000;0.776939
9520.000000;0.776419
9519.000000;0.776051
9518.000000;0.775646
9517.000000;0.775123
9516.000000;0.774663
9515.000000;0.774451
9514.000000;0.774466
9513.000000;0.774626
9512.000000;0.774855
9511.000000;0.774936
9510.000000;0.774590
9509.000000;0.773850
9508.000000;0.773044
9507.000000;0.772333
9506.000000;0.771621
9505.000000;0.770978
9504.000000;0.770704
9503.000000;0.770784
9502.000000;0.770715
9501.000000;0.770160
9500.000000;0.769384
9499.000000;0.768785
9498.000000;0.768368
9497.000000;0.767985
9496.000000;0.767707
9495.000000;0.767592
9494.000000;0.767371
9493.000000;0.766742
9492.000000;0.765800
9491.000000;0.764887
9490.000000;0.764231
9489.000000;0.763955
9488.000000;0.764160
9487.000000;0.764692
9486.000000;0.765064
9485.000000;0.764898
9484.000000;0.764275
9483.000000;0.763439
9482.000000;0.762450
9481.000000;0.761400
9480.000000;0.760661
9479.000000;0.760540
9478.000000;0.760842
9477.000000;0.761079
9476.000000;0.760982
9475.000000;0.760575
9474.000000;0.759949
9473.000000;0.759235
9472.000000;0.758672
9471.000000;0.758404
9470.000000;0.758300
9469.000000;0.758140
9468.000000;0.757850
9467.000000;0.757449
9466.000000;0.756936
9465.000000;0.756393
9464.000000;0.755969
9463.000000;0.755612
9462.000000;0.755067
9461.000000;0.754280
9460.000000;0.753552
9459.000000;0.753129
9458.000000;0.752910
9457.000000;0.752736
9456.000000;0.752664
9455.000000;0.752715
9454.000000;0.752657
9453.000000;0.752311
9452.000000;0.751835
9451.000000;0.751423
9450.000000;0.750993
9449.000000;0.750429
9448.000000;0.749896
9447.000000;0.749597
9446.000000;0.749441
9445.000000;0.749234
9444.000000;0.749021
9443.000000;0.748921
9442.000000;0.748811
9441.000000;0.748444
9440.000000;0.747776
9439.000000;0.746936
9438.000000;0.746025
9437.000000;0.745178
9436.000000;0.744642
9435.000000;0.744533
9434.000000;0.744631
9433.000000;0.744617
9432.000000;0.744397
9431.000000;0.744001
9430.000000;0.743367
9429.000000;0.742482
9428.000000;0.741599
9427.000000;0.741068
9426.000000;0.741022
9425.000000;0.741339
9424.000000;0.741779
9423.000000;0.742011
9422.000000;0.741722
9421.000000;0.740891
9420.000000;0.739854
9419.000000;0.738978
9418.000000;0.738422
9417.000000;0.738251
9416.000000;0.738460
9415.000000;0.738752
9414.000000;0.738605
9413.000000;0.737822
9412.000000;0.736792
9411.000000;0.736013
9410.000000;0.735604
9409.000000;0.735453
9408.000000;0.735518
9407.000000;0.735694
9406.000000;0.735661
9405.000000;0.735219
9404.000000;0.734584
9403.000000;0.734081
9402.000000;0.733708
9401.000000;0.733293
9400.000000;0.732890
9399.000000;0.732697
9398.000000;0.732698
9397.000000;0.732660
9396.000000;0.732404
9395.000000;0.731880
9394.000000;0.731098
9393.000000;0.730217
9392.000000;0.729548
9391.000000;0.729224
9390.000000;0.728997
9389.000000;0.728578
9388.000000;0.728038
9387.000000;0.727645
9386.000000;0.727432
9385.000000;0.727208
9384.000000;0.726912
9383.000000;0.726714
9382.000000;0.726747
9381.000000;0.726920
9380.000000;0.726994
9379.000000;0.726764
9378.000000;0.726205
9377.000000;0.725523
9376.000000;0.724985
9375.000000;0.724664
9374.000000;0.724429
9373.000000;0.724192
9372.000000;0.723965
9371.000000;0.723714
9370.000000;0.723376
9369.000000;0.723084
9368.000000;0.723057
9367.000000;0.723195
9366.000000;0.723076
9365.000000;0.722504
9364.000000;0.721766
9363.000000;0.721186
9362.000000;0.720716
9361.000000;0.720161
9360.000000;0.719524
9359.000000;0.718921
9358.000000;0.718392
9357.000000;0.718018
9356.000000;0.717969
9355.000000;0.718188
9354.000000;0.718253
9353.000000;0.717822
9352.000000;0.717058
9351.000000;0.716361
9350.000000;0.715913
9349.000000;0.715674
9348.000000;0.715613
9347.000000;0.715648
9346.000000;0.715530
9345.000000;0.715101
9344.000000;0.714555
9343.000000;0.714180
9342.000000;0.713948
9341.000000;0.713606
9340.000000;0.713090
9339.000000;0.712601
9338.000000;0.712328
9337.000000;0.712282
9336.000000;0.712361
9335.000000;0.712429
9334.000000;0.712355
9333.000000;0.712095
9332.000000;0.711712
9331.000000;0.711244
9330.000000;0.710651
9329.000000;0.709931
9328.000000;0.709169
9327.000000;0.708429
9326.000000;0.707748
9325.000000;0.707260
9324.000000;0.707108
9323.000000;0.707191
9322.000000;0.707205
9321.000000;0.707012
9320.000000;0.706743
9319.000000;0.706467
9318.000000;0.706056
9317.000000;0.705484
9316.000000;0.704973
9315.000000;0.704653
9314.000000;0.704341
9313.000000;0.703850
9312.000000;0.703281
9311.000000;0.702837
9310.000000;0.702548
9309.000000;0.702353
9308.000000;0.702243
9307.000000;0.702174
9306.000000;0.702013
9305.000000;0.701728
9304.000000;0.701451
9303.000000;0.701234
9302.000000;0.700981
9301.000000;0.700719
9300.000000;0.700651
9299.000000;0.700790
9298.000000;0.700834
9297.000000;0.700583
9296.000000;0.700217
9295.000000;0.699933
9294.000000;0.699620
9293.000000;0.699131
9292.000000;0.698598
9291.000000;0.698188
9290.000000;0.697796
9289.000000;0.697281
9288.000000;0.696801
9287.000000;0.696624
9286.000000;0.696745
9285.000000;0.696929
9284.000000;0.697005
9283.000000;0.696891
9282.000000;0.696527
9281.000000;0.695999
9280.000000;0.695574
9279.000000;0.695371
9278.000000;0.695176
9277.000000;0.694803
9276.000000;0.694455
9275.000000;0.694421
9274.000000;0.694593
9273.000000;0.694562
9272.000000;0.694108
9271.000000;0.693353
9270.000000;0.692531
9269.000000;0.691852
9268.000000;0.691481
9267.000000;0.691389
9266.000000;0.691303
9265.000000;0.691005
9264.000000;0.690588
9263.000000;0.690258
9262.000000;0.690010
9261.000000;0.689719
9260.000000;0.689413
9259.000000;0.689209
9258.000000;0.689062
9257.000000;0.688831
9256.000000;0.688521
9255.000000;0.688251
9254.000000;0.688015
9253.000000;0.687673
9252.000000;0.687175
9251.000000;0.686634
9250.000000;0.686209
9249.000000;0.685999
9248.000000;0.685982
9247.000000;0.685964
9246.000000;0.685686
9245.000000;0.685109
9244.000000;0.684492
9243.000000;0.684093
9242.000000;0.683894
9241.000000;0.683728
9240.000000;0.683517
9239.000000;0.683256
9238.000000;0.682908
9237.000000;0.682497
9236.000000;0.682178
9235.000000;0.682057
9234.000000;0.682003
9233.000000;0.681782
9232.000000;0.681302
9231.000000;0.680619
9230.000000;0.679849
9229.000000;0.679193
9228.000000;0.678918
9227.000000;0.679108
9226.000000;0.679505
9225.000000;0.679720
9224.000000;0.679594
9223.000000;0.679272
9222.000000;0.678975
9221.000000;0.678785
9220.000000;0.678586
9219.000000;0.678183
9218.000000;0.677550
9217.000000;0.676972
9216.000000;0.676819
9215.000000;0.677128
9214.000000;0.677536
9213.000000;0.677643
9212.000000;0.677298
9211.000000;0.676594
9210.000000;0.675792
9209.000000;0.675264
9208.000000;0.675222
9207.000000;0.675425
9206.000000;0.675387
9205.000000;0.674977
9204.000000;0.674554
9203.000000;0.674401
9202.000000;0.674324
9201.000000;0.673991
9200.000000;0.673422
9199.000000;0.672895
9198.000000;0.672562
9197.000000;0.672357
9196.000000;0.672173
9195.000000;0.671927
9194.000000;0.671556
9193.000000;0.671100
9192.000000;0.670707
9191.000000;0.670455
9190.000000;0.670264
9189.000000;0.670054
9188.000000;0.669856
9187.000000;0.669683
9186.000000;0.669468
9185.000000;0.669220
9184.000000;0.669061
9183.000000;0.669012
9182.000000;0.668909
9181.000000;0.668643
9180.000000;0.668314
9179.000000;0.668056
9178.000000;0.667873
9177.000000;0.667742
9176.000000;0.667706
9175.000000;0.667730
9174.000000;0.667646
9173.000000;0.667349
9172.000000;0.666911
9171.000000;0.666434
9170.000000;0.665970
9169.000000;0.665633
9168.000000;0.665561
9167.000000;0.665653
9166.000000;0.665582
9165.000000;0.665194
9164.000000;0.664718
9163.000000;0.664456
9162.000000;0.664444
9161.000000;0.664517
9160.000000;0.664500
9159.000000;0.664238
9158.000000;0.663657
9157.000000;0.662935
9156.000000;0.662430
9155.000000;0.662283
9154.000000;0.662263
9153.000000;0.662095
9152.000000;0.661783
9151.000000;0.661501
9150.000000;0.661363
9149.000000;0.661388
9148.000000;0.661488
9147.000000;0.661396
9146.000000;0.660846
9145.000000;0.659953
9144.000000;0.659179
9143.000000;0.658811
9142.000000;0.658707
9141.000000;0.658636
9140.000000;0.658609
9139.000000;0.658685
9138.000000;0.658741
9137.000000;0.658648
9136.000000;0.658477
9135.000000;0.658313
9134.000000;0.658058
9133.000000;0.657630
9132.000000;0.657165
9131.000000;0.656852
9130.000000;0.656689
9129.000000;0.656572
9128.000000;0.656458
9127.000000;0.656297
9126.000000;0.655998
9125.000000;0.655621
9124.000000;0.655406
9123.000000;0.655451
9122.000000;0.655512
9121.000000;0.655321
9120.000000;0.654923
9119.000000;0.654524
9118.000000;0.654193
9117.000000;0.653897
9116.000000;0.653681
9115.000000;0.653589
9114.000000;0.653528
9113.000000;0.653383
9112.000000;0.653179
9111.000000;0.652962
9110.000000;0.652658
9109.000000;0.652190
9108.000000;0.651657
9107.000000;0.651242
9106.000000;0.651005
9105.000000;0.650883
9104.000000;0.650786
9103.000000;0.650627
9102.000000;0.650362
9101.000000;0.650073
9100.000000;0.649867
9099.000000;0.649667
9098.000000;0.649289
9097.000000;0.648792
9096.000000;0.648507
9095.000000;0.648596
9094.000000;0.648798
9093.000000;0.648773
9092.000000;0.648498
9091.000000;0.648184
9090.000000;0.647982
9089.000000;0.647924
9088.000000;0.647988
9087.000000;0.648035
9086.000000;0.647828
9085.000000;0.647275
9084.000000;0.646582
9083.000000;0.646050
9082.000000;0.645822
9081.000000;0.645870
9080.000000;0.646049
9079.000000;0.646110
9078.000000;0.645835
9077.000000;0.645295
9076.000000;0.644805
9075.000000;0.644513
9074.000000;0.644235
9073.000000;0.643798
9072.000000;0.643347
9071.000000;0.643153
9070.000000;0.643300
9069.000000;0.643653
9068.000000;0.643992
9067.000000;0.644081
9066.000000;0.643800
9065.000000;0.643325
9064.000000;0.642973
9063.000000;0.642777
9062.000000;0.642410
9061.000000;0.641654
9060.000000;0.640729
9059.000000;0.640015
9058.000000;0.639679
9057.000000;0.639706
9056.000000;0.640044
9055.000000;0.640521
9054.000000;0.640800
9053.000000;0.640683
