Criado como novo conjunto de dados;"e2410_daniel_v2.spp","59225.4 Secs"
cm-1;Abs
10000.000000;1.170102
9999.000000;1.168559
9998.000000;1.167022
9997.000000;1.165486
9996.000000;1.164046
9995.000000;1.163155
9994.000000;1.163025
9993.000000;1.163255
9992.000000;1.163345
9991.000000;1.163183
9990.000000;1.162920
9989.000000;1.162559
9988.000000;1.162024
9987.000000;1.161351
9986.000000;1.160641
9985.000000;1.160047
9984.000000;1.159809
9983.000000;1.159905
9982.000000;1.159691
9981.000000;1.158512
9980.000000;1.156751
9979.000000;1.155605
9978.000000;1.155638
9977.000000;1.156175
9976.000000;1.156309
9975.000000;1.155848
9974.000000;1.154966
9973.000000;1.153685
9972.000000;1.152175
9971.000000;1.150944
9970.000000;1.150317
9969.000000;1.150164
9968.000000;1.150349
9967.000000;1.150922
9966.000000;1.151601
9965.000000;1.151768
9964.000000;1.151315
9963.000000;1.150831
9962.000000;1.150598
9961.000000;1.150089
9960.000000;1.148907
9959.000000;1.147541
9958.000000;1.146660
9957.000000;1.146228
9956.000000;1.145783
9955.000000;1.145122
9954.000000;1.144335
9953.000000;1.143625
9952.000000;1.143375
9951.000000;1.143845
9950.000000;1.144520
9949.000000;1.144385
9948.000000;1.143175
9947.000000;1.141694
9946.000000;1.140628
9945.000000;1.139818
9944.000000;1.139027
9943.000000;1.138559
9942.000000;1.138573
9941.000000;1.138548
9940.000000;1.138034
9939.000000;1.137296
9938.000000;1.136679
9937.000000;1.135995
9936.000000;1.135124
9935.000000;1.134562
9934.000000;1.134671
9933.000000;1.134944
9932.000000;1.134666
9931.000000;1.133840
9930.000000;1.132879
9929.000000;1.131887
9928.000000;1.130853
9927.000000;1.130072
9926.000000;1.129777
9925.000000;1.129676
9924.000000;1.129375
9923.000000;1.128893
9922.000000;1.128334
9921.000000;1.127517
9920.000000;1.126398
9919.000000;1.125397
9918.000000;1.124829
9917.000000;1.124452
9916.000000;1.124010
9915.000000;1.123694
9914.000000;1.123635
9913.000000;1.123514
9912.000000;1.123205
9911.000000;1.123237
9910.000000;1.123977
9909.000000;1.124806
9908.000000;1.124770
9907.000000;1.123718
9906.000000;1.122241
9905.000000;1.120854
9904.000000;1.119801
9903.000000;1.119301
9902.000000;1.119328
9901.000000;1.119359
9900.000000;1.118825
9899.000000;1.117714
9898.000000;1.116472
9897.000000;1.115573
9896.000000;1.115363
9895.000000;1.115828
9894.000000;1.116221
9893.000000;1.115493
9892.000000;1.113594
9891.000000;1.111837
9890.000000;1.111486
9889.000000;1.112430
9888.000000;1.113595
9887.000000;1.114183
9886.000000;1.114020
9885.000000;1.113170
9884.000000;1.111834
9883.000000;1.110392
9882.000000;1.109104
9881.000000;1.107959
9880.000000;1.107012
9879.000000;1.106474
9878.000000;1.106207
9877.000000;1.105673
9876.000000;1.104733
9875.000000;1.103978
9874.000000;1.103886
9873.000000;1.104142
9872.000000;1.104194
9871.000000;1.103947
9870.000000;1.103496
9869.000000;1.102741
9868.000000;1.101737
9867.000000;1.100922
9866.000000;1.100483
9865.000000;1.099959
9864.000000;1.098954
9863.000000;1.097765
9862.000000;1.096877
9861.000000;1.096328
9860.000000;1.096017
9859.000000;1.096092
9858.000000;1.096466
9857.000000;1.096462
9856.000000;1.095583
9855.000000;1.094254
9854.000000;1.093233
9853.000000;1.092699
9852.000000;1.092430
9851.000000;1.092381
9850.000000;1.092471
9849.000000;1.092269
9848.000000;1.091567
9847.000000;1.090931
9846.000000;1.090996
9845.000000;1.091482
9844.000000;1.091540
9843.000000;1.090858
9842.000000;1.089839
9841.000000;1.088865
9840.000000;1.087990
9839.000000;1.087214
9838.000000;1.086556
9837.000000;1.085911
9836.000000;1.085210
9835.000000;1.084585
9834.000000;1.084088
9833.000000;1.083522
9832.000000;1.082841
9831.000000;1.082415
9830.000000;1.082502
9829.000000;1.082750
9828.000000;1.082602
9827.000000;1.081958
9826.000000;1.081061
9825.000000;1.080050
9824.000000;1.079014
9823.000000;1.078177
9822.000000;1.077650
9821.000000;1.077206
9820.000000;1.076668
9819.000000;1.076217
9818.000000;1.076030
9817.000000;1.075908
9816.000000;1.075639
9815.000000;1.075402
9814.000000;1.075422
9813.000000;1.075498
9812.000000;1.075259
9811.000000;1.074635
9810.000000;1.073792
9809.000000;1.072845
9808.000000;1.071943
9807.000000;1.071326
9806.000000;1.070992
9805.000000;1.070603
9804.000000;1.069986
9803.000000;1.069402
9802.000000;1.069056
9801.000000;1.068713
9800.000000;1.068157
9799.000000;1.067591
9798.000000;1.067240
9797.000000;1.066912
9796.000000;1.066337
9795.000000;1.065596
9794.000000;1.064900
9793.000000;1.064282
9792.000000;1.063813
9791.000000;1.063700
9790.000000;1.063816
9789.000000;1.063563
9788.000000;1.062660
9787.000000;1.061667
9786.000000;1.061233
9785.000000;1.061189
9784.000000;1.060863
9783.000000;1.059991
9782.000000;1.058834
9781.000000;1.057682
9780.000000;1.056751
9779.000000;1.056351
9778.000000;1.056624
9777.000000;1.057192
9776.000000;1.057472
9775.000000;1.057255
9774.000000;1.056686
9773.000000;1.055858
9772.000000;1.054819
9771.000000;1.053842
9770.000000;1.053306
9769.000000;1.053294
9768.000000;1.053518
9767.000000;1.053603
9766.000000;1.053349
9765.000000;1.052834
9764.000000;1.052330
9763.000000;1.051967
9762.000000;1.051485
9761.000000;1.050598
9760.000000;1.049531
9759.000000;1.048756
9758.000000;1.048215
9757.000000;1.047340
9756.000000;1.045968
9755.000000;1.044693
9754.000000;1.044077
9753.000000;1.044005
9752.000000;1.044069
9751.000000;1.044097
9750.000000;1.044021
9749.000000;1.043671
9748.000000;1.043060
9747.000000;1.042486
9746.000000;1.042061
9745.000000;1.041550
9744.000000;1.040923
9743.000000;1.040612
9742.000000;1.040870
9741.000000;1.041330
9740.000000;1.041520
9739.000000;1.041428
9738.000000;1.041186
9737.000000;1.040625
9736.000000;1.039582
9735.000000;1.038313
9734.000000;1.037174
9733.000000;1.036178
9732.000000;1.035238
9731.000000;1.034554
9730.000000;1.034380
9729.000000;1.034616
9728.000000;1.034942
9727.000000;1.035134
9726.000000;1.035028
9725.000000;1.034462
9724.000000;1.033516
9723.000000;1.032560
9722.000000;1.031836
9721.000000;1.031278
9720.000000;1.030834
9719.000000;1.030593
9718.000000;1.030432
9717.000000;1.029978
9716.000000;1.029183
9715.000000;1.028513
9714.000000;1.028276
9713.000000;1.028202
9712.000000;1.027954
9711.000000;1.027593
9710.000000;1.027227
9709.000000;1.026661
9708.000000;1.025825
9707.000000;1.025133
9706.000000;1.024949
9705.000000;1.025002
9704.000000;1.024718
9703.000000;1.023939
9702.000000;1.022971
9701.000000;1.022170
9700.000000;1.021770
9699.000000;1.021863
9698.000000;1.022225
9697.000000;1.022395
9696.000000;1.022165
9695.000000;1.021738
9694.000000;1.021244
9693.000000;1.020460
9692.000000;1.019268
9691.000000;1.018023
9690.000000;1.017161
9689.000000;1.016750
9688.000000;1.016636
9687.000000;1.016696
9686.000000;1.016691
9685.000000;1.016237
9684.000000;1.015259
9683.000000;1.014188
9682.000000;1.013458
9681.000000;1.013091
9680.000000;1.012957
9679.000000;1.013078
9678.000000;1.013394
9677.000000;1.013596
9676.000000;1.013480
9675.000000;1.013183
9674.000000;1.012835
9673.000000;1.012312
9672.000000;1.011550
9671.000000;1.010749
9670.000000;1.010014
9669.000000;1.009175
9668.000000;1.008180
9667.000000;1.007276
9666.000000;1.006571
9665.000000;1.005861
9664.000000;1.005136
9663.000000;1.004795
9662.000000;1.005003
9661.000000;1.005270
9660.000000;1.005048
9659.000000;1.004422
9658.000000;1.003825
9657.000000;1.003424
9656.000000;1.003143
9655.000000;1.002939
9654.000000;1.002678
9653.000000;1.002080
9652.000000;1.001160
9651.000000;1.000421
9650.000000;1.000230
9649.000000;1.000324
9648.000000;1.000249
9647.000000;0.999962
9646.000000;0.999576
9645.000000;0.998860
9644.000000;0.997533
9643.000000;0.995911
9642.000000;0.994769
9641.000000;0.994550
9640.000000;0.994973
9639.000000;0.995346
9638.000000;0.995106
9637.000000;0.994206
9636.000000;0.993157
9635.000000;0.992548
9634.000000;0.992403
9633.000000;0.992197
9632.000000;0.991612
9631.000000;0.990954
9630.000000;0.990640
9629.000000;0.990595
9628.000000;0.990417
9627.000000;0.989919
9626.000000;0.989249
9625.000000;0.988638
9624.000000;0.988237
9623.000000;0.988043
9622.000000;0.987874
9621.000000;0.987561
9620.000000;0.987198
9619.000000;0.986990
9618.000000;0.986849
9617.000000;0.986482
9616.000000;0.985868
9615.000000;0.985269
9614.000000;0.984703
9613.000000;0.983896
9612.000000;0.982872
9611.000000;0.982113
9610.000000;0.981881
9609.000000;0.981806
9608.000000;0.981385
9607.000000;0.980584
9606.000000;0.979707
9605.000000;0.979005
9604.000000;0.978619
9603.000000;0.978572
9602.000000;0.978615
9601.000000;0.978391
9600.000000;0.977932
9599.000000;0.977648
9598.000000;0.977681
9597.000000;0.977657
9596.000000;0.977235
9595.000000;0.976504
9594.000000;0.975641
9593.000000;0.974628
9592.000000;0.973586
9591.000000;0.972962
9590.000000;0.973035
9589.000000;0.973492
9588.000000;0.973773
9587.000000;0.973614
9586.000000;0.973070
9585.000000;0.972303
9584.000000;0.971555
9583.000000;0.971036
9582.000000;0.970668
9581.000000;0.970151
9580.000000;0.969442
9579.000000;0.968848
9578.000000;0.968539
9577.000000;0.968342
9576.000000;0.968138
9575.000000;0.968065
9574.000000;0.968150
9573.000000;0.968101
9572.000000;0.967708
9571.000000;0.967148
9570.000000;0.966687
9569.000000;0.966359
9568.000000;0.966115
9567.000000;0.965977
9566.000000;0.965901
9565.000000;0.965736
9564.000000;0.965413
9563.000000;0.964909
9562.000000;0.964033
9561.000000;0.962656
9560.000000;0.961160
9559.000000;0.960214
9558.000000;0.959998
9557.000000;0.960104
9556.000000;0.960243
9555.000000;0.960546
9554.000000;0.961037
9553.000000;0.961338
9552.000000;0.961122
9551.000000;0.960423
9550.000000;0.959367
9549.000000;0.958045
9548.000000;0.956813
9547.000000;0.956148
9546.000000;0.955999
9545.000000;0.955767
9544.000000;0.955164
9543.000000;0.954574
9542.000000;0.954355
9541.000000;0.954310
9540.000000;0.954120
9539.000000;0.953806
9538.000000;0.953446
9537.000000;0.952904
9536.000000;0.952174
9535.000000;0.951543
9534.000000;0.951141
9533.000000;0.950697
9532.000000;0.950038
9531.000000;0.949385
9530.000000;0.948930
9529.000000;0.948559
9528.000000;0.948236
9527.000000;0.948183
9526.000000;0.948365
9525.000000;0.948273
9524.000000;0.947582
9523.000000;0.946625
9522.000000;0.945889
9521.000000;0.945433
9520.000000;0.945103
9519.000000;0.944893
9518.000000;0.944761
9517.000000;0.944484
9516.000000;0.944031
9515.000000;0.943715
9514.000000;0.943677
9513.000000;0.943585
9512.000000;0.943145
9511.000000;0.942566
9510.000000;0.942196
9509.000000;0.942057
9508.000000;0.941989
9507.000000;0.941915
9506.000000;0.941671
9505.000000;0.940979
9504.000000;0.939897
9503.000000;0.938964
9502.000000;0.938596
9501.000000;0.938662
9500.000000;0.938859
9499.000000;0.939104
9498.000000;0.939316
9497.000000;0.939247
9496.000000;0.938842
9495.000000;0.938387
9494.000000;0.938043
9493.000000;0.937603
9492.000000;0.936948
9491.000000;0.936277
9490.000000;0.935620
9489.000000;0.934694
9488.000000;0.933572
9487.000000;0.932959
9486.000000;0.933307
9485.000000;0.934071
9484.000000;0.934349
9483.000000;0.933926
9482.000000;0.933237
9481.000000;0.932604
9480.000000;0.932040
9479.000000;0.931539
9478.000000;0.931089
9477.000000;0.930539
9476.000000;0.929839
9475.000000;0.929228
9474.000000;0.928875
9473.000000;0.928581
9472.000000;0.928149
9471.000000;0.927773
9470.000000;0.927675
9469.000000;0.927620
9468.000000;0.927203
9467.000000;0.926423
9466.000000;0.925621
9465.000000;0.925012
9464.000000;0.924599
9463.000000;0.924353
9462.000000;0.924171
9461.000000;0.923776
9460.000000;0.922999
9459.000000;0.922044
9458.000000;0.921282
9457.000000;0.920900
9456.000000;0.920893
9455.000000;0.921163
9454.000000;0.921434
9453.000000;0.921353
9452.000000;0.920890
9451.000000;0.920411
9450.000000;0.920153
9449.000000;0.919918
9448.000000;0.919485
9447.000000;0.918993
9446.000000;0.918633
9445.000000;0.918254
9444.000000;0.917601
9443.000000;0.916746
9442.000000;0.915974
9441.000000;0.915443
9440.000000;0.915148
9439.000000;0.915069
9438.000000;0.915094
9437.000000;0.914995
9436.000000;0.914680
9435.000000;0.914321
9434.000000;0.914057
9433.000000;0.913805
9432.000000;0.913476
9431.000000;0.913149
9430.000000;0.912857
9429.000000;0.912476
9428.000000;0.911979
9427.000000;0.911524
9426.000000;0.911118
9425.000000;0.910491
9424.000000;0.909538
9423.000000;0.908609
9422.000000;0.908137
9421.000000;0.908177
9420.000000;0.908476
9419.000000;0.908738
9418.000000;0.908690
9417.000000;0.908181
9416.000000;0.907438
9415.000000;0.906946
9414.000000;0.906852
9413.000000;0.906722
9412.000000;0.906098
9411.000000;0.905083
9410.000000;0.904149
9409.000000;0.903610
9408.000000;0.903472
9407.000000;0.903576
9406.000000;0.903682
9405.000000;0.903570
9404.000000;0.903234
9403.000000;0.902853
9402.000000;0.902523
9401.000000;0.902212
9400.000000;0.901976
9399.000000;0.901951
9398.000000;0.902048
9397.000000;0.901965
9396.000000;0.901570
9395.000000;0.901011
9394.000000;0.900393
9393.000000;0.899660
9392.000000;0.898837
9391.000000;0.898070
9390.000000;0.897411
9389.000000;0.896868
9388.000000;0.896674
9387.000000;0.897074
9386.000000;0.897792
9385.000000;0.898182
9384.000000;0.898000
9383.000000;0.897608
9382.000000;0.897304
9381.000000;0.896942
9380.000000;0.896347
9379.000000;0.895640
9378.000000;0.894945
9377.000000;0.894220
9376.000000;0.893530
9375.000000;0.893068
9374.000000;0.892747
9373.000000;0.892251
9372.000000;0.891627
9371.000000;0.891337
9370.000000;0.891499
9369.000000;0.891650
9368.000000;0.891517
9367.000000;0.891432
9366.000000;0.891626
9365.000000;0.891632
9364.000000;0.890908
9363.000000;0.889651
9362.000000;0.888513
9361.000000;0.887811
9360.000000;0.887441
9359.000000;0.887298
9358.000000;0.887338
9357.000000;0.887403
9356.000000;0.887354
9355.000000;0.887275
9354.000000;0.887268
9353.000000;0.887206
9352.000000;0.886875
9351.000000;0.886222
9350.000000;0.885303
9349.000000;0.884246
9348.000000;0.883378
9347.000000;0.883094
9346.000000;0.883365
9345.000000;0.883643
9344.000000;0.883454
9343.000000;0.882850
9342.000000;0.882155
9341.000000;0.881585
9340.000000;0.881277
9339.000000;0.881327
9338.000000;0.881568
9337.000000;0.881576
9336.000000;0.881143
9335.000000;0.880485
9334.000000;0.879852
9333.000000;0.879248
9332.000000;0.878675
9331.000000;0.878313
9330.000000;0.878258
9329.000000;0.878368
9328.000000;0.878542
9327.000000;0.878799
9326.000000;0.878954
9325.000000;0.878637
9324.000000;0.877874
9323.000000;0.877226
9322.000000;0.877074
9321.000000;0.877115
9320.000000;0.876826
9319.000000;0.876103
9318.000000;0.875205
9317.000000;0.874413
9316.000000;0.873986
9315.000000;0.874115
9314.000000;0.874579
9313.000000;0.874753
9312.000000;0.874252
9311.000000;0.873330
9310.000000;0.872434
9309.000000;0.871667
9308.000000;0.870951
9307.000000;0.870349
9306.000000;0.869924
9305.000000;0.869514
9304.000000;0.869000
9303.000000;0.868589
9302.000000;0.868567
9301.000000;0.868913
9300.000000;0.869364
9299.000000;0.869679
9298.000000;0.869703
9297.000000;0.869399
9296.000000;0.868938
9295.000000;0.868519
9294.000000;0.868018
9293.000000;0.867145
9292.000000;0.866035
9291.000000;0.865283
9290.000000;0.865204
9289.000000;0.865432
9288.000000;0.865467
9287.000000;0.865239
9286.000000;0.864923
9285.000000;0.864566
9284.000000;0.864208
9283.000000;0.864048
9282.000000;0.864152
9281.000000;0.864242
9280.000000;0.864041
9279.000000;0.863602
9278.000000;0.863103
9277.000000;0.862583
9276.000000;0.862103
9275.000000;0.861859
9274.000000;0.861871
9273.000000;0.861825
9272.000000;0.861469
9271.000000;0.860912
9270.000000;0.860358
9269.000000;0.859801
9268.000000;0.859230
9267.000000;0.858855
9266.000000;0.858868
9265.000000;0.859155
9264.000000;0.859415
9263.000000;0.859405
9262.000000;0.858974
9261.000000;0.858150
9260.000000;0.857283
9259.000000;0.856785
9258.000000;0.856604
9257.000000;0.856282
9256.000000;0.855660
9255.000000;0.855135
9254.000000;0.855041
9253.000000;0.855186
9252.000000;0.855253
9251.000000;0.855275
9250.000000;0.855403
9249.000000;0.855525
9248.000000;0.855413
9247.000000;0.855059
9246.000000;0.854611
9245.000000;0.854165
9244.000000;0.853797
9243.000000;0.853545
9242.000000;0.853252
9241.000000;0.852671
9240.000000;0.851877
9239.000000;0.851253
9238.000000;0.850968
9237.000000;0.850773
9236.000000;0.850463
9235.000000;0.850172
9234.000000;0.850044
9233.000000;0.849966
9232.000000;0.849832
9231.000000;0.849737
9230.000000;0.849702
9229.000000;0.849556
9228.000000;0.849261
9227.000000;0.849009
9226.000000;0.848807
9225.000000;0.848346
9224.000000;0.847495
9223.000000;0.846577
9222.000000;0.845945
9221.000000;0.845658
9220.000000;0.845732
9219.000000;0.846258
9218.000000;0.847036
9217.000000;0.847502
9216.000000;0.847355
9215.000000;0.846889
9214.000000;0.846460
9213.000000;0.846018
9212.000000;0.845466
9211.000000;0.845026
9210.000000;0.844876
9209.000000;0.844770
9208.000000;0.844392
9207.000000;0.843815
9206.000000;0.843268
9205.000000;0.842758
9204.000000;0.842261
9203.000000;0.841976
9202.000000;0.842049
9201.000000;0.842258
9200.000000;0.842303
9199.000000;0.842180
9198.000000;0.842002
9197.000000;0.841730
9196.000000;0.841352
9195.000000;0.841052
9194.000000;0.840918
9193.000000;0.840745
9192.000000;0.840422
9191.000000;0.840176
9190.000000;0.840159
9189.000000;0.840104
9188.000000;0.839737
9187.000000;0.839227
9186.000000;0.838843
9185.000000;0.838457
9184.000000;0.837805
9183.000000;0.836996
9182.000000;0.836363
9181.000000;0.835963
9180.000000;0.835616
9179.000000;0.835314
9178.000000;0.835205
9177.000000;0.835279
9176.000000;0.835380
9175.000000;0.835450
9174.000000;0.835496
9173.000000;0.835406
9172.000000;0.835057
9171.000000;0.834543
9170.000000;0.834092
9169.000000;0.833836
9168.000000;0.833785
9167.000000;0.833873
9166.000000;0.833890
9165.000000;0.833589
9164.000000;0.833008
9163.000000;0.832498
9162.000000;0.832279
9161.000000;0.832180
9160.000000;0.831985
9159.000000;0.831735
9158.000000;0.831513
9157.000000;0.831211
9156.000000;0.830781
9155.000000;0.830443
9154.000000;0.830382
9153.000000;0.830444
9152.000000;0.830369
9151.000000;0.830127
9150.000000;0.829795
9149.000000;0.829328
9148.000000;0.828705
9147.000000;0.828113
9146.000000;0.827729
9145.000000;0.827503
9144.000000;0.827337
9143.000000;0.827295
9142.000000;0.827431
9141.000000;0.827596
9140.000000;0.827630
9139.000000;0.827556
9138.000000;0.827388
9137.000000;0.826991
9136.000000;0.826365
9135.000000;0.825829
9134.000000;0.825676
9133.000000;0.825817
9132.000000;0.825952
9131.000000;0.825902
9130.000000;0.825580
9129.000000;0.824906
9128.000000;0.824000
9127.000000;0.823261
9126.000000;0.822967
9125.000000;0.822958
9124.000000;0.822902
9123.000000;0.822712
9122.000000;0.822489
9121.000000;0.822284
9120.000000;0.822122
9119.000000;0.822091
9118.000000;0.822154
9117.000000;0.822066
9116.000000;0.821687
9115.000000;0.821208
9114.000000;0.820838
9113.000000;0.820501
9112.000000;0.820083
9111.000000;0.819783
9110.000000;0.819901
9109.000000;0.820364
9108.000000;0.820729
9107.000000;0.820623
9106.000000;0.820046
9105.000000;0.819321
9104.000000;0.818866
9103.000000;0.818885
9102.000000;0.819168
9101.000000;0.819290
9100.000000;0.819080
9099.000000;0.818724
9098.000000;0.818391
9097.000000;0.818003
9096.000000;0.817497
9095.000000;0.817011
9094.000000;0.816653
9093.000000;0.816350
9092.000000;0.816077
9091.000000;0.815997
9090.000000;0.816177
9089.000000;0.816382
9088.000000;0.816346
9087.000000;0.816035
9086.000000;0.815535
9085.000000;0.814930
9084.000000;0.814453
9083.000000;0.814420
9082.000000;0.814780
9081.000000;0.815008
9080.000000;0.814722
9079.000000;0.814140
9078.000000;0.813669
9077.000000;0.813303
9076.000000;0.812771
9075.000000;0.812101
9074.000000;0.811619
9073.000000;0.811469
9072.000000;0.811462
9071.000000;0.811401
9070.000000;0.811289
9069.000000;0.811215
9068.000000;0.811217
9067.000000;0.811274
9066.000000;0.811311
9065.000000;0.811209
9064.000000;0.810913
9063.000000;0.810495
9062.000000;0.810067
9061.000000;0.809702
9060.000000;0.809444
9059.000000;0.809294
9058.000000;0.809157
9057.000000;0.808946
9056.000000;0.808725
9055.000000;0.808614
9054.000000;0.808552
9053.000000;0.808349
