Criado como novo conjunto de dados;"e2410_daniel_v2.spp","101527.1 Secs"
cm-1;Abs
10000.000000;0.125580
9999.000000;0.126290
9998.000000;0.126982
9997.000000;0.127637
9996.000000;0.128302
9995.000000;0.129009
9994.000000;0.129660
9993.000000;0.130126
9992.000000;0.130441
9991.000000;0.130775
9990.000000;0.131224
9989.000000;0.131769
9988.000000;0.132432
9987.000000;0.133288
9986.000000;0.134297
9985.000000;0.135257
9984.000000;0.136012
9983.000000;0.136589
9982.000000;0.137078
9981.000000;0.137499
9980.000000;0.137893
9979.000000;0.138414
9978.000000;0.139183
9977.000000;0.140098
9976.000000;0.140913
9975.000000;0.141510
9974.000000;0.142007
9973.000000;0.142605
9972.000000;0.143394
9971.000000;0.144311
9970.000000;0.145209
9969.000000;0.145950
9968.000000;0.146494
9967.000000;0.146940
9966.000000;0.147456
9965.000000;0.148140
9964.000000;0.148930
9963.000000;0.149692
9962.000000;0.150390
9961.000000;0.151156
9960.000000;0.152118
9959.000000;0.153192
9958.000000;0.154091
9957.000000;0.154615
9956.000000;0.154860
9955.000000;0.155105
9954.000000;0.155542
9953.000000;0.156182
9952.000000;0.156958
9951.000000;0.157799
9950.000000;0.158644
9949.000000;0.159478
9948.000000;0.160366
9947.000000;0.161339
9946.000000;0.162281
9945.000000;0.163024
9944.000000;0.163568
9943.000000;0.164095
9942.000000;0.164722
9941.000000;0.165359
9940.000000;0.165851
9939.000000;0.166181
9938.000000;0.166462
9937.000000;0.166829
9936.000000;0.167382
9935.000000;0.168174
9934.000000;0.169179
9933.000000;0.170298
9932.000000;0.171426
9931.000000;0.172479
9930.000000;0.173352
9929.000000;0.173954
9928.000000;0.174338
9927.000000;0.174715
9926.000000;0.175283
9925.000000;0.176066
9924.000000;0.176949
9923.000000;0.177808
9922.000000;0.178582
9921.000000;0.179298
9920.000000;0.180059
9919.000000;0.180950
9918.000000;0.181909
9917.000000;0.182755
9916.000000;0.183381
9915.000000;0.183893
9914.000000;0.184515
9913.000000;0.185384
9912.000000;0.186443
9911.000000;0.187482
9910.000000;0.188273
9909.000000;0.188743
9908.000000;0.189031
9907.000000;0.189353
9906.000000;0.189817
9905.000000;0.190432
9904.000000;0.191239
9903.000000;0.192269
9902.000000;0.193373
9901.000000;0.194274
9900.000000;0.194854
9899.000000;0.195259
9898.000000;0.195676
9897.000000;0.196165
9896.000000;0.196790
9895.000000;0.197732
9894.000000;0.199068
9893.000000;0.200567
9892.000000;0.201862
9891.000000;0.202798
9890.000000;0.203490
9889.000000;0.204123
9888.000000;0.204823
9887.000000;0.205657
9886.000000;0.206590
9885.000000;0.207462
9884.000000;0.208141
9883.000000;0.208687
9882.000000;0.209247
9881.000000;0.209852
9880.000000;0.210455
9879.000000;0.211129
9878.000000;0.212047
9877.000000;0.213218
9876.000000;0.214399
9875.000000;0.215324
9874.000000;0.215936
9873.000000;0.216356
9872.000000;0.216722
9871.000000;0.217136
9870.000000;0.217671
9869.000000;0.218378
9868.000000;0.219286
9867.000000;0.220399
9866.000000;0.221649
9865.000000;0.222877
9864.000000;0.223923
9863.000000;0.224777
9862.000000;0.225594
9861.000000;0.226531
9860.000000;0.227595
9859.000000;0.228634
9858.000000;0.229453
9857.000000;0.229976
9856.000000;0.230362
9855.000000;0.230922
9854.000000;0.231843
9853.000000;0.232972
9852.000000;0.233953
9851.000000;0.234599
9850.000000;0.235057
9849.000000;0.235625
9848.000000;0.236459
9847.000000;0.237491
9846.000000;0.238578
9845.000000;0.239659
9844.000000;0.240766
9843.000000;0.241905
9842.000000;0.242953
9841.000000;0.243734
9840.000000;0.244218
9839.000000;0.244605
9838.000000;0.245137
9837.000000;0.245877
9836.000000;0.246705
9835.000000;0.247511
9834.000000;0.248329
9833.000000;0.249279
9832.000000;0.250447
9831.000000;0.251804
9830.000000;0.253194
9829.000000;0.254406
9828.000000;0.255320
9827.000000;0.255988
9826.000000;0.256534
9825.000000;0.257035
9824.000000;0.257524
9823.000000;0.258077
9822.000000;0.258786
9821.000000;0.259674
9820.000000;0.260707
9819.000000;0.261865
9818.000000;0.263129
9817.000000;0.264386
9816.000000;0.265442
9815.000000;0.266164
9814.000000;0.266592
9813.000000;0.266911
9812.000000;0.267373
9811.000000;0.268186
9810.000000;0.269362
9809.000000;0.270654
9808.000000;0.271732
9807.000000;0.272494
9806.000000;0.273169
9805.000000;0.274059
9804.000000;0.275227
9803.000000;0.276460
9802.000000;0.277500
9801.000000;0.278299
9800.000000;0.279032
9799.000000;0.279893
9798.000000;0.280888
9797.000000;0.281862
9796.000000;0.282758
9795.000000;0.283754
9794.000000;0.285063
9793.000000;0.286616
9792.000000;0.288052
9791.000000;0.289041
9790.000000;0.289524
9789.000000;0.289662
9788.000000;0.289683
9787.000000;0.289842
9786.000000;0.290387
9785.000000;0.291409
9784.000000;0.292723
9783.000000;0.294013
9782.000000;0.295133
9781.000000;0.296197
9780.000000;0.297385
9779.000000;0.298719
9778.000000;0.300048
9777.000000;0.301207
9776.000000;0.302123
9775.000000;0.302807
9774.000000;0.303321
9773.000000;0.303751
9772.000000;0.304175
9771.000000;0.304627
9770.000000;0.305111
9769.000000;0.305682
9768.000000;0.306504
9767.000000;0.307759
9766.000000;0.309474
9765.000000;0.311417
9764.000000;0.313174
9763.000000;0.314392
9762.000000;0.315002
9761.000000;0.315298
9760.000000;0.315773
9759.000000;0.316793
9758.000000;0.318349
9757.000000;0.320098
9756.000000;0.321665
9755.000000;0.322897
9754.000000;0.323855
9753.000000;0.324625
9752.000000;0.325209
9751.000000;0.325618
9750.000000;0.325988
9749.000000;0.326551
9748.000000;0.327458
9747.000000;0.328657
9746.000000;0.329966
9745.000000;0.331239
9744.000000;0.332439
9743.000000;0.333546
9742.000000;0.334522
9741.000000;0.335403
9740.000000;0.336336
9739.000000;0.337392
9738.000000;0.338432
9737.000000;0.339276
9736.000000;0.339994
9735.000000;0.340848
9734.000000;0.341941
9733.000000;0.343058
9732.000000;0.343941
9731.000000;0.344607
9730.000000;0.345288
9729.000000;0.346164
9728.000000;0.347227
9727.000000;0.348354
9726.000000;0.349404
9725.000000;0.350314
9724.000000;0.351177
9723.000000;0.352180
9722.000000;0.353396
9721.000000;0.354662
9720.000000;0.355760
9719.000000;0.356656
9718.000000;0.357501
9717.000000;0.358430
9716.000000;0.359481
9715.000000;0.360669
9714.000000;0.361973
9713.000000;0.363225
9712.000000;0.364151
9711.000000;0.364653
9710.000000;0.365002
9709.000000;0.365653
9708.000000;0.366833
9707.000000;0.368336
9706.000000;0.369716
9705.000000;0.370674
9704.000000;0.371263
9703.000000;0.371785
9702.000000;0.372543
9701.000000;0.373663
9700.000000;0.375051
9699.000000;0.376460
9698.000000;0.377649
9697.000000;0.378577
9696.000000;0.379436
9695.000000;0.380456
9694.000000;0.381662
9693.000000;0.382874
9692.000000;0.383911
9691.000000;0.384756
9690.000000;0.385539
9689.000000;0.386426
9688.000000;0.387497
9687.000000;0.388660
9686.000000;0.389704
9685.000000;0.390518
9684.000000;0.391260
9683.000000;0.392186
9682.000000;0.393331
9681.000000;0.394480
9680.000000;0.395444
9679.000000;0.396258
9678.000000;0.397050
9677.000000;0.397901
9676.000000;0.398863
9675.000000;0.399983
9674.000000;0.401192
9673.000000;0.402301
9672.000000;0.403214
9671.000000;0.404080
9670.000000;0.405148
9669.000000;0.406540
9668.000000;0.408230
9667.000000;0.410111
9666.000000;0.411928
9665.000000;0.413292
9664.000000;0.413958
9663.000000;0.414093
9662.000000;0.414157
9661.000000;0.414524
9660.000000;0.415309
9659.000000;0.416458
9658.000000;0.417854
9657.000000;0.419347
9656.000000;0.420831
9655.000000;0.422297
9654.000000;0.423708
9653.000000;0.424879
9652.000000;0.425658
9651.000000;0.426234
9650.000000;0.427030
9649.000000;0.428216
9648.000000;0.429461
9647.000000;0.430317
9646.000000;0.430724
9645.000000;0.431010
9644.000000;0.431448
9643.000000;0.432002
9642.000000;0.432524
9641.000000;0.433076
9640.000000;0.433950
9639.000000;0.435364
9638.000000;0.437162
9637.000000;0.438845
9636.000000;0.439965
9635.000000;0.440552
9634.000000;0.441095
9633.000000;0.442031
9632.000000;0.443303
9631.000000;0.444524
9630.000000;0.445530
9629.000000;0.446570
9628.000000;0.447851
9627.000000;0.449144
9626.000000;0.450072
9625.000000;0.450675
9624.000000;0.451358
9623.000000;0.452290
9622.000000;0.453200
9621.000000;0.453876
9620.000000;0.454570
9619.000000;0.455672
9618.000000;0.457181
9617.000000;0.458731
9616.000000;0.459978
9615.000000;0.460725
9614.000000;0.460854
9613.000000;0.460492
9612.000000;0.460214
9611.000000;0.460697
9610.000000;0.462086
9609.000000;0.463891
9608.000000;0.465540
9607.000000;0.466835
9606.000000;0.467846
9605.000000;0.468660
9604.000000;0.469401
9603.000000;0.470241
9602.000000;0.471207
9601.000000;0.472104
9600.000000;0.472788
9599.000000;0.473358
9598.000000;0.473976
9597.000000;0.474631
9596.000000;0.475223
9595.000000;0.475762
9594.000000;0.476356
9593.000000;0.477086
9592.000000;0.477941
9591.000000;0.478807
9590.000000;0.479470
9589.000000;0.479799
9588.000000;0.479997
9587.000000;0.480507
9586.000000;0.481537
9585.000000;0.482839
9584.000000;0.484082
9583.000000;0.485292
9582.000000;0.486714
9581.000000;0.488363
9580.000000;0.489913
9579.000000;0.491029
9578.000000;0.491669
9577.000000;0.492059
9576.000000;0.492471
9575.000000;0.493031
9574.000000;0.493660
9573.000000;0.494238
9572.000000;0.494800
9571.000000;0.495530
9570.000000;0.496514
9569.000000;0.497623
9568.000000;0.498659
9567.000000;0.499496
9566.000000;0.500071
9565.000000;0.500389
9564.000000;0.500609
9563.000000;0.500972
9562.000000;0.501563
9561.000000;0.502318
9560.000000;0.503314
9559.000000;0.504799
9558.000000;0.506775
9557.000000;0.508752
9556.000000;0.510165
9555.000000;0.510893
9554.000000;0.511197
9553.000000;0.511291
9552.000000;0.511278
9551.000000;0.511384
9550.000000;0.511923
9549.000000;0.512957
9548.000000;0.514166
9547.000000;0.515104
9546.000000;0.515558
9545.000000;0.515695
9544.000000;0.515932
9543.000000;0.516568
9542.000000;0.517436
9541.000000;0.518055
9540.000000;0.518219
9539.000000;0.518312
9538.000000;0.518871
9537.000000;0.519995
9536.000000;0.521356
9535.000000;0.522579
9534.000000;0.523404
9533.000000;0.523638
9532.000000;0.523304
9531.000000;0.522789
9530.000000;0.522557
9529.000000;0.522714
9528.000000;0.523080
9527.000000;0.523588
9526.000000;0.524325
9525.000000;0.525213
9524.000000;0.526002
9523.000000;0.526611
9522.000000;0.527177
9521.000000;0.527705
9520.000000;0.528026
9519.000000;0.528235
9518.000000;0.528805
9517.000000;0.529983
9516.000000;0.531304
9515.000000;0.531951
9514.000000;0.531555
9513.000000;0.530519
9512.000000;0.529665
9511.000000;0.529703
9510.000000;0.530825
9509.000000;0.532563
9508.000000;0.534090
9507.000000;0.534881
9506.000000;0.535080
9505.000000;0.535122
9504.000000;0.535177
9503.000000;0.535201
9502.000000;0.535362
9501.000000;0.535984
9500.000000;0.536981
9499.000000;0.537701
9498.000000;0.537559
9497.000000;0.536671
9496.000000;0.535705
9495.000000;0.535250
9494.000000;0.535514
9493.000000;0.536427
9492.000000;0.537679
9491.000000;0.538693
9490.000000;0.538962
9489.000000;0.538596
9488.000000;0.538308
9487.000000;0.538653
9486.000000;0.539413
9485.000000;0.539941
9484.000000;0.539970
9483.000000;0.539814
9482.000000;0.539875
9481.000000;0.540272
9480.000000;0.540973
9479.000000;0.541951
9478.000000;0.543000
9477.000000;0.543630
9476.000000;0.543421
9475.000000;0.542440
9474.000000;0.541165
9473.000000;0.540069
9472.000000;0.539428
9471.000000;0.539361
9470.000000;0.539792
9469.000000;0.540354
9468.000000;0.540600
9467.000000;0.540429
9466.000000;0.540154
9465.000000;0.540055
9464.000000;0.540025
9463.000000;0.539830
9462.000000;0.539618
9461.000000;0.539881
9460.000000;0.540837
9459.000000;0.542027
9458.000000;0.542686
9457.000000;0.542454
9456.000000;0.541602
9455.000000;0.540646
9454.000000;0.539976
9453.000000;0.539852
9452.000000;0.540431
9451.000000;0.541572
9450.000000;0.542759
9449.000000;0.543445
9448.000000;0.543430
9447.000000;0.542803
9446.000000;0.541677
9445.000000;0.540244
9444.000000;0.538973
9443.000000;0.538394
9442.000000;0.538596
9441.000000;0.539162
9440.000000;0.539664
9439.000000;0.539990
9438.000000;0.540108
9437.000000;0.539801
9436.000000;0.538902
9435.000000;0.537653
9434.000000;0.536606
9433.000000;0.536177
9432.000000;0.536419
9431.000000;0.537121
9430.000000;0.537970
9429.000000;0.538647
9428.000000;0.538934
9427.000000;0.538787
9426.000000;0.538305
9425.000000;0.537629
9424.000000;0.536870
9423.000000;0.536092
9422.000000;0.535320
9421.000000;0.534581
9420.000000;0.533922
9419.000000;0.533359
9418.000000;0.532875
9417.000000;0.532563
9416.000000;0.532665
9415.000000;0.533248
9414.000000;0.533857
9413.000000;0.533770
9412.000000;0.532755
9411.000000;0.531379
9410.000000;0.530419
9409.000000;0.530122
9408.000000;0.530179
9407.000000;0.530219
9406.000000;0.530097
9405.000000;0.529785
9404.000000;0.529275
9403.000000;0.528667
9402.000000;0.528182
9401.000000;0.527979
9400.000000;0.527963
9399.000000;0.527790
9398.000000;0.527130
9397.000000;0.526013
9396.000000;0.524905
9395.000000;0.524320
9394.000000;0.524300
9393.000000;0.524401
9392.000000;0.524224
9391.000000;0.523789
9390.000000;0.523280
9389.000000;0.522635
9388.000000;0.521614
9387.000000;0.520186
9386.000000;0.518680
9385.000000;0.517537
9384.000000;0.516998
9383.000000;0.516968
9382.000000;0.517081
9381.000000;0.516959
9380.000000;0.516503
9379.000000;0.515869
9378.000000;0.515139
9377.000000;0.514208
9376.000000;0.513120
9375.000000;0.512296
9374.000000;0.512150
9373.000000;0.512540
9372.000000;0.512841
9371.000000;0.512564
9370.000000;0.511704
9369.000000;0.510528
9368.000000;0.509244
9367.000000;0.508004
9366.000000;0.507019
9365.000000;0.506529
9364.000000;0.506632
9363.000000;0.507158
9362.000000;0.507687
9361.000000;0.507786
9360.000000;0.507322
9359.000000;0.506480
9358.000000;0.505431
9357.000000;0.504137
9356.000000;0.502631
9355.000000;0.501302
9354.000000;0.500606
9353.000000;0.500532
9352.000000;0.500610
9351.000000;0.500445
9350.000000;0.500020
9349.000000;0.499449
9348.000000;0.498740
9347.000000;0.497901
9346.000000;0.497054
9345.000000;0.496278
9344.000000;0.495504
9343.000000;0.494697
9342.000000;0.494007
9341.000000;0.493583
9340.000000;0.493329
9339.000000;0.493005
9338.000000;0.492475
9337.000000;0.491720
9336.000000;0.490699
9335.000000;0.489393
9334.000000;0.488003
9333.000000;0.486956
9332.000000;0.486573
9331.000000;0.486756
9330.000000;0.487013
9329.000000;0.486856
9328.000000;0.486188
9327.000000;0.485288
9326.000000;0.484422
9325.000000;0.483562
9324.000000;0.482594
9323.000000;0.481708
9322.000000;0.481341
9321.000000;0.481637
9320.000000;0.482109
9319.000000;0.481991
9318.000000;0.480909
9317.000000;0.479160
9316.000000;0.477377
9315.000000;0.476022
9314.000000;0.475135
9313.000000;0.474479
9312.000000;0.473869
9311.000000;0.473383
9310.000000;0.473186
9309.000000;0.473197
9308.000000;0.473041
9307.000000;0.472386
9306.000000;0.471237
9305.000000;0.469868
9304.000000;0.468553
9303.000000;0.467454
9302.000000;0.466638
9301.000000;0.466064
9300.000000;0.465614
9299.000000;0.465219
9298.000000;0.464879
9297.000000;0.464471
9296.000000;0.463682
9295.000000;0.462354
9294.000000;0.460843
9293.000000;0.459790
9292.000000;0.459475
9291.000000;0.459523
9290.000000;0.459311
9289.000000;0.458524
9288.000000;0.457301
9287.000000;0.456016
9286.000000;0.455018
9285.000000;0.454428
9284.000000;0.454006
9283.000000;0.453296
9282.000000;0.452061
9281.000000;0.450579
9280.000000;0.449393
9279.000000;0.448785
9278.000000;0.448551
9277.000000;0.448286
9276.000000;0.447755
9275.000000;0.447027
9274.000000;0.446300
9273.000000;0.445690
9272.000000;0.445150
9271.000000;0.444587
9270.000000;0.444024
9269.000000;0.443551
9268.000000;0.443106
9267.000000;0.442449
9266.000000;0.441508
9265.000000;0.440612
9264.000000;0.440156
9263.000000;0.439997
9262.000000;0.439417
9261.000000;0.437817
9260.000000;0.435389
9259.000000;0.433023
9258.000000;0.431620
9257.000000;0.431493
9256.000000;0.432241
9255.000000;0.433025
9254.000000;0.433114
9253.000000;0.432341
9252.000000;0.431059
9251.000000;0.429668
9250.000000;0.428331
9249.000000;0.427179
9248.000000;0.426481
9247.000000;0.426344
9246.000000;0.426367
9245.000000;0.425958
9244.000000;0.425037
9243.000000;0.424119
9242.000000;0.423626
9241.000000;0.423386
9240.000000;0.422968
9239.000000;0.422288
9238.000000;0.421616
9237.000000;0.421075
9236.000000;0.420424
9235.000000;0.419389
9234.000000;0.418023
9233.000000;0.416650
9232.000000;0.415527
9231.000000;0.414658
9230.000000;0.413930
9229.000000;0.413348
9228.000000;0.413067
9227.000000;0.413152
9226.000000;0.413368
9225.000000;0.413313
9224.000000;0.412782
9223.000000;0.411910
9222.000000;0.410979
9221.000000;0.410159
9220.000000;0.409464
9219.000000;0.408791
9218.000000;0.407957
9217.000000;0.406838
9216.000000;0.405588
9215.000000;0.404592
9214.000000;0.404056
9213.000000;0.403743
9212.000000;0.403229
9211.000000;0.402369
9210.000000;0.401358
9209.000000;0.400423
9208.000000;0.399671
9207.000000;0.399187
9206.000000;0.399017
9205.000000;0.398999
9204.000000;0.398786
9203.000000;0.398170
9202.000000;0.397281
9201.000000;0.396383
9200.000000;0.395565
9199.000000;0.394722
9198.000000;0.393766
9197.000000;0.392781
9196.000000;0.391985
9195.000000;0.391562
9194.000000;0.391484
9193.000000;0.391462
9192.000000;0.391136
9191.000000;0.390379
9190.000000;0.389364
9189.000000;0.388351
9188.000000;0.387489
9187.000000;0.386836
9186.000000;0.386419
9185.000000;0.386147
9184.000000;0.385735
9183.000000;0.384907
9182.000000;0.383690
9181.000000;0.382420
9180.000000;0.381418
9179.000000;0.380738
9178.000000;0.380251
9177.000000;0.379853
9176.000000;0.379532
9175.000000;0.379282
9174.000000;0.379059
9173.000000;0.378814
9172.000000;0.378477
9171.000000;0.377889
9170.000000;0.376876
9169.000000;0.375476
9168.000000;0.374021
9167.000000;0.372888
9166.000000;0.372164
9165.000000;0.371623
9164.000000;0.371046
9163.000000;0.370420
9162.000000;0.369821
9161.000000;0.369251
9160.000000;0.368690
9159.000000;0.368209
9158.000000;0.367848
9157.000000;0.367437
9156.000000;0.366715
9155.000000;0.365686
9154.000000;0.364685
9153.000000;0.364018
9152.000000;0.363629
9151.000000;0.363225
9150.000000;0.362661
9149.000000;0.362098
9148.000000;0.361767
9147.000000;0.361670
9146.000000;0.361532
9145.000000;0.361007
9144.000000;0.359975
9143.000000;0.358676
9142.000000;0.357569
9141.000000;0.356979
9140.000000;0.356834
9139.000000;0.356738
9138.000000;0.356337
9137.000000;0.355624
9136.000000;0.354870
9135.000000;0.354277
9134.000000;0.353766
9133.000000;0.353117
9132.000000;0.352256
9131.000000;0.351347
9130.000000;0.350605
9129.000000;0.350122
9128.000000;0.349869
9127.000000;0.349762
9126.000000;0.349655
9125.000000;0.349346
9124.000000;0.348713
9123.000000;0.347846
9122.000000;0.346977
9121.000000;0.346283
9120.000000;0.345789
9119.000000;0.345405
9118.000000;0.344979
9117.000000;0.344364
9116.000000;0.343538
9115.000000;0.342660
9114.000000;0.341916
9113.000000;0.341320
9112.000000;0.340719
9111.000000;0.340013
9110.000000;0.339265
9109.000000;0.338578
9108.000000;0.337981
9107.000000;0.337482
9106.000000;0.337135
9105.000000;0.336953
9104.000000;0.336803
9103.000000;0.336480
9102.000000;0.335899
9101.000000;0.335165
9100.000000;0.334465
9099.000000;0.333932
9098.000000;0.333584
9097.000000;0.333337
9096.000000;0.333012
9095.000000;0.332401
9094.000000;0.331390
9093.000000;0.330094
9092.000000;0.328849
9091.000000;0.328000
9090.000000;0.327649
9089.000000;0.327633
9088.000000;0.327735
9087.000000;0.327831
9086.000000;0.327826
9085.000000;0.327590
9084.000000;0.327079
9083.000000;0.326451
9082.000000;0.325870
9081.000000;0.325266
9080.000000;0.324447
9079.000000;0.323450
9078.000000;0.322585
9077.000000;0.322071
9076.000000;0.321803
9075.000000;0.321558
9074.000000;0.321268
9073.000000;0.320969
9072.000000;0.320618
9071.000000;0.320130
9070.000000;0.319532
9069.000000;0.318917
9068.000000;0.318296
9067.000000;0.317598
9066.000000;0.316809
9065.000000;0.316000
9064.000000;0.315275
9063.000000;0.314764
9062.000000;0.314597
9061.000000;0.314724
9060.000000;0.314802
9059.000000;0.314443
9058.000000;0.313630
9057.000000;0.312754
9056.000000;0.312167
9055.000000;0.311795
9054.000000;0.311290
9053.000000;0.310489
