Criado como novo conjunto de dados;"e2410_daniel_v2.spp","87666.7 Secs"
cm-1;Abs
10000.000000;0.088798
9999.000000;0.088684
9998.000000;0.088568
9997.000000;0.088455
9996.000000;0.088328
9995.000000;0.088175
9994.000000;0.088001
9993.000000;0.087821
9992.000000;0.087662
9991.000000;0.087578
9990.000000;0.087626
9989.000000;0.087772
9988.000000;0.087885
9987.000000;0.087877
9986.000000;0.087795
9985.000000;0.087751
9984.000000;0.087796
9983.000000;0.087905
9982.000000;0.088030
9981.000000;0.088097
9980.000000;0.088008
9979.000000;0.087749
9978.000000;0.087473
9977.000000;0.087370
9976.000000;0.087439
9975.000000;0.087479
9974.000000;0.087340
9973.000000;0.087102
9972.000000;0.086960
9971.000000;0.086996
9970.000000;0.087140
9969.000000;0.087299
9968.000000;0.087438
9967.000000;0.087529
9966.000000;0.087520
9965.000000;0.087389
9964.000000;0.087189
9963.000000;0.087017
9962.000000;0.086937
9961.000000;0.086958
9960.000000;0.087027
9959.000000;0.087070
9958.000000;0.087050
9957.000000;0.087006
9956.000000;0.087008
9955.000000;0.087054
9954.000000;0.087050
9953.000000;0.086936
9952.000000;0.086805
9951.000000;0.086841
9950.000000;0.087139
9949.000000;0.087589
9948.000000;0.087955
9947.000000;0.088047
9946.000000;0.087847
9945.000000;0.087510
9944.000000;0.087238
9943.000000;0.087127
9942.000000;0.087104
9941.000000;0.087023
9940.000000;0.086834
9939.000000;0.086610
9938.000000;0.086459
9937.000000;0.086429
9936.000000;0.086491
9935.000000;0.086573
9934.000000;0.086582
9933.000000;0.086456
9932.000000;0.086244
9931.000000;0.086093
9930.000000;0.086108
9929.000000;0.086250
9928.000000;0.086382
9927.000000;0.086413
9926.000000;0.086366
9925.000000;0.086315
9924.000000;0.086313
9923.000000;0.086381
9922.000000;0.086519
9921.000000;0.086686
9920.000000;0.086791
9919.000000;0.086754
9918.000000;0.086598
9917.000000;0.086445
9916.000000;0.086403
9915.000000;0.086459
9914.000000;0.086516
9913.000000;0.086513
9912.000000;0.086462
9911.000000;0.086368
9910.000000;0.086193
9909.000000;0.085933
9908.000000;0.085679
9907.000000;0.085536
9906.000000;0.085526
9905.000000;0.085612
9904.000000;0.085792
9903.000000;0.086085
9902.000000;0.086419
9901.000000;0.086631
9900.000000;0.086592
9899.000000;0.086300
9898.000000;0.085852
9897.000000;0.085397
9896.000000;0.085109
9895.000000;0.085097
9894.000000;0.085291
9893.000000;0.085491
9892.000000;0.085560
9891.000000;0.085531
9890.000000;0.085481
9889.000000;0.085414
9888.000000;0.085311
9887.000000;0.085225
9886.000000;0.085212
9885.000000;0.085237
9884.000000;0.085227
9883.000000;0.085202
9882.000000;0.085247
9881.000000;0.085377
9880.000000;0.085502
9879.000000;0.085538
9878.000000;0.085481
9877.000000;0.085356
9876.000000;0.085172
9875.000000;0.084959
9874.000000;0.084772
9873.000000;0.084634
9872.000000;0.084515
9871.000000;0.084399
9870.000000;0.084344
9869.000000;0.084441
9868.000000;0.084714
9867.000000;0.085070
9866.000000;0.085337
9865.000000;0.085353
9864.000000;0.085072
9863.000000;0.084634
9862.000000;0.084291
9861.000000;0.084242
9860.000000;0.084486
9859.000000;0.084845
9858.000000;0.085114
9857.000000;0.085202
9856.000000;0.085164
9855.000000;0.085127
9854.000000;0.085165
9853.000000;0.085236
9852.000000;0.085222
9851.000000;0.085041
9850.000000;0.084710
9849.000000;0.084328
9848.000000;0.084020
9847.000000;0.083891
9846.000000;0.083990
9845.000000;0.084267
9844.000000;0.084567
9843.000000;0.084709
9842.000000;0.084617
9841.000000;0.084398
9840.000000;0.084257
9839.000000;0.084327
9838.000000;0.084557
9837.000000;0.084769
9836.000000;0.084833
9835.000000;0.084767
9834.000000;0.084678
9833.000000;0.084613
9832.000000;0.084500
9831.000000;0.084260
9830.000000;0.083945
9829.000000;0.083734
9828.000000;0.083746
9827.000000;0.083907
9826.000000;0.084046
9825.000000;0.084099
9824.000000;0.084129
9823.000000;0.084169
9822.000000;0.084149
9821.000000;0.084044
9820.000000;0.083971
9819.000000;0.084066
9818.000000;0.084301
9817.000000;0.084515
9816.000000;0.084588
9815.000000;0.084499
9814.000000;0.084263
9813.000000;0.083935
9812.000000;0.083648
9811.000000;0.083527
9810.000000;0.083538
9809.000000;0.083541
9808.000000;0.083490
9807.000000;0.083490
9806.000000;0.083609
9805.000000;0.083752
9804.000000;0.083777
9803.000000;0.083651
9802.000000;0.083450
9801.000000;0.083264
9800.000000;0.083168
9799.000000;0.083202
9798.000000;0.083318
9797.000000;0.083407
9796.000000;0.083439
9795.000000;0.083498
9794.000000;0.083633
9793.000000;0.083746
9792.000000;0.083705
9791.000000;0.083534
9790.000000;0.083377
9789.000000;0.083319
9788.000000;0.083307
9787.000000;0.083249
9786.000000;0.083119
9785.000000;0.082976
9784.000000;0.082924
9783.000000;0.083027
9782.000000;0.083227
9781.000000;0.083379
9780.000000;0.083402
9779.000000;0.083366
9778.000000;0.083376
9777.000000;0.083422
9776.000000;0.083415
9775.000000;0.083330
9774.000000;0.083227
9773.000000;0.083133
9772.000000;0.083011
9771.000000;0.082863
9770.000000;0.082780
9769.000000;0.082869
9768.000000;0.083147
9767.000000;0.083505
9766.000000;0.083749
9765.000000;0.083705
9764.000000;0.083365
9763.000000;0.082947
9762.000000;0.082738
9761.000000;0.082830
9760.000000;0.083060
9759.000000;0.083223
9758.000000;0.083276
9757.000000;0.083292
9756.000000;0.083298
9755.000000;0.083231
9754.000000;0.083050
9753.000000;0.082812
9752.000000;0.082619
9751.000000;0.082524
9750.000000;0.082528
9749.000000;0.082612
9748.000000;0.082752
9747.000000;0.082894
9746.000000;0.082957
9745.000000;0.082888
9744.000000;0.082704
9743.000000;0.082473
9742.000000;0.082267
9741.000000;0.082142
9740.000000;0.082133
9739.000000;0.082261
9738.000000;0.082518
9737.000000;0.082840
9736.000000;0.083092
9735.000000;0.083132
9734.000000;0.082939
9733.000000;0.082665
9732.000000;0.082515
9731.000000;0.082538
9730.000000;0.082615
9729.000000;0.082638
9728.000000;0.082639
9727.000000;0.082679
9726.000000;0.082722
9725.000000;0.082698
9724.000000;0.082632
9723.000000;0.082617
9722.000000;0.082677
9721.000000;0.082772
9720.000000;0.082870
9719.000000;0.082920
9718.000000;0.082785
9717.000000;0.082369
9716.000000;0.081831
9715.000000;0.081499
9714.000000;0.081511
9713.000000;0.081695
9712.000000;0.081841
9711.000000;0.081963
9710.000000;0.082180
9709.000000;0.082444
9708.000000;0.082561
9707.000000;0.082431
9706.000000;0.082174
9705.000000;0.082006
9704.000000;0.082089
9703.000000;0.082430
9702.000000;0.082853
9701.000000;0.083086
9700.000000;0.082997
9699.000000;0.082733
9698.000000;0.082556
9697.000000;0.082557
9696.000000;0.082602
9695.000000;0.082544
9694.000000;0.082400
9693.000000;0.082292
9692.000000;0.082282
9691.000000;0.082303
9690.000000;0.082243
9689.000000;0.082079
9688.000000;0.081919
9687.000000;0.081885
9686.000000;0.081959
9685.000000;0.081968
9684.000000;0.081784
9683.000000;0.081483
9682.000000;0.081278
9681.000000;0.081306
9680.000000;0.081532
9679.000000;0.081848
9678.000000;0.082173
9677.000000;0.082469
9676.000000;0.082699
9675.000000;0.082822
9674.000000;0.082806
9673.000000;0.082648
9672.000000;0.082405
9671.000000;0.082195
9670.000000;0.082139
9669.000000;0.082267
9668.000000;0.082474
9667.000000;0.082575
9666.000000;0.082445
9665.000000;0.082140
9664.000000;0.081869
9663.000000;0.081794
9662.000000;0.081863
9661.000000;0.081889
9660.000000;0.081775
9659.000000;0.081608
9658.000000;0.081511
9657.000000;0.081492
9656.000000;0.081484
9655.000000;0.081469
9654.000000;0.081487
9653.000000;0.081576
9652.000000;0.081737
9651.000000;0.081951
9650.000000;0.082169
9649.000000;0.082325
9648.000000;0.082407
9647.000000;0.082465
9646.000000;0.082516
9645.000000;0.082475
9644.000000;0.082259
9643.000000;0.081928
9642.000000;0.081678
9641.000000;0.081661
9640.000000;0.081852
9639.000000;0.082070
9638.000000;0.082109
9637.000000;0.081886
9636.000000;0.081496
9635.000000;0.081146
9634.000000;0.080992
9633.000000;0.081042
9632.000000;0.081215
9631.000000;0.081435
9630.000000;0.081664
9629.000000;0.081879
9628.000000;0.082066
9627.000000;0.082203
9626.000000;0.082225
9625.000000;0.082067
9624.000000;0.081772
9623.000000;0.081522
9622.000000;0.081480
9621.000000;0.081620
9620.000000;0.081772
9619.000000;0.081813
9618.000000;0.081773
9617.000000;0.081731
9616.000000;0.081691
9615.000000;0.081588
9614.000000;0.081409
9613.000000;0.081254
9612.000000;0.081246
9611.000000;0.081381
9610.000000;0.081508
9609.000000;0.081483
9608.000000;0.081338
9607.000000;0.081251
9606.000000;0.081355
9605.000000;0.081625
9604.000000;0.081944
9603.000000;0.082222
9602.000000;0.082422
9601.000000;0.082529
9600.000000;0.082536
9599.000000;0.082431
9598.000000;0.082198
9597.000000;0.081861
9596.000000;0.081539
9595.000000;0.081389
9594.000000;0.081475
9593.000000;0.081705
9592.000000;0.081921
9591.000000;0.082018
9590.000000;0.082000
9589.000000;0.081959
9588.000000;0.082012
9587.000000;0.082179
9586.000000;0.082335
9585.000000;0.082331
9584.000000;0.082181
9583.000000;0.082042
9582.000000;0.082017
9581.000000;0.082062
9580.000000;0.082091
9579.000000;0.082069
9578.000000;0.081976
9577.000000;0.081799
9576.000000;0.081616
9575.000000;0.081586
9574.000000;0.081765
9573.000000;0.082020
9572.000000;0.082177
9571.000000;0.082214
9570.000000;0.082209
9569.000000;0.082199
9568.000000;0.082169
9567.000000;0.082142
9566.000000;0.082174
9565.000000;0.082278
9564.000000;0.082423
9563.000000;0.082569
9562.000000;0.082639
9561.000000;0.082544
9560.000000;0.082289
9559.000000;0.082021
9558.000000;0.081884
9557.000000;0.081866
9556.000000;0.081857
9555.000000;0.081787
9554.000000;0.081657
9553.000000;0.081477
9552.000000;0.081294
9551.000000;0.081218
9550.000000;0.081345
9549.000000;0.081644
9548.000000;0.081996
9547.000000;0.082313
9546.000000;0.082540
9545.000000;0.082602
9544.000000;0.082439
9543.000000;0.082113
9542.000000;0.081789
9541.000000;0.081624
9540.000000;0.081683
9539.000000;0.081941
9538.000000;0.082273
9537.000000;0.082486
9536.000000;0.082446
9535.000000;0.082196
9534.000000;0.081914
9533.000000;0.081770
9532.000000;0.081848
9531.000000;0.082156
9530.000000;0.082610
9529.000000;0.083041
9528.000000;0.083286
9527.000000;0.083301
9526.000000;0.083155
9525.000000;0.082935
9524.000000;0.082704
9523.000000;0.082516
9522.000000;0.082398
9521.000000;0.082329
9520.000000;0.082258
9519.000000;0.082144
9518.000000;0.081967
9517.000000;0.081751
9516.000000;0.081609
9515.000000;0.081678
9514.000000;0.081963
9513.000000;0.082300
9512.000000;0.082542
9511.000000;0.082696
9510.000000;0.082825
9509.000000;0.082896
9508.000000;0.082847
9507.000000;0.082736
9506.000000;0.082681
9505.000000;0.082688
9504.000000;0.082656
9503.000000;0.082564
9502.000000;0.082529
9501.000000;0.082648
9500.000000;0.082865
9499.000000;0.083027
9498.000000;0.083030
9497.000000;0.082885
9496.000000;0.082704
9495.000000;0.082615
9494.000000;0.082671
9493.000000;0.082821
9492.000000;0.082990
9491.000000;0.083138
9490.000000;0.083235
9489.000000;0.083241
9488.000000;0.083170
9487.000000;0.083109
9486.000000;0.083124
9485.000000;0.083181
9484.000000;0.083222
9483.000000;0.083244
9482.000000;0.083248
9481.000000;0.083200
9480.000000;0.083120
9479.000000;0.083142
9478.000000;0.083347
9477.000000;0.083608
9476.000000;0.083711
9475.000000;0.083608
9474.000000;0.083413
9473.000000;0.083213
9472.000000;0.083025
9471.000000;0.082895
9470.000000;0.082881
9469.000000;0.082932
9468.000000;0.082949
9467.000000;0.082962
9466.000000;0.083102
9465.000000;0.083359
9464.000000;0.083523
9463.000000;0.083441
9462.000000;0.083206
9461.000000;0.083033
9460.000000;0.083040
9459.000000;0.083197
9458.000000;0.083398
9457.000000;0.083535
9456.000000;0.083553
9455.000000;0.083498
9454.000000;0.083456
9453.000000;0.083445
9452.000000;0.083439
9451.000000;0.083465
9450.000000;0.083584
9449.000000;0.083755
9448.000000;0.083835
9447.000000;0.083770
9446.000000;0.083656
9445.000000;0.083588
9444.000000;0.083558
9443.000000;0.083564
9442.000000;0.083673
9441.000000;0.083881
9440.000000;0.083990
9439.000000;0.083773
9438.000000;0.083243
9437.000000;0.082673
9436.000000;0.082373
9435.000000;0.082480
9434.000000;0.082903
9433.000000;0.083398
9432.000000;0.083716
9431.000000;0.083758
9430.000000;0.083616
9429.000000;0.083454
9428.000000;0.083367
9427.000000;0.083357
9426.000000;0.083400
9425.000000;0.083483
9424.000000;0.083589
9423.000000;0.083667
9422.000000;0.083622
9421.000000;0.083394
9420.000000;0.083057
9419.000000;0.082824
9418.000000;0.082861
9417.000000;0.083091
9416.000000;0.083265
9415.000000;0.083247
9414.000000;0.083161
9413.000000;0.083229
9412.000000;0.083538
9411.000000;0.083986
9410.000000;0.084387
9409.000000;0.084606
9408.000000;0.084650
9407.000000;0.084648
9406.000000;0.084697
9405.000000;0.084719
9404.000000;0.084559
9403.000000;0.084235
9402.000000;0.083988
9401.000000;0.084035
9400.000000;0.084351
9399.000000;0.084748
9398.000000;0.085049
9397.000000;0.085137
9396.000000;0.084945
9395.000000;0.084552
9394.000000;0.084201
9393.000000;0.084104
9392.000000;0.084228
9391.000000;0.084377
9390.000000;0.084444
9389.000000;0.084488
9388.000000;0.084583
9387.000000;0.084719
9386.000000;0.084870
9385.000000;0.085027
9384.000000;0.085145
9383.000000;0.085156
9382.000000;0.085085
9381.000000;0.085042
9380.000000;0.085055
9379.000000;0.085007
9378.000000;0.084815
9377.000000;0.084593
9376.000000;0.084525
9375.000000;0.084617
9374.000000;0.084686
9373.000000;0.084592
9372.000000;0.084417
9371.000000;0.084361
9370.000000;0.084521
9369.000000;0.084805
9368.000000;0.085025
9367.000000;0.085052
9366.000000;0.084910
9365.000000;0.084747
9364.000000;0.084723
9363.000000;0.084883
9362.000000;0.085148
9361.000000;0.085408
9360.000000;0.085612
9359.000000;0.085758
9358.000000;0.085840
9357.000000;0.085841
9356.000000;0.085751
9355.000000;0.085571
9354.000000;0.085321
9353.000000;0.085085
9352.000000;0.085007
9351.000000;0.085187
9350.000000;0.085544
9349.000000;0.085852
9348.000000;0.085939
9347.000000;0.085821
9346.000000;0.085656
9345.000000;0.085580
9344.000000;0.085610
9343.000000;0.085668
9342.000000;0.085672
9341.000000;0.085624
9340.000000;0.085592
9339.000000;0.085606
9338.000000;0.085587
9337.000000;0.085427
9336.000000;0.085156
9335.000000;0.084937
9334.000000;0.084894
9333.000000;0.085004
9332.000000;0.085210
9331.000000;0.085521
9330.000000;0.085926
9329.000000;0.086258
9328.000000;0.086294
9327.000000;0.086003
9326.000000;0.085616
9325.000000;0.085420
9324.000000;0.085522
9323.000000;0.085818
9322.000000;0.086133
9321.000000;0.086345
9320.000000;0.086437
9319.000000;0.086477
9318.000000;0.086552
9317.000000;0.086658
9316.000000;0.086678
9315.000000;0.086513
9314.000000;0.086222
9313.000000;0.086000
9312.000000;0.085993
9311.000000;0.086162
9310.000000;0.086356
9309.000000;0.086491
9308.000000;0.086588
9307.000000;0.086665
9306.000000;0.086673
9305.000000;0.086581
9304.000000;0.086446
9303.000000;0.086337
9302.000000;0.086268
9301.000000;0.086247
9300.000000;0.086362
9299.000000;0.086676
9298.000000;0.087071
9297.000000;0.087307
9296.000000;0.087281
9295.000000;0.087107
9294.000000;0.086945
9293.000000;0.086840
9292.000000;0.086774
9291.000000;0.086751
9290.000000;0.086770
9289.000000;0.086777
9288.000000;0.086745
9287.000000;0.086741
9286.000000;0.086837
9285.000000;0.087010
9284.000000;0.087181
9283.000000;0.087298
9282.000000;0.087318
9281.000000;0.087188
9280.000000;0.086937
9279.000000;0.086714
9278.000000;0.086669
9277.000000;0.086803
9276.000000;0.087013
9275.000000;0.087232
9274.000000;0.087433
9273.000000;0.087554
9272.000000;0.087548
9271.000000;0.087465
9270.000000;0.087380
9269.000000;0.087268
9268.000000;0.087060
9267.000000;0.086828
9266.000000;0.086761
9265.000000;0.086929
9264.000000;0.087177
9263.000000;0.087316
9262.000000;0.087335
9261.000000;0.087373
9260.000000;0.087530
9259.000000;0.087778
9258.000000;0.088013
9257.000000;0.088173
9256.000000;0.088295
9255.000000;0.088458
9254.000000;0.088652
9253.000000;0.088742
9252.000000;0.088609
9251.000000;0.088296
9250.000000;0.087972
9249.000000;0.087760
9248.000000;0.087701
9247.000000;0.087820
9246.000000;0.088125
9245.000000;0.088500
9244.000000;0.088736
9243.000000;0.088739
9242.000000;0.088615
9241.000000;0.088522
9240.000000;0.088495
9239.000000;0.088500
9238.000000;0.088527
9237.000000;0.088570
9236.000000;0.088562
9235.000000;0.088461
9234.000000;0.088371
9233.000000;0.088449
9232.000000;0.088686
9231.000000;0.088865
9230.000000;0.088814
9229.000000;0.088612
9228.000000;0.088504
9227.000000;0.088642
9226.000000;0.088935
9225.000000;0.089153
9224.000000;0.089127
9223.000000;0.088885
9222.000000;0.088621
9221.000000;0.088543
9220.000000;0.088709
9219.000000;0.088983
9218.000000;0.089158
9217.000000;0.089118
9216.000000;0.088893
9215.000000;0.088592
9214.000000;0.088351
9213.000000;0.088313
9212.000000;0.088569
9211.000000;0.089022
9210.000000;0.089410
9209.000000;0.089530
9208.000000;0.089431
9207.000000;0.089309
9206.000000;0.089260
9205.000000;0.089250
9204.000000;0.089282
9203.000000;0.089449
9202.000000;0.089772
9201.000000;0.090108
9200.000000;0.090295
9199.000000;0.090289
9198.000000;0.090121
9197.000000;0.089820
9196.000000;0.089471
9195.000000;0.089262
9194.000000;0.089345
9193.000000;0.089677
9192.000000;0.090071
9191.000000;0.090370
9190.000000;0.090517
9189.000000;0.090516
9188.000000;0.090440
9187.000000;0.090418
9186.000000;0.090522
9185.000000;0.090673
9184.000000;0.090734
9183.000000;0.090663
9182.000000;0.090496
9181.000000;0.090257
9180.000000;0.089989
9179.000000;0.089840
9178.000000;0.089954
9177.000000;0.090265
9176.000000;0.090537
9175.000000;0.090628
9174.000000;0.090630
9173.000000;0.090710
9172.000000;0.090918
9171.000000;0.091180
9170.000000;0.091393
9169.000000;0.091468
9168.000000;0.091368
9167.000000;0.091171
9166.000000;0.091039
9165.000000;0.091077
9164.000000;0.091232
9163.000000;0.091355
9162.000000;0.091326
9161.000000;0.091118
9160.000000;0.090830
9159.000000;0.090657
9158.000000;0.090740
9157.000000;0.090998
9156.000000;0.091190
9155.000000;0.091171
9154.000000;0.091037
9153.000000;0.090977
9152.000000;0.091085
9151.000000;0.091359
9150.000000;0.091775
9149.000000;0.092252
9148.000000;0.092607
9147.000000;0.092688
9146.000000;0.092548
9145.000000;0.092397
9144.000000;0.092353
9143.000000;0.092341
9142.000000;0.092228
9141.000000;0.092003
9140.000000;0.091788
9139.000000;0.091715
9138.000000;0.091845
9137.000000;0.092150
9136.000000;0.092526
9135.000000;0.092817
9134.000000;0.092887
9133.000000;0.092720
9132.000000;0.092471
9131.000000;0.092358
9130.000000;0.092476
9129.000000;0.092705
9128.000000;0.092856
9127.000000;0.092901
9126.000000;0.092980
9125.000000;0.093170
9124.000000;0.093331
9123.000000;0.093291
9122.000000;0.093111
9121.000000;0.093042
9120.000000;0.093189
9119.000000;0.093350
9118.000000;0.093250
9117.000000;0.092872
9116.000000;0.092474
9115.000000;0.092321
9114.000000;0.092490
9113.000000;0.092888
9112.000000;0.093350
9111.000000;0.093697
9110.000000;0.093812
9109.000000;0.093746
9108.000000;0.093692
9107.000000;0.093795
9106.000000;0.094002
9105.000000;0.094151
9104.000000;0.094161
9103.000000;0.094084
9102.000000;0.093997
9101.000000;0.093931
9100.000000;0.093904
9099.000000;0.093959
9098.000000;0.094123
9097.000000;0.094349
9096.000000;0.094516
9095.000000;0.094508
9094.000000;0.094300
9093.000000;0.094011
9092.000000;0.093817
9091.000000;0.093806
9090.000000;0.093923
9089.000000;0.094089
9088.000000;0.094303
9087.000000;0.094572
9086.000000;0.094804
9085.000000;0.094869
9084.000000;0.094754
9083.000000;0.094580
9082.000000;0.094483
9081.000000;0.094543
9080.000000;0.094796
9079.000000;0.095199
9078.000000;0.095588
9077.000000;0.095792
9076.000000;0.095798
9075.000000;0.095715
9074.000000;0.095587
9073.000000;0.095380
9072.000000;0.095149
9071.000000;0.095051
9070.000000;0.095129
9069.000000;0.095236
9068.000000;0.095271
9067.000000;0.095321
9066.000000;0.095467
9065.000000;0.095581
9064.000000;0.095501
9063.000000;0.095280
9062.000000;0.095119
9061.000000;0.095094
9060.000000;0.095114
9059.000000;0.095110
9058.000000;0.095110
9057.000000;0.095127
9056.000000;0.095136
9055.000000;0.095172
9054.000000;0.095318
9053.000000;0.095577
