Criado como novo conjunto de dados;"e2410_daniel_v2.spp","74165.9 Secs"
cm-1;Abs
10000.000000;1.342527
9999.000000;1.342119
9998.000000;1.341195
9997.000000;1.339943
9996.000000;1.338998
9995.000000;1.338480
9994.000000;1.338087
9993.000000;1.337657
9992.000000;1.337397
9991.000000;1.337400
9990.000000;1.337494
9989.000000;1.337515
9988.000000;1.337424
9987.000000;1.337210
9986.000000;1.337018
9985.000000;1.337200
9984.000000;1.337820
9983.000000;1.338278
9982.000000;1.337905
9981.000000;1.336802
9980.000000;1.335584
9979.000000;1.334486
9978.000000;1.333355
9977.000000;1.332368
9976.000000;1.331977
9975.000000;1.332072
9974.000000;1.331955
9973.000000;1.331308
9972.000000;1.330512
9971.000000;1.329811
9970.000000;1.328898
9969.000000;1.327717
9968.000000;1.326975
9967.000000;1.327278
9966.000000;1.328184
9965.000000;1.328633
9964.000000;1.328069
9963.000000;1.326763
9962.000000;1.325337
9961.000000;1.324365
9960.000000;1.324181
9959.000000;1.324634
9958.000000;1.325053
9957.000000;1.324711
9956.000000;1.323371
9955.000000;1.321399
9954.000000;1.319514
9953.000000;1.318426
9952.000000;1.318352
9951.000000;1.318739
9950.000000;1.318760
9949.000000;1.318191
9948.000000;1.317500
9947.000000;1.317029
9946.000000;1.316558
9945.000000;1.315852
9944.000000;1.315191
9943.000000;1.315023
9942.000000;1.315361
9941.000000;1.315758
9940.000000;1.315750
9939.000000;1.315209
9938.000000;1.314427
9937.000000;1.313916
9936.000000;1.313876
9935.000000;1.313802
9934.000000;1.312977
9933.000000;1.311430
9932.000000;1.309956
9931.000000;1.309104
9930.000000;1.308607
9929.000000;1.307986
9928.000000;1.307251
9927.000000;1.306718
9926.000000;1.306475
9925.000000;1.306296
9924.000000;1.305856
9923.000000;1.304907
9922.000000;1.303530
9921.000000;1.302286
9920.000000;1.301773
9919.000000;1.301934
9918.000000;1.302121
9917.000000;1.301958
9916.000000;1.301691
9915.000000;1.301498
9914.000000;1.301085
9913.000000;1.300347
9912.000000;1.299842
9911.000000;1.300078
9910.000000;1.300676
9909.000000;1.300784
9908.000000;1.300092
9907.000000;1.298993
9906.000000;1.297942
9905.000000;1.297060
9904.000000;1.296256
9903.000000;1.295378
9902.000000;1.294306
9901.000000;1.293144
9900.000000;1.292236
9899.000000;1.291857
9898.000000;1.291984
9897.000000;1.292397
9896.000000;1.292749
9895.000000;1.292540
9894.000000;1.291432
9893.000000;1.289795
9892.000000;1.288489
9891.000000;1.287882
9890.000000;1.287448
9889.000000;1.286595
9888.000000;1.285506
9887.000000;1.284813
9886.000000;1.284802
9885.000000;1.285306
9884.000000;1.286036
9883.000000;1.286554
9882.000000;1.286249
9881.000000;1.284937
9880.000000;1.283359
9879.000000;1.282518
9878.000000;1.282544
9877.000000;1.282592
9876.000000;1.281843
9875.000000;1.280278
9874.000000;1.278500
9873.000000;1.277128
9872.000000;1.276453
9871.000000;1.276354
9870.000000;1.276435
9869.000000;1.276395
9868.000000;1.276256
9867.000000;1.276142
9866.000000;1.275947
9865.000000;1.275414
9864.000000;1.274510
9863.000000;1.273549
9862.000000;1.272931
9861.000000;1.272802
9860.000000;1.272915
9859.000000;1.272838
9858.000000;1.272413
9857.000000;1.271962
9856.000000;1.271849
9855.000000;1.271914
9854.000000;1.271665
9853.000000;1.271011
9852.000000;1.270356
9851.000000;1.269901
9850.000000;1.269332
9849.000000;1.268484
9848.000000;1.267769
9847.000000;1.267556
9846.000000;1.267511
9845.000000;1.267029
9844.000000;1.266089
9843.000000;1.265233
9842.000000;1.264782
9841.000000;1.264512
9840.000000;1.264062
9839.000000;1.263309
9838.000000;1.262324
9837.000000;1.261272
9836.000000;1.260379
9835.000000;1.259799
9834.000000;1.259509
9833.000000;1.259453
9832.000000;1.259694
9831.000000;1.260236
9830.000000;1.260784
9829.000000;1.260883
9828.000000;1.260242
9827.000000;1.258840
9826.000000;1.256903
9825.000000;1.254916
9824.000000;1.253444
9823.000000;1.252682
9822.000000;1.252303
9821.000000;1.251960
9820.000000;1.251725
9819.000000;1.251843
9818.000000;1.252291
9817.000000;1.252874
9816.000000;1.253516
9815.000000;1.254091
9814.000000;1.254144
9813.000000;1.253262
9812.000000;1.251696
9811.000000;1.250190
9810.000000;1.249176
9809.000000;1.248466
9808.000000;1.247749
9807.000000;1.247067
9806.000000;1.246693
9805.000000;1.246776
9804.000000;1.247173
9803.000000;1.247461
9802.000000;1.247145
9801.000000;1.246159
9800.000000;1.245148
9799.000000;1.244899
9798.000000;1.245427
9797.000000;1.245878
9796.000000;1.245444
9795.000000;1.244120
9794.000000;1.242422
9793.000000;1.240704
9792.000000;1.239058
9791.000000;1.237618
9790.000000;1.236564
9789.000000;1.235856
9788.000000;1.235297
9787.000000;1.234925
9786.000000;1.235081
9785.000000;1.235924
9784.000000;1.237066
9783.000000;1.237846
9782.000000;1.237900
9781.000000;1.237300
9780.000000;1.236273
9779.000000;1.235049
9778.000000;1.233993
9777.000000;1.233539
9776.000000;1.233780
9775.000000;1.234287
9774.000000;1.234524
9773.000000;1.234304
9772.000000;1.233709
9771.000000;1.232752
9770.000000;1.231441
9769.000000;1.230063
9768.000000;1.229036
9767.000000;1.228436
9766.000000;1.227973
9765.000000;1.227495
9764.000000;1.227223
9763.000000;1.227343
9762.000000;1.227630
9761.000000;1.227683
9760.000000;1.227376
9759.000000;1.226865
9758.000000;1.226308
9757.000000;1.225759
9756.000000;1.225225
9755.000000;1.224636
9754.000000;1.223829
9753.000000;1.222762
9752.000000;1.221744
9751.000000;1.221221
9750.000000;1.221262
9749.000000;1.221394
9748.000000;1.221053
9747.000000;1.220126
9746.000000;1.218999
9745.000000;1.218158
9744.000000;1.217882
9743.000000;1.218204
9742.000000;1.218925
9741.000000;1.219575
9740.000000;1.219579
9739.000000;1.218723
9738.000000;1.217407
9737.000000;1.216228
9736.000000;1.215346
9735.000000;1.214512
9734.000000;1.213688
9733.000000;1.213260
9732.000000;1.213473
9731.000000;1.213954
9730.000000;1.214046
9729.000000;1.213441
9728.000000;1.212266
9727.000000;1.210783
9726.000000;1.209368
9725.000000;1.208571
9724.000000;1.208708
9723.000000;1.209382
9722.000000;1.209775
9721.000000;1.209501
9720.000000;1.208850
9719.000000;1.208142
9718.000000;1.207218
9717.000000;1.205762
9716.000000;1.203854
9715.000000;1.201992
9714.000000;1.200673
9713.000000;1.200094
9712.000000;1.200133
9711.000000;1.200492
9710.000000;1.200899
9709.000000;1.201234
9708.000000;1.201387
9707.000000;1.201091
9706.000000;1.200105
9705.000000;1.198626
9704.000000;1.197341
9703.000000;1.196934
9702.000000;1.197528
9701.000000;1.198585
9700.000000;1.199311
9699.000000;1.199202
9698.000000;1.198331
9697.000000;1.197163
9696.000000;1.196107
9695.000000;1.195300
9694.000000;1.194704
9693.000000;1.194194
9692.000000;1.193521
9691.000000;1.192489
9690.000000;1.191364
9689.000000;1.190829
9688.000000;1.191257
9687.000000;1.192151
9686.000000;1.192623
9685.000000;1.192339
9684.000000;1.191717
9683.000000;1.191231
9682.000000;1.190889
9681.000000;1.190431
9680.000000;1.189786
9679.000000;1.189200
9678.000000;1.188996
9677.000000;1.189206
9676.000000;1.189415
9675.000000;1.189107
9674.000000;1.188288
9673.000000;1.187496
9672.000000;1.187016
9671.000000;1.186392
9670.000000;1.185063
9669.000000;1.183233
9668.000000;1.181659
9667.000000;1.180713
9666.000000;1.180164
9665.000000;1.179793
9664.000000;1.179669
9663.000000;1.179764
9662.000000;1.179807
9661.000000;1.179697
9660.000000;1.179644
9659.000000;1.179732
9658.000000;1.179711
9657.000000;1.179415
9656.000000;1.179024
9655.000000;1.178697
9654.000000;1.178272
9653.000000;1.177556
9652.000000;1.176632
9651.000000;1.175662
9650.000000;1.174610
9649.000000;1.173429
9648.000000;1.172335
9647.000000;1.171637
9646.000000;1.171403
9645.000000;1.171425
9644.000000;1.171428
9643.000000;1.171219
9642.000000;1.170800
9641.000000;1.170458
9640.000000;1.170550
9639.000000;1.171042
9638.000000;1.171408
9637.000000;1.171157
9636.000000;1.170380
9635.000000;1.169650
9634.000000;1.169430
9633.000000;1.169631
9632.000000;1.169697
9631.000000;1.169111
9630.000000;1.167917
9629.000000;1.166716
9628.000000;1.166014
9627.000000;1.165665
9626.000000;1.165135
9625.000000;1.164262
9624.000000;1.163432
9623.000000;1.162993
9622.000000;1.162824
9621.000000;1.162609
9620.000000;1.162249
9619.000000;1.161842
9618.000000;1.161469
9617.000000;1.161192
9616.000000;1.161057
9615.000000;1.160968
9614.000000;1.160728
9613.000000;1.160334
9612.000000;1.160060
9611.000000;1.160064
9610.000000;1.160060
9609.000000;1.159571
9608.000000;1.158448
9607.000000;1.157018
9606.000000;1.155776
9605.000000;1.155045
9604.000000;1.154893
9603.000000;1.155214
9602.000000;1.155830
9601.000000;1.156511
9600.000000;1.156947
9599.000000;1.156829
9598.000000;1.156084
9597.000000;1.155015
9596.000000;1.154071
9595.000000;1.153449
9594.000000;1.152997
9593.000000;1.152447
9592.000000;1.151671
9591.000000;1.150754
9590.000000;1.149943
9589.000000;1.149447
9588.000000;1.149170
9587.000000;1.148755
9586.000000;1.148051
9585.000000;1.147420
9584.000000;1.147348
9583.000000;1.147835
9582.000000;1.148392
9581.000000;1.148518
9580.000000;1.147966
9579.000000;1.146707
9578.000000;1.145052
9577.000000;1.143715
9576.000000;1.143286
9575.000000;1.143549
9574.000000;1.143691
9573.000000;1.143270
9572.000000;1.142640
9571.000000;1.142301
9570.000000;1.142287
9569.000000;1.142401
9568.000000;1.142628
9567.000000;1.142966
9566.000000;1.143139
9565.000000;1.142894
9564.000000;1.142450
9563.000000;1.142233
9562.000000;1.142202
9561.000000;1.141800
9560.000000;1.140719
9559.000000;1.139407
9558.000000;1.138592
9557.000000;1.138399
9556.000000;1.138194
9555.000000;1.137346
9554.000000;1.135993
9553.000000;1.134866
9552.000000;1.134431
9551.000000;1.134439
9550.000000;1.134344
9549.000000;1.133925
9548.000000;1.133352
9547.000000;1.132865
9546.000000;1.132573
9545.000000;1.132419
9544.000000;1.132143
9543.000000;1.131424
9542.000000;1.130319
9541.000000;1.129421
9540.000000;1.129292
9539.000000;1.129804
9538.000000;1.130277
9537.000000;1.130192
9536.000000;1.129501
9535.000000;1.128407
9534.000000;1.127212
9533.000000;1.126348
9532.000000;1.126126
9531.000000;1.126315
9530.000000;1.126288
9529.000000;1.125715
9528.000000;1.124920
9527.000000;1.124461
9526.000000;1.124534
9525.000000;1.124837
9524.000000;1.124831
9523.000000;1.124144
9522.000000;1.122877
9521.000000;1.121540
9520.000000;1.120546
9519.000000;1.119846
9518.000000;1.119196
9517.000000;1.118623
9516.000000;1.118328
9515.000000;1.118257
9514.000000;1.118160
9513.000000;1.118045
9512.000000;1.118173
9511.000000;1.118535
9510.000000;1.118712
9509.000000;1.118354
9508.000000;1.117513
9507.000000;1.116450
9506.000000;1.115453
9505.000000;1.114895
9504.000000;1.115060
9503.000000;1.115691
9502.000000;1.116018
9501.000000;1.115488
9500.000000;1.114317
9499.000000;1.113173
9498.000000;1.112508
9497.000000;1.112316
9496.000000;1.112335
9495.000000;1.112315
9494.000000;1.112193
9493.000000;1.112095
9492.000000;1.112102
9491.000000;1.112046
9490.000000;1.111728
9489.000000;1.111227
9488.000000;1.110742
9487.000000;1.110177
9486.000000;1.109297
9485.000000;1.108316
9484.000000;1.107901
9483.000000;1.108390
9482.000000;1.109347
9481.000000;1.110053
9480.000000;1.110175
9479.000000;1.109757
9478.000000;1.108909
9477.000000;1.107817
9476.000000;1.106830
9475.000000;1.106179
9474.000000;1.105694
9473.000000;1.105017
9472.000000;1.104046
9471.000000;1.103038
9470.000000;1.102342
9469.000000;1.102143
9468.000000;1.102354
9467.000000;1.102642
9466.000000;1.102658
9465.000000;1.102325
9464.000000;1.101846
9463.000000;1.101446
9462.000000;1.101216
9461.000000;1.101122
9460.000000;1.100927
9459.000000;1.100158
9458.000000;1.098538
9457.000000;1.096555
9456.000000;1.095235
9455.000000;1.095112
9454.000000;1.095666
9453.000000;1.095970
9452.000000;1.095707
9451.000000;1.095333
9450.000000;1.095399
9449.000000;1.095989
9448.000000;1.096716
9447.000000;1.097011
9446.000000;1.096472
9445.000000;1.095157
9444.000000;1.093605
9443.000000;1.092469
9442.000000;1.092075
9441.000000;1.092279
9440.000000;1.092633
9439.000000;1.092688
9438.000000;1.092309
9437.000000;1.091730
9436.000000;1.091232
9435.000000;1.090774
9434.000000;1.090108
9433.000000;1.089237
9432.000000;1.088514
9431.000000;1.088182
9430.000000;1.088068
9429.000000;1.087857
9428.000000;1.087488
9427.000000;1.087147
9426.000000;1.087010
9425.000000;1.087113
9424.000000;1.087354
9423.000000;1.087498
9422.000000;1.087308
9421.000000;1.086795
9420.000000;1.086218
9419.000000;1.085745
9418.000000;1.085246
9417.000000;1.084544
9416.000000;1.083742
9415.000000;1.083147
9414.000000;1.082894
9413.000000;1.082786
9412.000000;1.082490
9411.000000;1.081843
9410.000000;1.080994
9409.000000;1.080254
9408.000000;1.079767
9407.000000;1.079371
9406.000000;1.078861
9405.000000;1.078287
9404.000000;1.077823
9403.000000;1.077404
9402.000000;1.076760
9401.000000;1.075849
9400.000000;1.075014
9399.000000;1.074595
9398.000000;1.074576
9397.000000;1.074709
9396.000000;1.074782
9395.000000;1.074666
9394.000000;1.074282
9393.000000;1.073716
9392.000000;1.073254
9391.000000;1.073139
9390.000000;1.073326
9389.000000;1.073538
9388.000000;1.073510
9387.000000;1.073119
9386.000000;1.072380
9385.000000;1.071455
9384.000000;1.070626
9383.000000;1.070177
9382.000000;1.070247
9381.000000;1.070702
9380.000000;1.071096
9379.000000;1.070864
9378.000000;1.069791
9377.000000;1.068306
9376.000000;1.067177
9375.000000;1.066870
9374.000000;1.067283
9373.000000;1.068017
9372.000000;1.068715
9371.000000;1.069143
9370.000000;1.069166
9369.000000;1.068784
9368.000000;1.068107
9367.000000;1.067270
9366.000000;1.066460
9365.000000;1.065948
9364.000000;1.065915
9363.000000;1.066196
9362.000000;1.066371
9361.000000;1.066154
9360.000000;1.065576
9359.000000;1.064793
9358.000000;1.063909
9357.000000;1.063031
9356.000000;1.062326
9355.000000;1.061933
9354.000000;1.061886
9353.000000;1.062101
9352.000000;1.062341
9351.000000;1.062250
9350.000000;1.061616
9349.000000;1.060609
9348.000000;1.059589
9347.000000;1.058738
9346.000000;1.058065
9345.000000;1.057663
9344.000000;1.057658
9343.000000;1.057873
9342.000000;1.057863
9341.000000;1.057419
9340.000000;1.056806
9339.000000;1.056399
9338.000000;1.056302
9337.000000;1.056393
9336.000000;1.056515
9335.000000;1.056492
9334.000000;1.056164
9333.000000;1.055578
9332.000000;1.055006
9331.000000;1.054613
9330.000000;1.054243
9329.000000;1.053649
9328.000000;1.052838
9327.000000;1.052095
9326.000000;1.051717
9325.000000;1.051782
9324.000000;1.052074
9323.000000;1.052235
9322.000000;1.052099
9321.000000;1.051840
9320.000000;1.051615
9319.000000;1.051183
9318.000000;1.050145
9317.000000;1.048631
9316.000000;1.047402
9315.000000;1.047083
9314.000000;1.047500
9313.000000;1.047951
9312.000000;1.047972
9311.000000;1.047666
9310.000000;1.047387
9309.000000;1.047332
9308.000000;1.047418
9307.000000;1.047425
9306.000000;1.047242
9305.000000;1.046998
9304.000000;1.046904
9303.000000;1.046947
9302.000000;1.046869
9301.000000;1.046497
9300.000000;1.045941
9299.000000;1.045410
9298.000000;1.044954
9297.000000;1.044500
9296.000000;1.044039
9295.000000;1.043660
9294.000000;1.043432
9293.000000;1.043334
9292.000000;1.043277
9291.000000;1.043145
9290.000000;1.042880
9289.000000;1.042535
9288.000000;1.042184
9287.000000;1.041787
9286.000000;1.041219
9285.000000;1.040462
9284.000000;1.039671
9283.000000;1.038990
9282.000000;1.038397
9281.000000;1.037812
9280.000000;1.037283
9279.000000;1.036987
9278.000000;1.037007
9277.000000;1.037162
9276.000000;1.037111
9275.000000;1.036695
9274.000000;1.036138
9273.000000;1.035807
9272.000000;1.035805
9271.000000;1.035920
9270.000000;1.035976
9269.000000;1.035994
9268.000000;1.035949
9267.000000;1.035693
9266.000000;1.035307
9265.000000;1.035214
9264.000000;1.035614
9263.000000;1.036030
9262.000000;1.035815
9261.000000;1.034978
9260.000000;1.034123
9259.000000;1.033637
9258.000000;1.033397
9257.000000;1.033210
9256.000000;1.033077
9255.000000;1.032933
9254.000000;1.032566
9253.000000;1.031987
9252.000000;1.031500
9251.000000;1.031226
9250.000000;1.030895
9249.000000;1.030338
9248.000000;1.029853
9247.000000;1.029791
9246.000000;1.030012
9245.000000;1.030044
9244.000000;1.029658
9243.000000;1.029006
9242.000000;1.028299
9241.000000;1.027626
9240.000000;1.027067
9239.000000;1.026757
9238.000000;1.026736
9237.000000;1.026833
9236.000000;1.026733
9235.000000;1.026171
9234.000000;1.025147
9233.000000;1.024010
9232.000000;1.023247
9231.000000;1.023115
9230.000000;1.023439
9229.000000;1.023771
9228.000000;1.023761
9227.000000;1.023429
9226.000000;1.023130
9225.000000;1.023210
9224.000000;1.023619
9223.000000;1.023948
9222.000000;1.023929
9221.000000;1.023768
9220.000000;1.023803
9219.000000;1.023969
9218.000000;1.023880
9217.000000;1.023364
9216.000000;1.022617
9215.000000;1.021810
9214.000000;1.020873
9213.000000;1.019780
9212.000000;1.018804
9211.000000;1.018301
9210.000000;1.018364
9209.000000;1.018753
9208.000000;1.019079
9207.000000;1.019038
9206.000000;1.018612
9205.000000;1.018081
9204.000000;1.017729
9203.000000;1.017564
9202.000000;1.017445
9201.000000;1.017367
9200.000000;1.017371
9199.000000;1.017258
9198.000000;1.016761
9197.000000;1.016047
9196.000000;1.015644
9195.000000;1.015733
9194.000000;1.015867
9193.000000;1.015629
9192.000000;1.015250
9191.000000;1.015266
9190.000000;1.015732
9189.000000;1.016109
9188.000000;1.015922
9187.000000;1.015253
9186.000000;1.014530
9185.000000;1.014001
9184.000000;1.013538
9183.000000;1.012906
9182.000000;1.012127
9181.000000;1.011508
9180.000000;1.011265
9179.000000;1.011225
9178.000000;1.011013
9177.000000;1.010484
9176.000000;1.009807
9175.000000;1.009195
9174.000000;1.008762
9173.000000;1.008609
9172.000000;1.008817
9171.000000;1.009273
9170.000000;1.009704
9169.000000;1.009977
9168.000000;1.010187
9167.000000;1.010367
9166.000000;1.010317
9165.000000;1.009844
9164.000000;1.009053
9163.000000;1.008243
9162.000000;1.007643
9161.000000;1.007326
9160.000000;1.007273
9159.000000;1.007384
9158.000000;1.007476
9157.000000;1.007392
9156.000000;1.007137
9155.000000;1.006872
9154.000000;1.006772
9153.000000;1.006843
9152.000000;1.006856
9151.000000;1.006519
9150.000000;1.005802
9149.000000;1.005012
9148.000000;1.004461
9147.000000;1.004150
9146.000000;1.003925
9145.000000;1.003806
9144.000000;1.003912
9143.000000;1.004139
9142.000000;1.004181
9141.000000;1.003877
9140.000000;1.003314
9139.000000;1.002607
9138.000000;1.001828
9137.000000;1.001174
9136.000000;1.000891
9135.000000;1.000953
9134.000000;1.001045
9133.000000;1.000944
9132.000000;1.000676
9131.000000;1.000257
9130.000000;0.999587
9129.000000;0.998737
9128.000000;0.998052
9127.000000;0.997762
9126.000000;0.997703
9125.000000;0.997590
9124.000000;0.997401
9123.000000;0.997318
9122.000000;0.997409
9121.000000;0.997594
9120.000000;0.997797
9119.000000;0.997962
9118.000000;0.997972
9117.000000;0.997707
9116.000000;0.997173
9115.000000;0.996505
9114.000000;0.995893
9113.000000;0.995532
9112.000000;0.995512
9111.000000;0.995695
9110.000000;0.995801
9109.000000;0.995694
9108.000000;0.995489
9107.000000;0.995353
9106.000000;0.995328
9105.000000;0.995393
9104.000000;0.995527
9103.000000;0.995647
9102.000000;0.995585
9101.000000;0.995231
9100.000000;0.994611
9099.000000;0.993809
9098.000000;0.992935
9097.000000;0.992188
9096.000000;0.991814
9095.000000;0.991901
9094.000000;0.992289
9093.000000;0.992714
9092.000000;0.992928
9091.000000;0.992739
9090.000000;0.992124
9089.000000;0.991330
9088.000000;0.990662
9087.000000;0.990146
9086.000000;0.989593
9085.000000;0.989020
9084.000000;0.988752
9083.000000;0.988979
9082.000000;0.989462
9081.000000;0.989816
9080.000000;0.989894
9079.000000;0.989728
9078.000000;0.989288
9077.000000;0.988555
9076.000000;0.987718
9075.000000;0.987086
9074.000000;0.986806
9073.000000;0.986824
9072.000000;0.987029
9071.000000;0.987315
9070.000000;0.987508
9069.000000;0.987440
9068.000000;0.987108
9067.000000;0.986718
9066.000000;0.986501
9065.000000;0.986514
9064.000000;0.986576
9063.000000;0.986405
9062.000000;0.985858
9061.000000;0.985057
9060.000000;0.984267
9059.000000;0.983715
9058.000000;0.983511
9057.000000;0.983635
9056.000000;0.983872
9055.000000;0.983883
9054.000000;0.983522
9053.000000;0.983045
