Criado como novo conjunto de dados;"e2410_daniel_v2.spp","71645.8 Secs"
cm-1;Abs
10000.000000;1.336872
9999.000000;1.337329
9998.000000;1.337786
9997.000000;1.338244
9996.000000;1.338703
9995.000000;1.339162
9994.000000;1.339621
9993.000000;1.340082
9992.000000;1.340541
9991.000000;1.341003
9990.000000;1.341464
9989.000000;1.341864
9988.000000;1.341728
9987.000000;1.340753
9986.000000;1.339314
9985.000000;1.338067
9984.000000;1.337623
9983.000000;1.338201
9982.000000;1.339324
9981.000000;1.339869
9980.000000;1.338945
9979.000000;1.336856
9978.000000;1.334861
9977.000000;1.333881
9976.000000;1.333772
9975.000000;1.333896
9974.000000;1.333959
9973.000000;1.333963
9972.000000;1.333680
9971.000000;1.332782
9970.000000;1.331519
9969.000000;1.330668
9968.000000;1.330531
9967.000000;1.330420
9966.000000;1.329519
9965.000000;1.328105
9964.000000;1.327407
9963.000000;1.328177
9962.000000;1.329707
9961.000000;1.330518
9960.000000;1.329848
9959.000000;1.328177
9958.000000;1.326373
9957.000000;1.324774
9956.000000;1.323294
9955.000000;1.322064
9954.000000;1.321501
9953.000000;1.321696
9952.000000;1.322103
9951.000000;1.322145
9950.000000;1.321966
9949.000000;1.322196
9948.000000;1.322920
9947.000000;1.323303
9946.000000;1.322582
9945.000000;1.321159
9944.000000;1.320174
9943.000000;1.320037
9942.000000;1.319947
9941.000000;1.319048
9940.000000;1.317541
9939.000000;1.316221
9938.000000;1.315333
9937.000000;1.314505
9936.000000;1.313682
9935.000000;1.313424
9934.000000;1.314074
9933.000000;1.315066
9932.000000;1.315384
9931.000000;1.314530
9930.000000;1.312846
9929.000000;1.311073
9928.000000;1.309776
9927.000000;1.309079
9926.000000;1.308730
9925.000000;1.308431
9924.000000;1.308123
9923.000000;1.307869
9922.000000;1.307525
9921.000000;1.306807
9920.000000;1.305769
9919.000000;1.304916
9918.000000;1.304616
9917.000000;1.304629
9916.000000;1.304437
9915.000000;1.303923
9914.000000;1.303408
9913.000000;1.303078
9912.000000;1.302647
9911.000000;1.301714
9910.000000;1.300350
9909.000000;1.299226
9908.000000;1.299099
9907.000000;1.300066
9906.000000;1.301272
9905.000000;1.301513
9904.000000;1.300320
9903.000000;1.298352
9902.000000;1.296627
9901.000000;1.295577
9900.000000;1.295010
9899.000000;1.294705
9898.000000;1.294644
9897.000000;1.294720
9896.000000;1.294641
9895.000000;1.294252
9894.000000;1.293719
9893.000000;1.293315
9892.000000;1.293199
9891.000000;1.293403
9890.000000;1.293769
9889.000000;1.293868
9888.000000;1.293329
9887.000000;1.292401
9886.000000;1.291796
9885.000000;1.291738
9884.000000;1.291523
9883.000000;1.290441
9882.000000;1.288852
9881.000000;1.287757
9880.000000;1.287413
9879.000000;1.287031
9878.000000;1.285943
9877.000000;1.284528
9876.000000;1.283640
9875.000000;1.283513
9874.000000;1.283656
9873.000000;1.283577
9872.000000;1.283220
9871.000000;1.282774
9870.000000;1.282405
9869.000000;1.282192
9868.000000;1.282073
9867.000000;1.281832
9866.000000;1.281288
9865.000000;1.280429
9864.000000;1.279252
9863.000000;1.277698
9862.000000;1.276031
9861.000000;1.275060
9860.000000;1.275462
9859.000000;1.276826
9858.000000;1.277807
9857.000000;1.277427
9856.000000;1.275932
9855.000000;1.274227
9854.000000;1.272906
9853.000000;1.272094
9852.000000;1.271803
9851.000000;1.271962
9850.000000;1.272226
9849.000000;1.272174
9848.000000;1.271723
9847.000000;1.271121
9846.000000;1.270583
9845.000000;1.270172
9844.000000;1.269915
9843.000000;1.269747
9842.000000;1.269389
9841.000000;1.268566
9840.000000;1.267389
9839.000000;1.266278
9838.000000;1.265488
9837.000000;1.264947
9836.000000;1.264551
9835.000000;1.264349
9834.000000;1.264336
9833.000000;1.264293
9832.000000;1.263973
9831.000000;1.263345
9830.000000;1.262538
9829.000000;1.261661
9828.000000;1.260768
9827.000000;1.259947
9826.000000;1.259330
9825.000000;1.258969
9824.000000;1.258719
9823.000000;1.258294
9822.000000;1.257545
9821.000000;1.256704
9820.000000;1.256248
9819.000000;1.256425
9818.000000;1.257004
9817.000000;1.257534
9816.000000;1.257678
9815.000000;1.257195
9814.000000;1.255872
9813.000000;1.253842
9812.000000;1.251842
9811.000000;1.250741
9810.000000;1.250706
9809.000000;1.251103
9808.000000;1.251238
9807.000000;1.250951
9806.000000;1.250424
9805.000000;1.249769
9804.000000;1.249048
9803.000000;1.248455
9802.000000;1.248227
9801.000000;1.248430
9800.000000;1.248973
9799.000000;1.249694
9798.000000;1.250276
9797.000000;1.250245
9796.000000;1.249315
9795.000000;1.247743
9794.000000;1.246168
9793.000000;1.245093
9792.000000;1.244599
9791.000000;1.244486
9790.000000;1.244515
9789.000000;1.244506
9788.000000;1.244358
9787.000000;1.244053
9786.000000;1.243557
9785.000000;1.242697
9784.000000;1.241246
9783.000000;1.239250
9782.000000;1.237239
9781.000000;1.235975
9780.000000;1.235872
9779.000000;1.236619
9778.000000;1.237423
9777.000000;1.237682
9776.000000;1.237412
9775.000000;1.236975
9774.000000;1.236492
9773.000000;1.235728
9772.000000;1.234538
9771.000000;1.233205
9770.000000;1.232174
9769.000000;1.231548
9768.000000;1.231053
9767.000000;1.230503
9766.000000;1.230126
9765.000000;1.230304
9764.000000;1.231041
9763.000000;1.231836
9762.000000;1.232081
9761.000000;1.231555
9760.000000;1.230479
9759.000000;1.229225
9758.000000;1.228115
9757.000000;1.227391
9756.000000;1.227157
9755.000000;1.227234
9754.000000;1.227231
9753.000000;1.226878
9752.000000;1.226237
9751.000000;1.225556
9750.000000;1.225030
9749.000000;1.224757
9748.000000;1.224749
9747.000000;1.224819
9746.000000;1.224542
9745.000000;1.223579
9744.000000;1.222067
9743.000000;1.220570
9742.000000;1.219631
9741.000000;1.219404
9740.000000;1.219613
9739.000000;1.219740
9738.000000;1.219390
9737.000000;1.218663
9736.000000;1.218053
9735.000000;1.217828
9734.000000;1.217634
9733.000000;1.216954
9732.000000;1.215827
9731.000000;1.214769
9730.000000;1.214036
9729.000000;1.213372
9728.000000;1.212570
9727.000000;1.211856
9726.000000;1.211488
9725.000000;1.211304
9724.000000;1.211016
9723.000000;1.210758
9722.000000;1.210943
9721.000000;1.211622
9720.000000;1.212240
9719.000000;1.212068
9718.000000;1.210773
9717.000000;1.208629
9716.000000;1.206394
9715.000000;1.204956
9714.000000;1.204798
9713.000000;1.205615
9712.000000;1.206502
9711.000000;1.206650
9710.000000;1.205930
9709.000000;1.204818
9708.000000;1.203896
9707.000000;1.203445
9706.000000;1.203404
9705.000000;1.203525
9704.000000;1.203515
9703.000000;1.203117
9702.000000;1.202269
9701.000000;1.201221
9700.000000;1.200401
9699.000000;1.200027
9698.000000;1.199908
9697.000000;1.199699
9696.000000;1.199322
9695.000000;1.199014
9694.000000;1.198980
9693.000000;1.199119
9692.000000;1.199100
9691.000000;1.198622
9690.000000;1.197622
9689.000000;1.196345
9688.000000;1.195226
9687.000000;1.194599
9686.000000;1.194459
9685.000000;1.194561
9684.000000;1.194657
9683.000000;1.194537
9682.000000;1.193961
9681.000000;1.192857
9680.000000;1.191601
9679.000000;1.190768
9678.000000;1.190489
9677.000000;1.190313
9676.000000;1.189836
9675.000000;1.189244
9674.000000;1.188990
9673.000000;1.189136
9672.000000;1.189297
9671.000000;1.189173
9670.000000;1.188831
9669.000000;1.188449
9668.000000;1.188016
9667.000000;1.187366
9666.000000;1.186409
9665.000000;1.185229
9664.000000;1.184037
9663.000000;1.183077
9662.000000;1.182505
9661.000000;1.182300
9660.000000;1.182285
9659.000000;1.182248
9658.000000;1.182047
9657.000000;1.181669
9656.000000;1.181230
9655.000000;1.180900
9654.000000;1.180741
9653.000000;1.180615
9652.000000;1.180291
9651.000000;1.179660
9650.000000;1.178842
9649.000000;1.178095
9648.000000;1.177607
9647.000000;1.177331
9646.000000;1.177062
9645.000000;1.176687
9644.000000;1.176331
9643.000000;1.176134
9642.000000;1.175976
9641.000000;1.175607
9640.000000;1.175068
9639.000000;1.174747
9638.000000;1.174854
9637.000000;1.174997
9636.000000;1.174493
9635.000000;1.173078
9634.000000;1.171206
9633.000000;1.169646
9632.000000;1.168914
9631.000000;1.168996
9630.000000;1.169425
9629.000000;1.169609
9628.000000;1.169230
9627.000000;1.168447
9626.000000;1.167712
9625.000000;1.167405
9624.000000;1.167611
9623.000000;1.168145
9622.000000;1.168653
9621.000000;1.168735
9620.000000;1.168122
9619.000000;1.166862
9618.000000;1.165320
9617.000000;1.163963
9616.000000;1.163034
9615.000000;1.162410
9614.000000;1.161799
9613.000000;1.161136
9612.000000;1.160718
9611.000000;1.160811
9610.000000;1.161221
9609.000000;1.161426
9608.000000;1.161180
9607.000000;1.160729
9606.000000;1.160332
9605.000000;1.159830
9604.000000;1.158897
9603.000000;1.157591
9602.000000;1.156395
9601.000000;1.155726
9600.000000;1.155578
9599.000000;1.155640
9598.000000;1.155601
9597.000000;1.155352
9596.000000;1.155019
9595.000000;1.154774
9594.000000;1.154554
9593.000000;1.154046
9592.000000;1.153084
9591.000000;1.151965
9590.000000;1.151203
9589.000000;1.150992
9588.000000;1.151090
9587.000000;1.151197
9586.000000;1.151269
9585.000000;1.151393
9584.000000;1.151500
9583.000000;1.151328
9582.000000;1.150612
9581.000000;1.149341
9580.000000;1.147916
9579.000000;1.146991
9578.000000;1.146949
9577.000000;1.147485
9576.000000;1.147828
9575.000000;1.147485
9574.000000;1.146674
9573.000000;1.145980
9572.000000;1.145715
9571.000000;1.145665
9570.000000;1.145381
9569.000000;1.144661
9568.000000;1.143819
9567.000000;1.143442
9566.000000;1.143775
9565.000000;1.144327
9564.000000;1.144279
9563.000000;1.143362
9562.000000;1.142152
9561.000000;1.141384
9560.000000;1.141156
9559.000000;1.140989
9558.000000;1.140523
9557.000000;1.139905
9556.000000;1.139464
9555.000000;1.139212
9554.000000;1.138797
9553.000000;1.137908
9552.000000;1.136660
9551.000000;1.135570
9550.000000;1.135150
9549.000000;1.135462
9548.000000;1.136045
9547.000000;1.136272
9546.000000;1.135799
9545.000000;1.134742
9544.000000;1.133516
9543.000000;1.132549
9542.000000;1.132054
9541.000000;1.131924
9540.000000;1.131834
9539.000000;1.131547
9538.000000;1.131148
9537.000000;1.130936
9536.000000;1.131052
9535.000000;1.131262
9534.000000;1.131143
9533.000000;1.130493
9532.000000;1.129559
9531.000000;1.128788
9530.000000;1.128342
9529.000000;1.127920
9528.000000;1.127152
9527.000000;1.126150
9526.000000;1.125503
9525.000000;1.125634
9524.000000;1.126298
9523.000000;1.126849
9522.000000;1.126884
9521.000000;1.126452
9520.000000;1.125748
9519.000000;1.124889
9518.000000;1.124024
9517.000000;1.123386
9516.000000;1.123056
9515.000000;1.122844
9514.000000;1.122552
9513.000000;1.122237
9512.000000;1.122027
9511.000000;1.121791
9510.000000;1.121214
9509.000000;1.120202
9508.000000;1.119039
9507.000000;1.118134
9506.000000;1.117737
9505.000000;1.117887
9504.000000;1.118459
9503.000000;1.119163
9502.000000;1.119604
9501.000000;1.119481
9500.000000;1.118741
9499.000000;1.117551
9498.000000;1.116214
9497.000000;1.115070
9496.000000;1.114351
9495.000000;1.114017
9494.000000;1.113852
9493.000000;1.113738
9492.000000;1.113725
9491.000000;1.113774
9490.000000;1.113621
9489.000000;1.113028
9488.000000;1.112078
9487.000000;1.111107
9486.000000;1.110422
9485.000000;1.110166
9484.000000;1.110313
9483.000000;1.110601
9482.000000;1.110587
9481.000000;1.110007
9480.000000;1.109091
9479.000000;1.108339
9478.000000;1.107972
9477.000000;1.107753
9476.000000;1.107363
9475.000000;1.106756
9474.000000;1.106129
9473.000000;1.105692
9472.000000;1.105536
9471.000000;1.105589
9470.000000;1.105643
9469.000000;1.105547
9468.000000;1.105372
9467.000000;1.105247
9466.000000;1.105066
9465.000000;1.104577
9464.000000;1.103814
9463.000000;1.103168
9462.000000;1.102918
9461.000000;1.102885
9460.000000;1.102686
9459.000000;1.102156
9458.000000;1.101378
9457.000000;1.100495
9456.000000;1.099725
9455.000000;1.099382
9454.000000;1.099603
9453.000000;1.100107
9452.000000;1.100436
9451.000000;1.100398
9450.000000;1.100055
9449.000000;1.099381
9448.000000;1.098256
9447.000000;1.096825
9446.000000;1.095536
9445.000000;1.094726
9444.000000;1.094368
9443.000000;1.094342
9442.000000;1.094682
9441.000000;1.095338
9440.000000;1.095885
9439.000000;1.095784
9438.000000;1.094968
9437.000000;1.093962
9436.000000;1.093315
9435.000000;1.093018
9434.000000;1.092580
9433.000000;1.091655
9432.000000;1.090485
9431.000000;1.089683
9430.000000;1.089620
9429.000000;1.090125
9428.000000;1.090727
9427.000000;1.091037
9426.000000;1.090854
9425.000000;1.090155
9424.000000;1.089211
9423.000000;1.088567
9422.000000;1.088569
9421.000000;1.088909
9420.000000;1.088876
9419.000000;1.088138
9418.000000;1.087046
9417.000000;1.086093
9416.000000;1.085376
9415.000000;1.084744
9414.000000;1.084225
9413.000000;1.084007
9412.000000;1.084109
9411.000000;1.084330
9410.000000;1.084470
9409.000000;1.084386
9408.000000;1.083891
9407.000000;1.082879
9406.000000;1.081643
9405.000000;1.080809
9404.000000;1.080790
9403.000000;1.081375
9402.000000;1.081920
9401.000000;1.081873
9400.000000;1.081056
9399.000000;1.079624
9398.000000;1.077971
9397.000000;1.076639
9396.000000;1.076094
9395.000000;1.076407
9394.000000;1.077141
9393.000000;1.077624
9392.000000;1.077437
9391.000000;1.076710
9390.000000;1.076005
9389.000000;1.075824
9388.000000;1.076141
9387.000000;1.076387
9386.000000;1.075989
9385.000000;1.074968
9384.000000;1.073926
9383.000000;1.073418
9382.000000;1.073430
9381.000000;1.073554
9380.000000;1.073502
9379.000000;1.073299
9378.000000;1.073052
9377.000000;1.072782
9376.000000;1.072525
9375.000000;1.072330
9374.000000;1.072051
9373.000000;1.071377
9372.000000;1.070237
9371.000000;1.069029
9370.000000;1.068235
9369.000000;1.067935
9368.000000;1.067907
9367.000000;1.068069
9366.000000;1.068489
9365.000000;1.068996
9364.000000;1.069132
9363.000000;1.068641
9362.000000;1.067740
9361.000000;1.066792
9360.000000;1.065967
9359.000000;1.065367
9358.000000;1.065199
9357.000000;1.065528
9356.000000;1.065984
9355.000000;1.066042
9354.000000;1.065602
9353.000000;1.065069
9352.000000;1.064815
9351.000000;1.064743
9350.000000;1.064433
9349.000000;1.063615
9348.000000;1.062432
9347.000000;1.061329
9346.000000;1.060703
9345.000000;1.060614
9344.000000;1.060825
9343.000000;1.061107
9342.000000;1.061411
9341.000000;1.061684
9340.000000;1.061656
9339.000000;1.061058
9338.000000;1.060050
9337.000000;1.059191
9336.000000;1.058873
9335.000000;1.058901
9334.000000;1.058764
9333.000000;1.058223
9332.000000;1.057500
9331.000000;1.056942
9330.000000;1.056652
9329.000000;1.056533
9328.000000;1.056544
9327.000000;1.056725
9326.000000;1.056974
9325.000000;1.056982
9324.000000;1.056537
9323.000000;1.055805
9322.000000;1.055123
9321.000000;1.054567
9320.000000;1.053946
9319.000000;1.053214
9318.000000;1.052650
9317.000000;1.052469
9316.000000;1.052484
9315.000000;1.052373
9314.000000;1.052158
9313.000000;1.052102
9312.000000;1.052208
9311.000000;1.052093
9310.000000;1.051431
9309.000000;1.050328
9308.000000;1.049200
9307.000000;1.048456
9306.000000;1.048328
9305.000000;1.048764
9304.000000;1.049345
9303.000000;1.049491
9302.000000;1.048933
9301.000000;1.047944
9300.000000;1.047045
9299.000000;1.046571
9298.000000;1.046563
9297.000000;1.046885
9296.000000;1.047232
9295.000000;1.047151
9294.000000;1.046338
9293.000000;1.044964
9292.000000;1.043579
9291.000000;1.042652
9290.000000;1.042260
9289.000000;1.042217
9288.000000;1.042337
9287.000000;1.042535
9286.000000;1.042763
9285.000000;1.042936
9284.000000;1.042946
9283.000000;1.042713
9282.000000;1.042250
9281.000000;1.041712
9280.000000;1.041341
9279.000000;1.041251
9278.000000;1.041257
9277.000000;1.040992
9276.000000;1.040296
9275.000000;1.039445
9274.000000;1.038852
9273.000000;1.038549
9272.000000;1.038172
9271.000000;1.037565
9270.000000;1.037185
9269.000000;1.037589
9268.000000;1.038601
9267.000000;1.039299
9266.000000;1.038979
9265.000000;1.037905
9264.000000;1.036903
9263.000000;1.036422
9262.000000;1.036220
9261.000000;1.035871
9260.000000;1.035295
9259.000000;1.034767
9258.000000;1.034578
9257.000000;1.034767
9256.000000;1.035067
9255.000000;1.035082
9254.000000;1.034639
9253.000000;1.033988
9252.000000;1.033538
9251.000000;1.033341
9250.000000;1.032983
9249.000000;1.032080
9248.000000;1.030796
9247.000000;1.029719
9246.000000;1.029279
9245.000000;1.029393
9244.000000;1.029700
9243.000000;1.029981
9242.000000;1.030268
9241.000000;1.030604
9240.000000;1.030843
9239.000000;1.030751
9238.000000;1.030256
9237.000000;1.029565
9236.000000;1.029015
9235.000000;1.028788
9234.000000;1.028760
9233.000000;1.028624
9232.000000;1.028195
9231.000000;1.027582
9230.000000;1.027025
9229.000000;1.026636
9228.000000;1.026389
9227.000000;1.026322
9226.000000;1.026519
9225.000000;1.026836
9224.000000;1.026860
9223.000000;1.026341
9222.000000;1.025572
9221.000000;1.025113
9220.000000;1.025145
9219.000000;1.025318
9218.000000;1.025214
9217.000000;1.024769
9216.000000;1.024172
9215.000000;1.023583
9214.000000;1.023071
9213.000000;1.022664
9212.000000;1.022312
9211.000000;1.021902
9210.000000;1.021477
9209.000000;1.021307
9208.000000;1.021571
9207.000000;1.022014
9206.000000;1.022121
9205.000000;1.021645
9204.000000;1.020839
9203.000000;1.020123
9202.000000;1.019674
9201.000000;1.019382
9200.000000;1.019094
9199.000000;1.018776
9198.000000;1.018449
9197.000000;1.018054
9196.000000;1.017483
9195.000000;1.016785
9194.000000;1.016276
9193.000000;1.016307
9192.000000;1.016858
9191.000000;1.017447
9190.000000;1.017563
9189.000000;1.017165
9188.000000;1.016635
9187.000000;1.016301
9186.000000;1.016124
9185.000000;1.015880
9184.000000;1.015489
9183.000000;1.015082
9182.000000;1.014806
9181.000000;1.014688
9180.000000;1.014672
9179.000000;1.014693
9178.000000;1.014674
9177.000000;1.014516
9176.000000;1.014157
9175.000000;1.013645
9174.000000;1.013104
9173.000000;1.012612
9172.000000;1.012159
9171.000000;1.011741
9170.000000;1.011436
9169.000000;1.011319
9168.000000;1.011338
9167.000000;1.011326
9166.000000;1.011155
9165.000000;1.010834
9164.000000;1.010494
9163.000000;1.010306
9162.000000;1.010341
9161.000000;1.010457
9160.000000;1.010376
9159.000000;1.009984
9158.000000;1.009493
9157.000000;1.009170
9156.000000;1.008988
9155.000000;1.008716
9154.000000;1.008304
9153.000000;1.007927
9152.000000;1.007670
9151.000000;1.007418
9150.000000;1.007125
9149.000000;1.006928
9148.000000;1.006849
9147.000000;1.006634
9146.000000;1.006110
9145.000000;1.005534
9144.000000;1.005317
9143.000000;1.005515
9142.000000;1.005800
9141.000000;1.005854
9140.000000;1.005588
9139.000000;1.005087
9138.000000;1.004564
9137.000000;1.004317
9136.000000;1.004450
9135.000000;1.004624
9134.000000;1.004339
9133.000000;1.003549
9132.000000;1.002764
9131.000000;1.002460
9130.000000;1.002572
9129.000000;1.002676
9128.000000;1.002489
9127.000000;1.002072
9126.000000;1.001636
9125.000000;1.001302
9124.000000;1.001032
9123.000000;1.000675
9122.000000;1.000106
9121.000000;0.999393
9120.000000;0.998800
9119.000000;0.998578
9118.000000;0.998726
9117.000000;0.998963
9116.000000;0.998951
9115.000000;0.998596
9114.000000;0.998156
9113.000000;0.998025
9112.000000;0.998345
9111.000000;0.998848
9110.000000;0.999131
9109.000000;0.999022
9108.000000;0.998630
9107.000000;0.998119
9106.000000;0.997568
9105.000000;0.997023
9104.000000;0.996531
9103.000000;0.996080
9102.000000;0.995611
9101.000000;0.995130
9100.000000;0.994767
9099.000000;0.994673
9098.000000;0.994878
9097.000000;0.995223
9096.000000;0.995394
9095.000000;0.995092
9094.000000;0.994319
9093.000000;0.993441
9092.000000;0.992870
9091.000000;0.992674
9090.000000;0.992604
9089.000000;0.992461
9088.000000;0.992291
9087.000000;0.992213
9086.000000;0.992220
9085.000000;0.992214
9084.000000;0.992132
9083.000000;0.991982
9082.000000;0.991823
9081.000000;0.991741
9080.000000;0.991758
9079.000000;0.991755
9078.000000;0.991565
9077.000000;0.991180
9076.000000;0.990772
9075.000000;0.990498
9074.000000;0.990372
9073.000000;0.990317
9072.000000;0.990247
9071.000000;0.990076
9070.000000;0.989753
9069.000000;0.989333
9068.000000;0.988908
9067.000000;0.988486
9066.000000;0.988036
9065.000000;0.987656
9064.000000;0.987541
9063.000000;0.987712
9062.000000;0.987907
9061.000000;0.987820
9060.000000;0.987370
9059.000000;0.986691
9058.000000;0.985977
9057.000000;0.985398
9056.000000;0.985070
9055.000000;0.984968
9054.000000;0.984932
9053.000000;0.984825
