Criado como novo conjunto de dados;"e2410_daniel_v2.spp","40503.8 Secs"
cm-1;Abs
10000.000000;0.393002
9999.000000;0.392557
9998.000000;0.391911
9997.000000;0.391154
9996.000000;0.390495
9995.000000;0.389931
9994.000000;0.389362
9993.000000;0.388819
9992.000000;0.388442
9991.000000;0.388173
9990.000000;0.387776
9989.000000;0.387201
9988.000000;0.386703
9987.000000;0.386484
9986.000000;0.386403
9985.000000;0.386140
9984.000000;0.385559
9983.000000;0.384768
9982.000000;0.383937
9981.000000;0.383165
9980.000000;0.382491
9979.000000;0.381916
9978.000000;0.381432
9977.000000;0.381035
9976.000000;0.380719
9975.000000;0.380438
9974.000000;0.380125
9973.000000;0.379737
9972.000000;0.379248
9971.000000;0.378599
9970.000000;0.377760
9969.000000;0.376842
9968.000000;0.376078
9967.000000;0.375644
9966.000000;0.375523
9965.000000;0.375525
9964.000000;0.375389
9963.000000;0.374930
9962.000000;0.374189
9961.000000;0.373439
9960.000000;0.372947
9959.000000;0.372715
9958.000000;0.372521
9957.000000;0.372177
9956.000000;0.371657
9955.000000;0.371003
9954.000000;0.370244
9953.000000;0.369471
9952.000000;0.368830
9951.000000;0.368372
9950.000000;0.367979
9949.000000;0.367514
9948.000000;0.366967
9947.000000;0.366408
9946.000000;0.365854
9945.000000;0.365290
9944.000000;0.364742
9943.000000;0.364258
9942.000000;0.363802
9941.000000;0.363275
9940.000000;0.362654
9939.000000;0.362078
9938.000000;0.361722
9937.000000;0.361585
9936.000000;0.361431
9935.000000;0.361004
9934.000000;0.360305
9933.000000;0.359591
9932.000000;0.359049
9931.000000;0.358578
9930.000000;0.357950
9929.000000;0.357139
9928.000000;0.356378
9927.000000;0.355892
9926.000000;0.355667
9925.000000;0.355511
9924.000000;0.355264
9923.000000;0.354910
9922.000000;0.354549
9921.000000;0.354271
9920.000000;0.354041
9919.000000;0.353696
9918.000000;0.353101
9917.000000;0.352318
9916.000000;0.351572
9915.000000;0.351028
9914.000000;0.350645
9913.000000;0.350232
9912.000000;0.349639
9911.000000;0.348863
9910.000000;0.348032
9909.000000;0.347309
9908.000000;0.346786
9907.000000;0.346453
9906.000000;0.346221
9905.000000;0.345961
9904.000000;0.345543
9903.000000;0.344908
9902.000000;0.344142
9901.000000;0.343433
9900.000000;0.342914
9899.000000;0.342559
9898.000000;0.342251
9897.000000;0.341900
9896.000000;0.341457
9895.000000;0.340897
9894.000000;0.340262
9893.000000;0.339680
9892.000000;0.339239
9891.000000;0.338881
9890.000000;0.338478
9889.000000;0.338009
9888.000000;0.337556
9887.000000;0.337157
9886.000000;0.336734
9885.000000;0.336205
9884.000000;0.335582
9883.000000;0.334965
9882.000000;0.334467
9881.000000;0.334141
9880.000000;0.333913
9879.000000;0.333592
9878.000000;0.333015
9877.000000;0.332221
9876.000000;0.331436
9875.000000;0.330853
9874.000000;0.330466
9873.000000;0.330124
9872.000000;0.329697
9871.000000;0.329157
9870.000000;0.328543
9869.000000;0.327907
9868.000000;0.327288
9867.000000;0.326716
9866.000000;0.326199
9865.000000;0.325725
9864.000000;0.325283
9863.000000;0.324895
9862.000000;0.324596
9861.000000;0.324357
9860.000000;0.324057
9859.000000;0.323590
9858.000000;0.322991
9857.000000;0.322403
9856.000000;0.321924
9855.000000;0.321534
9854.000000;0.321176
9853.000000;0.320819
9852.000000;0.320409
9851.000000;0.319879
9850.000000;0.319264
9849.000000;0.318734
9848.000000;0.318422
9847.000000;0.318247
9846.000000;0.317977
9845.000000;0.317440
9844.000000;0.316646
9843.000000;0.315766
9842.000000;0.315031
9841.000000;0.314565
9840.000000;0.314250
9839.000000;0.313819
9838.000000;0.313175
9837.000000;0.312519
9836.000000;0.312082
9835.000000;0.311792
9834.000000;0.311380
9833.000000;0.310764
9832.000000;0.310150
9831.000000;0.309726
9830.000000;0.309425
9829.000000;0.309056
9828.000000;0.308560
9827.000000;0.308017
9826.000000;0.307501
9825.000000;0.307023
9824.000000;0.306578
9823.000000;0.306153
9822.000000;0.305702
9821.000000;0.305175
9820.000000;0.304588
9819.000000;0.304041
9818.000000;0.303641
9817.000000;0.303408
9816.000000;0.303244
9815.000000;0.302979
9814.000000;0.302481
9813.000000;0.301754
9812.000000;0.300951
9811.000000;0.300275
9810.000000;0.299844
9809.000000;0.299628
9808.000000;0.299477
9807.000000;0.299226
9806.000000;0.298789
9805.000000;0.298186
9804.000000;0.297516
9803.000000;0.296874
9802.000000;0.296287
9801.000000;0.295702
9800.000000;0.295077
9799.000000;0.294483
9798.000000;0.294066
9797.000000;0.293858
9796.000000;0.293687
9795.000000;0.293359
9794.000000;0.292892
9793.000000;0.292475
9792.000000;0.292192
9791.000000;0.291902
9790.000000;0.291442
9789.000000;0.290832
9788.000000;0.290229
9787.000000;0.289728
9786.000000;0.289295
9785.000000;0.288849
9784.000000;0.288348
9783.000000;0.287798
9782.000000;0.287258
9781.000000;0.286788
9780.000000;0.286365
9779.000000;0.285879
9778.000000;0.285251
9777.000000;0.284530
9776.000000;0.283853
9775.000000;0.283333
9774.000000;0.282990
9773.000000;0.282767
9772.000000;0.282556
9771.000000;0.282268
9770.000000;0.281890
9769.000000;0.281455
9768.000000;0.280953
9767.000000;0.280335
9766.000000;0.279631
9765.000000;0.278980
9764.000000;0.278482
9763.000000;0.278099
9762.000000;0.277745
9761.000000;0.277397
9760.000000;0.277052
9759.000000;0.276660
9758.000000;0.276181
9757.000000;0.275639
9756.000000;0.275055
9755.000000;0.274366
9754.000000;0.273539
9753.000000;0.272705
9752.000000;0.272084
9751.000000;0.271762
9750.000000;0.271626
9749.000000;0.271515
9748.000000;0.271359
9747.000000;0.271167
9746.000000;0.270961
9745.000000;0.270709
9744.000000;0.270327
9743.000000;0.269745
9742.000000;0.269018
9741.000000;0.268312
9740.000000;0.267729
9739.000000;0.267199
9738.000000;0.266617
9737.000000;0.266027
9736.000000;0.265570
9735.000000;0.265289
9734.000000;0.265086
9733.000000;0.264875
9732.000000;0.264653
9731.000000;0.264407
9730.000000;0.264059
9729.000000;0.263551
9728.000000;0.262935
9727.000000;0.262319
9726.000000;0.261760
9725.000000;0.261248
9724.000000;0.260751
9723.000000;0.260258
9722.000000;0.259797
9721.000000;0.259398
9720.000000;0.259034
9719.000000;0.258609
9718.000000;0.258050
9717.000000;0.257402
9716.000000;0.256787
9715.000000;0.256263
9714.000000;0.255782
9713.000000;0.255282
9712.000000;0.254771
9711.000000;0.254301
9710.000000;0.253895
9709.000000;0.253546
9708.000000;0.253238
9707.000000;0.252954
9706.000000;0.252660
9705.000000;0.252314
9704.000000;0.251890
9703.000000;0.251394
9702.000000;0.250858
9701.000000;0.250318
9700.000000;0.249816
9699.000000;0.249395
9698.000000;0.249071
9697.000000;0.248784
9696.000000;0.248421
9695.000000;0.247951
9694.000000;0.247488
9693.000000;0.247153
9692.000000;0.246884
9691.000000;0.246490
9690.000000;0.245902
9689.000000;0.245278
9688.000000;0.244785
9687.000000;0.244375
9686.000000;0.243879
9685.000000;0.243251
9684.000000;0.242607
9683.000000;0.242061
9682.000000;0.241607
9681.000000;0.241191
9680.000000;0.240807
9679.000000;0.240486
9678.000000;0.240234
9677.000000;0.239998
9676.000000;0.239678
9675.000000;0.239183
9674.000000;0.238501
9673.000000;0.237753
9672.000000;0.237139
9671.000000;0.236808
9670.000000;0.236744
9669.000000;0.236751
9668.000000;0.236587
9667.000000;0.236164
9666.000000;0.235622
9665.000000;0.235181
9664.000000;0.234903
9663.000000;0.234649
9662.000000;0.234253
9661.000000;0.233682
9660.000000;0.233008
9659.000000;0.232316
9658.000000;0.231667
9657.000000;0.231092
9656.000000;0.230571
9655.000000;0.230049
9654.000000;0.229511
9653.000000;0.228997
9652.000000;0.228517
9651.000000;0.228027
9650.000000;0.227539
9649.000000;0.227171
9648.000000;0.227000
9647.000000;0.226932
9646.000000;0.226770
9645.000000;0.226390
9644.000000;0.225804
9643.000000;0.225096
9642.000000;0.224388
9641.000000;0.223813
9640.000000;0.223441
9639.000000;0.223215
9638.000000;0.223008
9637.000000;0.222743
9636.000000;0.222411
9635.000000;0.222017
9634.000000;0.221572
9633.000000;0.221111
9632.000000;0.220657
9631.000000;0.220207
9630.000000;0.219778
9629.000000;0.219432
9628.000000;0.219168
9627.000000;0.218855
9626.000000;0.218354
9625.000000;0.217705
9624.000000;0.217093
9623.000000;0.216637
9622.000000;0.216281
9621.000000;0.215914
9620.000000;0.215508
9619.000000;0.215109
9618.000000;0.214731
9617.000000;0.214338
9616.000000;0.213913
9615.000000;0.213507
9614.000000;0.213176
9613.000000;0.212871
9612.000000;0.212456
9611.000000;0.211864
9610.000000;0.211210
9609.000000;0.210672
9608.000000;0.210285
9607.000000;0.209932
9606.000000;0.209548
9605.000000;0.209198
9604.000000;0.208930
9603.000000;0.208667
9602.000000;0.208313
9601.000000;0.207882
9600.000000;0.207426
9599.000000;0.206917
9598.000000;0.206329
9597.000000;0.205769
9596.000000;0.205393
9595.000000;0.205199
9594.000000;0.205020
9593.000000;0.204724
9592.000000;0.204308
9591.000000;0.203808
9590.000000;0.203219
9589.000000;0.202565
9588.000000;0.201952
9587.000000;0.201495
9586.000000;0.201226
9585.000000;0.201082
9584.000000;0.200957
9583.000000;0.200747
9582.000000;0.200394
9581.000000;0.199918
9580.000000;0.199392
9579.000000;0.198898
9578.000000;0.198496
9577.000000;0.198194
9576.000000;0.197929
9575.000000;0.197598
9574.000000;0.197176
9573.000000;0.196756
9572.000000;0.196434
9571.000000;0.196168
9570.000000;0.195821
9569.000000;0.195320
9568.000000;0.194738
9567.000000;0.194201
9566.000000;0.193780
9565.000000;0.193457
9564.000000;0.193169
9563.000000;0.192857
9562.000000;0.192495
9561.000000;0.192072
9560.000000;0.191564
9559.000000;0.190970
9558.000000;0.190384
9557.000000;0.189950
9556.000000;0.189708
9555.000000;0.189534
9554.000000;0.189274
9553.000000;0.188888
9552.000000;0.188414
9551.000000;0.187871
9550.000000;0.187282
9549.000000;0.186735
9548.000000;0.186322
9547.000000;0.186028
9546.000000;0.185769
9545.000000;0.185527
9544.000000;0.185334
9543.000000;0.185132
9542.000000;0.184774
9541.000000;0.184210
9540.000000;0.183595
9539.000000;0.183152
9538.000000;0.182952
9537.000000;0.182855
9536.000000;0.182629
9535.000000;0.182129
9534.000000;0.181411
9533.000000;0.180701
9532.000000;0.180215
9531.000000;0.179992
9530.000000;0.179889
9529.000000;0.179713
9528.000000;0.179348
9527.000000;0.178812
9526.000000;0.178245
9525.000000;0.177828
9524.000000;0.177621
9523.000000;0.177477
9522.000000;0.177181
9521.000000;0.176670
9520.000000;0.176065
9519.000000;0.175509
9518.000000;0.175053
9517.000000;0.174685
9516.000000;0.174396
9515.000000;0.174162
9514.000000;0.173924
9513.000000;0.173631
9512.000000;0.173276
9511.000000;0.172874
9510.000000;0.172442
9509.000000;0.172003
9508.000000;0.171569
9507.000000;0.171108
9506.000000;0.170582
9505.000000;0.170029
9504.000000;0.169560
9503.000000;0.169231
9502.000000;0.168968
9501.000000;0.168659
9500.000000;0.168273
9499.000000;0.167860
9498.000000;0.167480
9497.000000;0.167154
9496.000000;0.166872
9495.000000;0.166585
9494.000000;0.166225
9493.000000;0.165771
9492.000000;0.165290
9491.000000;0.164869
9490.000000;0.164511
9489.000000;0.164136
9488.000000;0.163690
9487.000000;0.163205
9486.000000;0.162731
9485.000000;0.162259
9484.000000;0.161759
9483.000000;0.161266
9482.000000;0.160857
9481.000000;0.160536
9480.000000;0.160220
9479.000000;0.159864
9478.000000;0.159540
9477.000000;0.159312
9476.000000;0.159104
9475.000000;0.158768
9474.000000;0.158280
9473.000000;0.157772
9472.000000;0.157363
9471.000000;0.157064
9470.000000;0.156858
9469.000000;0.156758
9468.000000;0.156727
9467.000000;0.156624
9466.000000;0.156347
9465.000000;0.155964
9464.000000;0.155617
9463.000000;0.155316
9462.000000;0.154932
9461.000000;0.154398
9460.000000;0.153811
9459.000000;0.153324
9458.000000;0.152979
9457.000000;0.152709
9456.000000;0.152441
9455.000000;0.152156
9454.000000;0.151867
9453.000000;0.151567
9452.000000;0.151222
9451.000000;0.150811
9450.000000;0.150368
9449.000000;0.149955
9448.000000;0.149606
9447.000000;0.149298
9446.000000;0.149002
9445.000000;0.148713
9444.000000;0.148419
9443.000000;0.148081
9442.000000;0.147690
9441.000000;0.147312
9440.000000;0.147028
9439.000000;0.146803
9438.000000;0.146500
9437.000000;0.146022
9436.000000;0.145428
9435.000000;0.144881
9434.000000;0.144505
9433.000000;0.144299
9432.000000;0.144134
9431.000000;0.143841
9430.000000;0.143335
9429.000000;0.142694
9428.000000;0.142120
9427.000000;0.141770
9426.000000;0.141622
9425.000000;0.141513
9424.000000;0.141302
9423.000000;0.140989
9422.000000;0.140661
9421.000000;0.140356
9420.000000;0.140025
9419.000000;0.139635
9418.000000;0.139227
9417.000000;0.138855
9416.000000;0.138505
9415.000000;0.138133
9414.000000;0.137745
9413.000000;0.137380
9412.000000;0.137031
9411.000000;0.136664
9410.000000;0.136304
9409.000000;0.136025
9408.000000;0.135838
9407.000000;0.135643
9406.000000;0.135344
9405.000000;0.134947
9404.000000;0.134524
9403.000000;0.134130
9402.000000;0.133787
9401.000000;0.133506
9400.000000;0.133257
9399.000000;0.132971
9398.000000;0.132589
9397.000000;0.132120
9396.000000;0.131608
9395.000000;0.131087
9394.000000;0.130590
9393.000000;0.130164
9392.000000;0.129829
9391.000000;0.129547
9390.000000;0.129278
9389.000000;0.129045
9388.000000;0.128907
9387.000000;0.128868
9386.000000;0.128852
9385.000000;0.128757
9384.000000;0.128518
9383.000000;0.128140
9382.000000;0.127695
9381.000000;0.127267
9380.000000;0.126869
9379.000000;0.126439
9378.000000;0.125919
9377.000000;0.125327
9376.000000;0.124742
9375.000000;0.124239
9374.000000;0.123854
9373.000000;0.123578
9372.000000;0.123361
9371.000000;0.123153
9370.000000;0.122953
9369.000000;0.122788
9368.000000;0.122652
9367.000000;0.122473
9366.000000;0.122175
9365.000000;0.121748
9364.000000;0.121250
9363.000000;0.120775
9362.000000;0.120439
9361.000000;0.120315
9360.000000;0.120346
9359.000000;0.120344
9358.000000;0.120138
9357.000000;0.119716
9356.000000;0.119204
9355.000000;0.118734
9354.000000;0.118349
9353.000000;0.118013
9352.000000;0.117674
9351.000000;0.117328
9350.000000;0.117016
9349.000000;0.116762
9348.000000;0.116511
9347.000000;0.116179
9346.000000;0.115751
9345.000000;0.115307
9344.000000;0.114936
9343.000000;0.114654
9342.000000;0.114416
9341.000000;0.114152
9340.000000;0.113810
9339.000000;0.113404
9338.000000;0.113029
9337.000000;0.112768
9336.000000;0.112563
9335.000000;0.112270
9334.000000;0.111848
9333.000000;0.111433
9332.000000;0.111183
9331.000000;0.111111
9330.000000;0.111094
9329.000000;0.111006
9328.000000;0.110775
9327.000000;0.110412
9326.000000;0.110000
9325.000000;0.109628
9324.000000;0.109284
9323.000000;0.108877
9322.000000;0.108396
9321.000000;0.107961
9320.000000;0.107652
9319.000000;0.107401
9318.000000;0.107107
9317.000000;0.106788
9316.000000;0.106524
9315.000000;0.106302
9314.000000;0.106045
9313.000000;0.105751
9312.000000;0.105487
9311.000000;0.105260
9310.000000;0.104996
9309.000000;0.104669
9308.000000;0.104353
9307.000000;0.104127
9306.000000;0.103988
9305.000000;0.103875
9304.000000;0.103699
9303.000000;0.103370
9302.000000;0.102850
9301.000000;0.102243
9300.000000;0.101748
9299.000000;0.101499
9298.000000;0.101443
9297.000000;0.101395
9296.000000;0.101188
9295.000000;0.100789
9294.000000;0.100305
9293.000000;0.099880
9292.000000;0.099569
9291.000000;0.099308
9290.000000;0.099022
9289.000000;0.098721
9288.000000;0.098469
9287.000000;0.098283
9286.000000;0.098112
9285.000000;0.097904
9284.000000;0.097649
9283.000000;0.097346
9282.000000;0.096999
9281.000000;0.096635
9280.000000;0.096282
9279.000000;0.095937
9278.000000;0.095575
9277.000000;0.095208
9276.000000;0.094888
9275.000000;0.094647
9274.000000;0.094459
9273.000000;0.094276
9272.000000;0.094082
9271.000000;0.093874
9270.000000;0.093626
9269.000000;0.093298
9268.000000;0.092888
9267.000000;0.092472
9266.000000;0.092167
9265.000000;0.092022
9264.000000;0.091966
9263.000000;0.091869
9262.000000;0.091665
9261.000000;0.091390
9260.000000;0.091099
9259.000000;0.090806
9258.000000;0.090508
9257.000000;0.090239
9256.000000;0.090031
9255.000000;0.089843
9254.000000;0.089588
9253.000000;0.089221
9252.000000;0.088789
9251.000000;0.088388
9250.000000;0.088088
9249.000000;0.087881
9248.000000;0.087703
9247.000000;0.087492
9246.000000;0.087246
9245.000000;0.087001
9244.000000;0.086761
9243.000000;0.086480
9242.000000;0.086130
9241.000000;0.085737
9240.000000;0.085335
9239.000000;0.084923
9238.000000;0.084499
9237.000000;0.084121
9236.000000;0.083874
9235.000000;0.083774
9234.000000;0.083726
9233.000000;0.083587
9232.000000;0.083276
9231.000000;0.082858
9230.000000;0.082500
9229.000000;0.082324
9228.000000;0.082284
9227.000000;0.082216
9226.000000;0.082026
9225.000000;0.081769
9224.000000;0.081539
9223.000000;0.081327
9222.000000;0.081062
9221.000000;0.080728
9220.000000;0.080394
9219.000000;0.080114
9218.000000;0.079850
9217.000000;0.079532
9216.000000;0.079152
9215.000000;0.078796
9214.000000;0.078567
9213.000000;0.078475
9212.000000;0.078402
9211.000000;0.078213
9210.000000;0.077881
9209.000000;0.077496
9208.000000;0.077155
9207.000000;0.076894
9206.000000;0.076700
9205.000000;0.076542
9204.000000;0.076366
9203.000000;0.076120
9202.000000;0.075821
9201.000000;0.075546
9200.000000;0.075335
9199.000000;0.075144
9198.000000;0.074919
9197.000000;0.074662
9196.000000;0.074385
9195.000000;0.074067
9194.000000;0.073699
9193.000000;0.073350
9192.000000;0.073116
9191.000000;0.073008
9190.000000;0.072928
9189.000000;0.072750
9188.000000;0.072429
9187.000000;0.072031
9186.000000;0.071670
9185.000000;0.071405
9184.000000;0.071186
9183.000000;0.070928
9182.000000;0.070635
9181.000000;0.070399
9180.000000;0.070284
9179.000000;0.070251
9178.000000;0.070216
9177.000000;0.070126
9176.000000;0.069950
9175.000000;0.069665
9174.000000;0.069286
9173.000000;0.068887
9172.000000;0.068543
9171.000000;0.068288
9170.000000;0.068124
9169.000000;0.068018
9168.000000;0.067884
9167.000000;0.067631
9166.000000;0.067284
9165.000000;0.066976
9164.000000;0.066808
9163.000000;0.066730
9162.000000;0.066616
9161.000000;0.066402
9160.000000;0.066105
9159.000000;0.065761
9158.000000;0.065410
9157.000000;0.065099
9156.000000;0.064863
9155.000000;0.064694
9154.000000;0.064565
9153.000000;0.064437
9152.000000;0.064257
9151.000000;0.063987
9150.000000;0.063679
9149.000000;0.063440
9148.000000;0.063286
9147.000000;0.063104
9146.000000;0.062808
9145.000000;0.062464
9144.000000;0.062202
9143.000000;0.062050
9142.000000;0.061931
9141.000000;0.061775
9140.000000;0.061561
9139.000000;0.061286
9138.000000;0.060974
9137.000000;0.060686
9136.000000;0.060458
9135.000000;0.060236
9134.000000;0.059940
9133.000000;0.059579
9132.000000;0.059241
9131.000000;0.058988
9130.000000;0.058803
9129.000000;0.058630
9128.000000;0.058428
9127.000000;0.058193
9126.000000;0.057971
9125.000000;0.057825
9124.000000;0.057769
9123.000000;0.057731
9122.000000;0.057637
9121.000000;0.057477
9120.000000;0.057276
9119.000000;0.057030
9118.000000;0.056717
9117.000000;0.056359
9116.000000;0.056013
9115.000000;0.055741
9114.000000;0.055594
9113.000000;0.055575
9112.000000;0.055569
9111.000000;0.055392
9110.000000;0.054973
9109.000000;0.054461
9108.000000;0.054073
9107.000000;0.053870
9106.000000;0.053750
9105.000000;0.053620
9104.000000;0.053482
9103.000000;0.053365
9102.000000;0.053244
9101.000000;0.053067
9100.000000;0.052811
9099.000000;0.052519
9098.000000;0.052283
9097.000000;0.052172
9096.000000;0.052139
9095.000000;0.052036
9094.000000;0.051783
9093.000000;0.051466
9092.000000;0.051223
9091.000000;0.051073
9090.000000;0.050910
9089.000000;0.050647
9088.000000;0.050293
9087.000000;0.049930
9086.000000;0.049661
9085.000000;0.049555
9084.000000;0.049568
9083.000000;0.049553
9082.000000;0.049411
9081.000000;0.049200
9080.000000;0.049018
9079.000000;0.048849
9078.000000;0.048614
9077.000000;0.048325
9076.000000;0.048077
9075.000000;0.047884
9074.000000;0.047655
9073.000000;0.047338
9072.000000;0.046994
9071.000000;0.046704
9070.000000;0.046491
9069.000000;0.046348
9068.000000;0.046272
9067.000000;0.046229
9066.000000;0.046161
9065.000000;0.046046
9064.000000;0.045902
9063.000000;0.045715
9062.000000;0.045453
9061.000000;0.045142
9060.000000;0.044872
9059.000000;0.044687
9058.000000;0.044543
9057.000000;0.044391
9056.000000;0.044226
9055.000000;0.044038
9054.000000;0.043797
9053.000000;0.043529
