Criado como novo conjunto de dados;"e2410_daniel_v2.spp","61205.0 Secs"
cm-1;Abs
10000.000000;1.200868
9999.000000;1.200630
9998.000000;1.200391
9997.000000;1.200153
9996.000000;1.199914
9995.000000;1.199677
9994.000000;1.199438
9993.000000;1.199202
9992.000000;1.198961
9991.000000;1.198729
9990.000000;1.198480
9989.000000;1.198299
9988.000000;1.198188
9987.000000;1.198136
9986.000000;1.198189
9985.000000;1.198300
9984.000000;1.198462
9983.000000;1.198553
9982.000000;1.198189
9981.000000;1.197036
9980.000000;1.195307
9979.000000;1.193679
9978.000000;1.192678
9977.000000;1.192381
9976.000000;1.192672
9975.000000;1.193381
9974.000000;1.194066
9973.000000;1.194076
9972.000000;1.193087
9971.000000;1.191428
9970.000000;1.189789
9969.000000;1.188733
9968.000000;1.188436
9967.000000;1.188600
9966.000000;1.188573
9965.000000;1.187854
9964.000000;1.186635
9963.000000;1.185683
9962.000000;1.185586
9961.000000;1.186207
9960.000000;1.186846
9959.000000;1.186801
9958.000000;1.185833
9957.000000;1.184322
9956.000000;1.182993
9955.000000;1.182325
9954.000000;1.182145
9953.000000;1.181896
9952.000000;1.181230
9951.000000;1.180230
9950.000000;1.179158
9949.000000;1.178250
9948.000000;1.177697
9947.000000;1.177530
9946.000000;1.177504
9945.000000;1.177307
9944.000000;1.176929
9943.000000;1.176670
9942.000000;1.176728
9941.000000;1.176924
9940.000000;1.176848
9939.000000;1.176212
9938.000000;1.175107
9937.000000;1.173968
9936.000000;1.173142
9935.000000;1.172469
9934.000000;1.171490
9933.000000;1.170141
9932.000000;1.168957
9931.000000;1.168392
9930.000000;1.168274
9929.000000;1.168184
9928.000000;1.168040
9927.000000;1.167960
9926.000000;1.167822
9925.000000;1.167440
9924.000000;1.167000
9923.000000;1.166824
9922.000000;1.166786
9921.000000;1.166428
9920.000000;1.165613
9919.000000;1.164662
9918.000000;1.163864
9917.000000;1.163259
9916.000000;1.162906
9915.000000;1.162941
9914.000000;1.163268
9913.000000;1.163537
9912.000000;1.163492
9911.000000;1.163105
9910.000000;1.162358
9909.000000;1.161205
9908.000000;1.159770
9907.000000;1.158320
9906.000000;1.157018
9905.000000;1.155894
9904.000000;1.155018
9903.000000;1.154451
9902.000000;1.154107
9901.000000;1.153902
9900.000000;1.153932
9899.000000;1.154234
9898.000000;1.154519
9897.000000;1.154448
9896.000000;1.154059
9895.000000;1.153550
9894.000000;1.152808
9893.000000;1.151614
9892.000000;1.150285
9891.000000;1.149564
9890.000000;1.149756
9889.000000;1.150310
9888.000000;1.150433
9887.000000;1.149867
9886.000000;1.148941
9885.000000;1.148124
9884.000000;1.147656
9883.000000;1.147437
9882.000000;1.147151
9881.000000;1.146558
9880.000000;1.145648
9879.000000;1.144486
9878.000000;1.143155
9877.000000;1.141995
9876.000000;1.141578
9875.000000;1.142079
9874.000000;1.142866
9873.000000;1.143098
9872.000000;1.142592
9871.000000;1.141771
9870.000000;1.140935
9869.000000;1.140097
9868.000000;1.139400
9867.000000;1.139089
9866.000000;1.139035
9865.000000;1.138774
9864.000000;1.138137
9863.000000;1.137448
9862.000000;1.137026
9861.000000;1.136859
9860.000000;1.136822
9859.000000;1.136803
9858.000000;1.136539
9857.000000;1.135715
9856.000000;1.134390
9855.000000;1.133057
9854.000000;1.132152
9853.000000;1.131735
9852.000000;1.131654
9851.000000;1.131693
9850.000000;1.131506
9849.000000;1.130760
9848.000000;1.129539
9847.000000;1.128384
9846.000000;1.127817
9845.000000;1.127927
9844.000000;1.128367
9843.000000;1.128594
9842.000000;1.128196
9841.000000;1.127219
9840.000000;1.126095
9839.000000;1.125082
9838.000000;1.123977
9837.000000;1.122664
9836.000000;1.121643
9835.000000;1.121516
9834.000000;1.122041
9833.000000;1.122301
9832.000000;1.121848
9831.000000;1.121168
9830.000000;1.120846
9829.000000;1.120797
9828.000000;1.120565
9827.000000;1.119975
9826.000000;1.119199
9825.000000;1.118437
9824.000000;1.117825
9823.000000;1.117480
9822.000000;1.117414
9821.000000;1.117480
9820.000000;1.117514
9819.000000;1.117447
9818.000000;1.117218
9817.000000;1.116735
9816.000000;1.115979
9815.000000;1.115052
9814.000000;1.114125
9813.000000;1.113416
9812.000000;1.113103
9811.000000;1.113104
9810.000000;1.113021
9809.000000;1.112500
9808.000000;1.111553
9807.000000;1.110342
9806.000000;1.108881
9805.000000;1.107259
9804.000000;1.105971
9803.000000;1.105573
9802.000000;1.106030
9801.000000;1.106731
9800.000000;1.107157
9799.000000;1.107224
9798.000000;1.107033
9797.000000;1.106660
9796.000000;1.106232
9795.000000;1.105848
9794.000000;1.105364
9793.000000;1.104541
9792.000000;1.103480
9791.000000;1.102579
9790.000000;1.102054
9789.000000;1.101741
9788.000000;1.101388
9787.000000;1.100859
9786.000000;1.100088
9785.000000;1.099145
9784.000000;1.098351
9783.000000;1.097964
9782.000000;1.097753
9781.000000;1.097264
9780.000000;1.096521
9779.000000;1.096045
9778.000000;1.096069
9777.000000;1.096171
9776.000000;1.095859
9775.000000;1.095199
9774.000000;1.094620
9773.000000;1.094374
9772.000000;1.094399
9771.000000;1.094506
9770.000000;1.094492
9769.000000;1.094170
9768.000000;1.093459
9767.000000;1.092432
9766.000000;1.091264
9765.000000;1.090180
9764.000000;1.089400
9763.000000;1.088945
9762.000000;1.088530
9761.000000;1.087808
9760.000000;1.086718
9759.000000;1.085482
9758.000000;1.084380
9757.000000;1.083681
9756.000000;1.083588
9755.000000;1.083984
9754.000000;1.084359
9753.000000;1.084330
9752.000000;1.084093
9751.000000;1.084027
9750.000000;1.083998
9749.000000;1.083501
9748.000000;1.082439
9747.000000;1.081262
9746.000000;1.080331
9745.000000;1.079671
9744.000000;1.079391
9743.000000;1.079770
9742.000000;1.080651
9741.000000;1.081218
9740.000000;1.080753
9739.000000;1.079395
9738.000000;1.077883
9737.000000;1.076764
9736.000000;1.076081
9735.000000;1.075596
9734.000000;1.075026
9733.000000;1.074189
9732.000000;1.073127
9731.000000;1.072087
9730.000000;1.071299
9729.000000;1.070849
9728.000000;1.070772
9727.000000;1.071089
9726.000000;1.071672
9725.000000;1.072186
9724.000000;1.072289
9723.000000;1.071842
9722.000000;1.070923
9721.000000;1.069776
9720.000000;1.068718
9719.000000;1.067994
9718.000000;1.067621
9717.000000;1.067444
9716.000000;1.067267
9715.000000;1.066890
9714.000000;1.066150
9713.000000;1.065138
9712.000000;1.064255
9711.000000;1.063841
9710.000000;1.063765
9709.000000;1.063563
9708.000000;1.062982
9707.000000;1.062258
9706.000000;1.061852
9705.000000;1.062019
9704.000000;1.062535
9703.000000;1.062737
9702.000000;1.062018
9701.000000;1.060483
9700.000000;1.058962
9699.000000;1.058168
9698.000000;1.058004
9697.000000;1.057902
9696.000000;1.057593
9695.000000;1.057211
9694.000000;1.056829
9693.000000;1.056373
9692.000000;1.055959
9691.000000;1.055883
9690.000000;1.056150
9689.000000;1.056337
9688.000000;1.056031
9687.000000;1.055222
9686.000000;1.054218
9685.000000;1.053357
9684.000000;1.052777
9683.000000;1.052321
9682.000000;1.051743
9681.000000;1.051115
9680.000000;1.050848
9679.000000;1.051099
9678.000000;1.051400
9677.000000;1.051191
9676.000000;1.050525
9675.000000;1.049844
9674.000000;1.049237
9673.000000;1.048415
9672.000000;1.047353
9671.000000;1.046475
9670.000000;1.046114
9669.000000;1.046167
9668.000000;1.046305
9667.000000;1.046192
9666.000000;1.045537
9665.000000;1.044353
9664.000000;1.043170
9663.000000;1.042593
9662.000000;1.042572
9661.000000;1.042455
9660.000000;1.041792
9659.000000;1.040762
9658.000000;1.039793
9657.000000;1.039201
9656.000000;1.039192
9655.000000;1.039758
9654.000000;1.040412
9653.000000;1.040435
9652.000000;1.039593
9651.000000;1.038335
9650.000000;1.037239
9649.000000;1.036588
9648.000000;1.036485
9647.000000;1.036897
9646.000000;1.037408
9645.000000;1.037380
9644.000000;1.036588
9643.000000;1.035425
9642.000000;1.034354
9641.000000;1.033543
9640.000000;1.033107
9639.000000;1.033228
9638.000000;1.033765
9637.000000;1.034156
9636.000000;1.034007
9635.000000;1.033491
9634.000000;1.032905
9633.000000;1.032257
9632.000000;1.031577
9631.000000;1.031205
9630.000000;1.031317
9629.000000;1.031428
9628.000000;1.030896
9627.000000;1.029778
9626.000000;1.028723
9625.000000;1.028069
9624.000000;1.027534
9623.000000;1.026843
9622.000000;1.026194
9621.000000;1.025865
9620.000000;1.025652
9619.000000;1.025034
9618.000000;1.023867
9617.000000;1.022705
9616.000000;1.022316
9615.000000;1.022911
9614.000000;1.023890
9613.000000;1.024352
9612.000000;1.023838
9611.000000;1.022576
9610.000000;1.021139
9609.000000;1.019998
9608.000000;1.019310
9607.000000;1.018885
9606.000000;1.018322
9605.000000;1.017357
9604.000000;1.016180
9603.000000;1.015313
9602.000000;1.015164
9601.000000;1.015745
9600.000000;1.016746
9599.000000;1.017714
9598.000000;1.018206
9597.000000;1.018001
9596.000000;1.017269
9595.000000;1.016413
9594.000000;1.015667
9593.000000;1.014963
9592.000000;1.014130
9591.000000;1.013111
9590.000000;1.011985
9589.000000;1.011014
9588.000000;1.010615
9587.000000;1.011025
9586.000000;1.011896
9585.000000;1.012462
9584.000000;1.012250
9583.000000;1.011472
9582.000000;1.010613
9581.000000;1.009842
9580.000000;1.009013
9579.000000;1.008065
9578.000000;1.007156
9577.000000;1.006441
9576.000000;1.005864
9575.000000;1.005244
9574.000000;1.004482
9573.000000;1.003680
9572.000000;1.003051
9571.000000;1.002678
9570.000000;1.002361
9569.000000;1.001823
9568.000000;1.001140
9567.000000;1.000818
9566.000000;1.001306
9565.000000;1.002429
9564.000000;1.003454
9563.000000;1.003785
9562.000000;1.003520
9561.000000;1.003200
9560.000000;1.003056
9559.000000;1.002706
9558.000000;1.001700
9557.000000;1.000212
9556.000000;0.998928
9555.000000;0.998249
9554.000000;0.997893
9553.000000;0.997383
9552.000000;0.996676
9551.000000;0.996046
9550.000000;0.995547
9549.000000;0.994930
9548.000000;0.994074
9547.000000;0.993235
9546.000000;0.992772
9545.000000;0.992773
9544.000000;0.993043
9543.000000;0.993324
9542.000000;0.993450
9541.000000;0.993330
9540.000000;0.992877
9539.000000;0.992028
9538.000000;0.990892
9537.000000;0.989814
9536.000000;0.989160
9535.000000;0.988962
9534.000000;0.988903
9533.000000;0.988723
9532.000000;0.988521
9531.000000;0.988531
9530.000000;0.988695
9529.000000;0.988648
9528.000000;0.988097
9527.000000;0.987101
9526.000000;0.985983
9525.000000;0.985050
9524.000000;0.984428
9523.000000;0.984136
9522.000000;0.984232
9521.000000;0.984741
9520.000000;0.985385
9519.000000;0.985562
9518.000000;0.984883
9517.000000;0.983685
9516.000000;0.982710
9515.000000;0.982286
9514.000000;0.982088
9513.000000;0.981727
9512.000000;0.981201
9511.000000;0.980663
9510.000000;0.980093
9509.000000;0.979457
9508.000000;0.978862
9507.000000;0.978328
9506.000000;0.977655
9505.000000;0.976801
9504.000000;0.976117
9503.000000;0.975890
9502.000000;0.975873
9501.000000;0.975605
9500.000000;0.975062
9499.000000;0.974627
9498.000000;0.974515
9497.000000;0.974556
9496.000000;0.974531
9495.000000;0.974407
9494.000000;0.974227
9493.000000;0.973985
9492.000000;0.973626
9491.000000;0.973081
9490.000000;0.972342
9489.000000;0.971618
9488.000000;0.971235
9487.000000;0.971218
9486.000000;0.971150
9485.000000;0.970674
9484.000000;0.969940
9483.000000;0.969311
9482.000000;0.968796
9481.000000;0.968115
9480.000000;0.967220
9479.000000;0.966430
9478.000000;0.966062
9477.000000;0.966174
9476.000000;0.966605
9475.000000;0.967044
9474.000000;0.967102
9473.000000;0.966583
9472.000000;0.965688
9471.000000;0.964793
9470.000000;0.964118
9469.000000;0.963718
9468.000000;0.963627
9467.000000;0.963764
9466.000000;0.963852
9465.000000;0.963679
9464.000000;0.963350
9463.000000;0.963072
9462.000000;0.962824
9461.000000;0.962504
9460.000000;0.962240
9459.000000;0.962227
9458.000000;0.962324
9457.000000;0.962123
9456.000000;0.961397
9455.000000;0.960229
9454.000000;0.958830
9453.000000;0.957512
9452.000000;0.956724
9451.000000;0.956723
9450.000000;0.957167
9449.000000;0.957355
9448.000000;0.956931
9447.000000;0.956129
9446.000000;0.955361
9445.000000;0.954843
9444.000000;0.954609
9443.000000;0.954601
9442.000000;0.954658
9441.000000;0.954628
9440.000000;0.954484
9439.000000;0.954218
9438.000000;0.953687
9437.000000;0.952840
9436.000000;0.951990
9435.000000;0.951554
9434.000000;0.951503
9433.000000;0.951358
9432.000000;0.950790
9431.000000;0.949980
9430.000000;0.949323
9429.000000;0.949012
9428.000000;0.948981
9427.000000;0.949055
9426.000000;0.949061
9425.000000;0.948885
9424.000000;0.948493
9423.000000;0.947869
9422.000000;0.947019
9421.000000;0.946103
9420.000000;0.945433
9419.000000;0.945159
9418.000000;0.945043
9417.000000;0.944750
9416.000000;0.944269
9415.000000;0.943866
9414.000000;0.943693
9413.000000;0.943674
9412.000000;0.943689
9411.000000;0.943644
9410.000000;0.943409
9409.000000;0.942903
9408.000000;0.942214
9407.000000;0.941460
9406.000000;0.940640
9405.000000;0.939807
9404.000000;0.939235
9403.000000;0.939113
9402.000000;0.939183
9401.000000;0.939009
9400.000000;0.938573
9399.000000;0.938281
9398.000000;0.938365
9397.000000;0.938580
9396.000000;0.938554
9395.000000;0.938181
9394.000000;0.937594
9393.000000;0.937000
9392.000000;0.936599
9391.000000;0.936457
9390.000000;0.936357
9389.000000;0.935939
9388.000000;0.935082
9387.000000;0.934028
9386.000000;0.933116
9385.000000;0.932508
9384.000000;0.932171
9383.000000;0.931996
9382.000000;0.931877
9381.000000;0.931754
9380.000000;0.931597
9379.000000;0.931327
9378.000000;0.930864
9377.000000;0.930306
9376.000000;0.929923
9375.000000;0.929854
9374.000000;0.929944
9373.000000;0.929995
9372.000000;0.930025
9371.000000;0.930087
9370.000000;0.930016
9369.000000;0.929608
9368.000000;0.928970
9367.000000;0.928437
9366.000000;0.928218
9365.000000;0.928268
9364.000000;0.928411
9363.000000;0.928409
9362.000000;0.928062
9361.000000;0.927442
9360.000000;0.926872
9359.000000;0.926467
9358.000000;0.925889
9357.000000;0.924859
9356.000000;0.923700
9355.000000;0.923002
9354.000000;0.922871
9353.000000;0.922878
9352.000000;0.922716
9351.000000;0.922519
9350.000000;0.922476
9349.000000;0.922479
9348.000000;0.922268
9347.000000;0.921753
9346.000000;0.921110
9345.000000;0.920666
9344.000000;0.920665
9343.000000;0.920976
9342.000000;0.921124
9341.000000;0.920772
9340.000000;0.920076
9339.000000;0.919386
9338.000000;0.918812
9337.000000;0.918302
9336.000000;0.917965
9335.000000;0.917934
9334.000000;0.918016
9333.000000;0.917857
9332.000000;0.917410
9331.000000;0.916937
9330.000000;0.916583
9329.000000;0.916277
9328.000000;0.915953
9327.000000;0.915547
9326.000000;0.914848
9325.000000;0.913762
9324.000000;0.912686
9323.000000;0.912213
9322.000000;0.912424
9321.000000;0.912834
9320.000000;0.913017
9319.000000;0.912916
9318.000000;0.912529
9317.000000;0.911787
9316.000000;0.910890
9315.000000;0.910339
9314.000000;0.910379
9313.000000;0.910709
9312.000000;0.910887
9311.000000;0.910789
9310.000000;0.910486
9309.000000;0.910004
9308.000000;0.909408
9307.000000;0.908889
9306.000000;0.908561
9305.000000;0.908327
9304.000000;0.908087
9303.000000;0.907884
9302.000000;0.907741
9301.000000;0.907534
9300.000000;0.907187
9299.000000;0.906804
9298.000000;0.906490
9297.000000;0.906207
9296.000000;0.905932
9295.000000;0.905770
9294.000000;0.905792
9293.000000;0.905888
9292.000000;0.905905
9291.000000;0.905821
9290.000000;0.905639
9289.000000;0.905277
9288.000000;0.904674
9287.000000;0.903902
9286.000000;0.903063
9285.000000;0.902174
9284.000000;0.901281
9283.000000;0.900569
9282.000000;0.900252
9281.000000;0.900370
9280.000000;0.900739
9279.000000;0.901048
9278.000000;0.901005
9277.000000;0.900499
9276.000000;0.899694
9275.000000;0.898927
9274.000000;0.898469
9273.000000;0.898403
9272.000000;0.898624
9271.000000;0.898878
9270.000000;0.898875
9269.000000;0.898528
9268.000000;0.898076
9267.000000;0.897846
9266.000000;0.897921
9265.000000;0.898134
9264.000000;0.898316
9263.000000;0.898361
9262.000000;0.898121
9261.000000;0.897441
9260.000000;0.896356
9259.000000;0.895117
9258.000000;0.894001
9257.000000;0.893203
9256.000000;0.892844
9255.000000;0.892886
9254.000000;0.893046
9253.000000;0.893006
9252.000000;0.892759
9251.000000;0.892576
9250.000000;0.892594
9249.000000;0.892614
9248.000000;0.892362
9247.000000;0.891818
9246.000000;0.891193
9245.000000;0.890661
9244.000000;0.890199
9243.000000;0.889676
9242.000000;0.889082
9241.000000;0.888643
9240.000000;0.888605
9239.000000;0.888864
9238.000000;0.888957
9237.000000;0.888562
9236.000000;0.887867
9235.000000;0.887331
9234.000000;0.887177
9233.000000;0.887313
9232.000000;0.887580
9231.000000;0.887838
9230.000000;0.887888
9229.000000;0.887571
9228.000000;0.886969
9227.000000;0.886351
9226.000000;0.885912
9225.000000;0.885700
9224.000000;0.885673
9223.000000;0.885681
9222.000000;0.885484
9221.000000;0.885025
9220.000000;0.884593
9219.000000;0.884474
9218.000000;0.884532
9217.000000;0.884390
9216.000000;0.883944
9215.000000;0.883413
9214.000000;0.882915
9213.000000;0.882343
9212.000000;0.881697
9211.000000;0.881228
9210.000000;0.881162
9209.000000;0.881467
9208.000000;0.881937
9207.000000;0.882320
9206.000000;0.882345
9205.000000;0.881899
9204.000000;0.881224
9203.000000;0.880727
9202.000000;0.880543
9201.000000;0.880443
9200.000000;0.880174
9199.000000;0.879663
9198.000000;0.878903
9197.000000;0.877911
9196.000000;0.876865
9195.000000;0.876069
9194.000000;0.875679
9193.000000;0.875636
9192.000000;0.875847
9191.000000;0.876208
9190.000000;0.876457
9189.000000;0.876318
9188.000000;0.875887
9187.000000;0.875571
9186.000000;0.875543
9185.000000;0.875525
9184.000000;0.875284
9183.000000;0.875067
9182.000000;0.875253
9181.000000;0.875753
9180.000000;0.876027
9179.000000;0.875682
9178.000000;0.874845
9177.000000;0.873960
9176.000000;0.873362
9175.000000;0.873074
9174.000000;0.872939
9173.000000;0.872872
9172.000000;0.872950
9171.000000;0.873229
9170.000000;0.873541
9169.000000;0.873585
9168.000000;0.873209
9167.000000;0.872490
9166.000000;0.871584
9165.000000;0.870656
9164.000000;0.869962
9163.000000;0.869755
9162.000000;0.870001
9161.000000;0.870274
9160.000000;0.870077
9159.000000;0.869229
9158.000000;0.867985
9157.000000;0.866831
9156.000000;0.866183
9155.000000;0.866143
9154.000000;0.866488
9153.000000;0.866899
9152.000000;0.867177
9151.000000;0.867223
9150.000000;0.866973
9149.000000;0.866498
9148.000000;0.866068
9147.000000;0.865889
9146.000000;0.865808
9145.000000;0.865556
9144.000000;0.865221
9143.000000;0.865205
9142.000000;0.865600
9141.000000;0.865921
9140.000000;0.865631
9139.000000;0.864748
9138.000000;0.863742
9137.000000;0.862963
9136.000000;0.862398
9135.000000;0.861893
9134.000000;0.861431
9133.000000;0.861128
9132.000000;0.861080
9131.000000;0.861249
9130.000000;0.861500
9129.000000;0.861719
9128.000000;0.861862
9127.000000;0.861841
9126.000000;0.861465
9125.000000;0.860629
9124.000000;0.859577
9123.000000;0.858815
9122.000000;0.858670
9121.000000;0.858986
9120.000000;0.859286
9119.000000;0.859211
9118.000000;0.858778
9117.000000;0.858299
9116.000000;0.858085
9115.000000;0.858189
9114.000000;0.858391
9113.000000;0.858419
9112.000000;0.858176
9111.000000;0.857750
9110.000000;0.857303
9109.000000;0.856999
9108.000000;0.856942
9107.000000;0.857067
9106.000000;0.857091
9105.000000;0.856730
9104.000000;0.855997
9103.000000;0.855203
9102.000000;0.854662
9101.000000;0.854442
9100.000000;0.854402
9099.000000;0.854381
9098.000000;0.854322
9097.000000;0.854300
9096.000000;0.854420
9095.000000;0.854655
9094.000000;0.854804
9093.000000;0.854642
9092.000000;0.854127
9091.000000;0.853409
9090.000000;0.852664
9089.000000;0.851976
9088.000000;0.851373
9087.000000;0.850919
9086.000000;0.850748
9085.000000;0.850964
9084.000000;0.851468
9083.000000;0.851898
9082.000000;0.851899
9081.000000;0.851476
9080.000000;0.850975
9079.000000;0.850659
9078.000000;0.850436
9077.000000;0.850084
9076.000000;0.849602
9075.000000;0.849184
9074.000000;0.848945
9073.000000;0.848829
9072.000000;0.848751
9071.000000;0.848678
9070.000000;0.848582
9069.000000;0.848442
9068.000000;0.848306
9067.000000;0.848253
9066.000000;0.848291
9065.000000;0.848347
9064.000000;0.848346
9063.000000;0.848241
9062.000000;0.847982
9061.000000;0.847532
9060.000000;0.846916
9059.000000;0.846242
9058.000000;0.845681
9057.000000;0.845377
9056.000000;0.845300
9055.000000;0.845228
9054.000000;0.844965
9053.000000;0.844551
