Criado como novo conjunto de dados;"e2410_daniel_v2.spp","13142.4 Secs"
cm-1;Abs
10000.000000;0.495532
9999.000000;0.495240
9998.000000;0.494752
9997.000000;0.494029
9996.000000;0.493167
9995.000000;0.492295
9994.000000;0.491549
9993.000000;0.490948
9992.000000;0.490390
9991.000000;0.489796
9990.000000;0.489253
9989.000000;0.488890
9988.000000;0.488657
9987.000000;0.488362
9986.000000;0.487899
9985.000000;0.487332
9984.000000;0.486753
9983.000000;0.486208
9982.000000;0.485756
9981.000000;0.485469
9980.000000;0.485313
9979.000000;0.485123
9978.000000;0.484731
9977.000000;0.484089
9976.000000;0.483276
9975.000000;0.482455
9974.000000;0.481806
9973.000000;0.481386
9972.000000;0.481048
9971.000000;0.480587
9970.000000;0.479970
9969.000000;0.479337
9968.000000;0.478814
9967.000000;0.478409
9966.000000;0.478085
9965.000000;0.477804
9964.000000;0.477496
9963.000000;0.477095
9962.000000;0.476631
9961.000000;0.476180
9960.000000;0.475723
9959.000000;0.475174
9958.000000;0.474570
9957.000000;0.474100
9956.000000;0.473864
9955.000000;0.473731
9954.000000;0.473487
9953.000000;0.473056
9952.000000;0.472498
9951.000000;0.471868
9950.000000;0.471162
9949.000000;0.470369
9948.000000;0.469501
9947.000000;0.468587
9946.000000;0.467708
9945.000000;0.467010
9944.000000;0.466615
9943.000000;0.466500
9942.000000;0.466474
9941.000000;0.466320
9940.000000;0.465967
9939.000000;0.465540
9938.000000;0.465208
9937.000000;0.464980
9936.000000;0.464671
9935.000000;0.464101
9934.000000;0.463309
9933.000000;0.462520
9932.000000;0.461919
9931.000000;0.461503
9930.000000;0.461134
9929.000000;0.460677
9928.000000;0.460087
9927.000000;0.459404
9926.000000;0.458716
9925.000000;0.458097
9924.000000;0.457594
9923.000000;0.457236
9922.000000;0.457001
9921.000000;0.456757
9920.000000;0.456308
9919.000000;0.455608
9918.000000;0.454879
9917.000000;0.454406
9916.000000;0.454228
9915.000000;0.454081
9914.000000;0.453693
9913.000000;0.453042
9912.000000;0.452327
9911.000000;0.451734
9910.000000;0.451291
9909.000000;0.450902
9908.000000;0.450486
9907.000000;0.450053
9906.000000;0.449642
9905.000000;0.449205
9904.000000;0.448622
9903.000000;0.447862
9902.000000;0.447100
9901.000000;0.446566
9900.000000;0.446299
9899.000000;0.446107
9898.000000;0.445766
9897.000000;0.445210
9896.000000;0.444517
9895.000000;0.443793
9894.000000;0.443124
9893.000000;0.442592
9892.000000;0.442252
9891.000000;0.442052
9890.000000;0.441822
9889.000000;0.441398
9888.000000;0.440795
9887.000000;0.440224
9886.000000;0.439893
9885.000000;0.439795
9884.000000;0.439719
9883.000000;0.439452
9882.000000;0.438915
9881.000000;0.438137
9880.000000;0.437223
9879.000000;0.436371
9878.000000;0.435793
9877.000000;0.435542
9876.000000;0.435433
9875.000000;0.435223
9874.000000;0.434824
9873.000000;0.434293
9872.000000;0.433700
9871.000000;0.433087
9870.000000;0.432518
9869.000000;0.432051
9868.000000;0.431670
9867.000000;0.431295
9866.000000;0.430869
9865.000000;0.430360
9864.000000;0.429721
9863.000000;0.428923
9862.000000;0.428033
9861.000000;0.427209
9860.000000;0.426601
9859.000000;0.426263
9858.000000;0.426123
9857.000000;0.426009
9856.000000;0.425749
9855.000000;0.425302
9854.000000;0.424793
9853.000000;0.424370
9852.000000;0.424048
9851.000000;0.423728
9850.000000;0.423318
9849.000000;0.422794
9848.000000;0.422170
9847.000000;0.421499
9846.000000;0.420875
9845.000000;0.420364
9844.000000;0.419944
9843.000000;0.419553
9842.000000;0.419175
9841.000000;0.418806
9840.000000;0.418397
9839.000000;0.417911
9838.000000;0.417403
9837.000000;0.416941
9836.000000;0.416484
9835.000000;0.415919
9834.000000;0.415232
9833.000000;0.414530
9832.000000;0.413877
9831.000000;0.413244
9830.000000;0.412637
9829.000000;0.412172
9828.000000;0.411930
9827.000000;0.411811
9826.000000;0.411621
9825.000000;0.411275
9824.000000;0.410822
9823.000000;0.410299
9822.000000;0.409670
9821.000000;0.408965
9820.000000;0.408386
9819.000000;0.408163
9818.000000;0.408273
9817.000000;0.408391
9816.000000;0.408153
9815.000000;0.407481
9814.000000;0.406611
9813.000000;0.405843
9812.000000;0.405297
9811.000000;0.404892
9810.000000;0.404481
9809.000000;0.404003
9808.000000;0.403536
9807.000000;0.403209
9806.000000;0.403018
9805.000000;0.402752
9804.000000;0.402190
9803.000000;0.401362
9802.000000;0.400550
9801.000000;0.399988
9800.000000;0.399653
9799.000000;0.399383
9798.000000;0.399091
9797.000000;0.398770
9796.000000;0.398376
9795.000000;0.397821
9794.000000;0.397094
9793.000000;0.396318
9792.000000;0.395665
9791.000000;0.395214
9790.000000;0.394906
9789.000000;0.394604
9788.000000;0.394223
9787.000000;0.393798
9786.000000;0.393405
9785.000000;0.393040
9784.000000;0.392627
9783.000000;0.392162
9782.000000;0.391733
9781.000000;0.391387
9780.000000;0.391074
9779.000000;0.390759
9778.000000;0.390479
9777.000000;0.390237
9776.000000;0.389919
9775.000000;0.389427
9774.000000;0.388800
9773.000000;0.388150
9772.000000;0.387522
9771.000000;0.386918
9770.000000;0.386372
9769.000000;0.385912
9768.000000;0.385508
9767.000000;0.385146
9766.000000;0.384870
9765.000000;0.384643
9764.000000;0.384254
9763.000000;0.383521
9762.000000;0.382557
9761.000000;0.381661
9760.000000;0.380976
9759.000000;0.380411
9758.000000;0.379895
9757.000000;0.379522
9756.000000;0.379375
9755.000000;0.379355
9754.000000;0.379273
9753.000000;0.379029
9752.000000;0.378638
9751.000000;0.378147
9750.000000;0.377616
9749.000000;0.377108
9748.000000;0.376623
9747.000000;0.376087
9746.000000;0.375456
9745.000000;0.374812
9744.000000;0.374293
9743.000000;0.373951
9742.000000;0.373712
9741.000000;0.373456
9740.000000;0.373077
9739.000000;0.372533
9738.000000;0.371887
9737.000000;0.371312
9736.000000;0.370973
9735.000000;0.370865
9734.000000;0.370785
9733.000000;0.370525
9732.000000;0.370060
9731.000000;0.369528
9730.000000;0.369030
9729.000000;0.368538
9728.000000;0.368007
9727.000000;0.367501
9726.000000;0.367117
9725.000000;0.366838
9724.000000;0.366550
9723.000000;0.366180
9722.000000;0.365722
9721.000000;0.365128
9720.000000;0.364333
9719.000000;0.363437
9718.000000;0.362721
9717.000000;0.362364
9716.000000;0.362228
9715.000000;0.362019
9714.000000;0.361597
9713.000000;0.361026
9712.000000;0.360408
9711.000000;0.359802
9710.000000;0.359279
9709.000000;0.358894
9708.000000;0.358585
9707.000000;0.358217
9706.000000;0.357751
9705.000000;0.357291
9704.000000;0.356919
9703.000000;0.356596
9702.000000;0.356253
9701.000000;0.355894
9700.000000;0.355565
9699.000000;0.355252
9698.000000;0.354888
9697.000000;0.354421
9696.000000;0.353840
9695.000000;0.353161
9694.000000;0.352430
9693.000000;0.351738
9692.000000;0.351177
9691.000000;0.350777
9690.000000;0.350481
9689.000000;0.350204
9688.000000;0.349905
9687.000000;0.349589
9686.000000;0.349254
9685.000000;0.348858
9684.000000;0.348394
9683.000000;0.347959
9682.000000;0.347665
9681.000000;0.347476
9680.000000;0.347201
9679.000000;0.346698
9678.000000;0.346015
9677.000000;0.345293
9676.000000;0.344613
9675.000000;0.344014
9674.000000;0.343583
9673.000000;0.343386
9672.000000;0.343327
9671.000000;0.343169
9670.000000;0.342752
9669.000000;0.342123
9668.000000;0.341451
9667.000000;0.340879
9666.000000;0.340470
9665.000000;0.340206
9664.000000;0.339998
9663.000000;0.339732
9662.000000;0.339369
9661.000000;0.338976
9660.000000;0.338647
9659.000000;0.338375
9658.000000;0.338044
9657.000000;0.337538
9656.000000;0.336871
9655.000000;0.336197
9654.000000;0.335671
9653.000000;0.335309
9652.000000;0.334993
9651.000000;0.334627
9650.000000;0.334213
9649.000000;0.333793
9648.000000;0.333353
9647.000000;0.332839
9646.000000;0.332246
9645.000000;0.331640
9644.000000;0.331113
9643.000000;0.330714
9642.000000;0.330405
9641.000000;0.330076
9640.000000;0.329666
9639.000000;0.329260
9638.000000;0.328997
9637.000000;0.328865
9636.000000;0.328665
9635.000000;0.328242
9634.000000;0.327652
9633.000000;0.327051
9632.000000;0.326479
9631.000000;0.325885
9630.000000;0.325294
9629.000000;0.324821
9628.000000;0.324500
9627.000000;0.324223
9626.000000;0.323853
9625.000000;0.323346
9624.000000;0.322754
9623.000000;0.322189
9622.000000;0.321783
9621.000000;0.321600
9620.000000;0.321532
9619.000000;0.321369
9618.000000;0.320990
9617.000000;0.320470
9616.000000;0.319976
9615.000000;0.319609
9614.000000;0.319352
9613.000000;0.319110
9612.000000;0.318780
9611.000000;0.318323
9610.000000;0.317799
9609.000000;0.317310
9608.000000;0.316891
9607.000000;0.316482
9606.000000;0.316017
9605.000000;0.315493
9604.000000;0.314947
9603.000000;0.314390
9602.000000;0.313823
9601.000000;0.313302
9600.000000;0.312936
9599.000000;0.312777
9598.000000;0.312730
9597.000000;0.312603
9596.000000;0.312278
9595.000000;0.311819
9594.000000;0.311367
9593.000000;0.310955
9592.000000;0.310496
9591.000000;0.309948
9590.000000;0.309399
9589.000000;0.308959
9588.000000;0.308642
9587.000000;0.308407
9586.000000;0.308246
9585.000000;0.308130
9584.000000;0.307934
9583.000000;0.307528
9582.000000;0.306936
9581.000000;0.306325
9580.000000;0.305825
9579.000000;0.305431
9578.000000;0.305086
9577.000000;0.304747
9576.000000;0.304377
9575.000000;0.303937
9574.000000;0.303451
9573.000000;0.303009
9572.000000;0.302654
9571.000000;0.302307
9570.000000;0.301852
9569.000000;0.301285
9568.000000;0.300716
9567.000000;0.300243
9566.000000;0.299859
9565.000000;0.299500
9564.000000;0.299142
9563.000000;0.298821
9562.000000;0.298559
9561.000000;0.298302
9560.000000;0.297974
9559.000000;0.297559
9558.000000;0.297116
9557.000000;0.296706
9556.000000;0.296356
9555.000000;0.296091
9554.000000;0.295928
9553.000000;0.295797
9552.000000;0.295530
9551.000000;0.294997
9550.000000;0.294266
9549.000000;0.293553
9548.000000;0.293040
9547.000000;0.292742
9546.000000;0.292547
9545.000000;0.292337
9544.000000;0.292054
9543.000000;0.291714
9542.000000;0.291356
9541.000000;0.290981
9540.000000;0.290543
9539.000000;0.290014
9538.000000;0.289443
9537.000000;0.288924
9536.000000;0.288508
9535.000000;0.288176
9534.000000;0.287885
9533.000000;0.287604
9532.000000;0.287315
9531.000000;0.287015
9530.000000;0.286722
9529.000000;0.286455
9528.000000;0.286189
9527.000000;0.285872
9526.000000;0.285488
9525.000000;0.285086
9524.000000;0.284706
9523.000000;0.284309
9522.000000;0.283813
9521.000000;0.283211
9520.000000;0.282615
9519.000000;0.282165
9518.000000;0.281868
9517.000000;0.281591
9516.000000;0.281217
9515.000000;0.280781
9514.000000;0.280408
9513.000000;0.280147
9512.000000;0.279933
9511.000000;0.279687
9510.000000;0.279384
9509.000000;0.279007
9508.000000;0.278530
9507.000000;0.278006
9506.000000;0.277572
9505.000000;0.277303
9504.000000;0.277084
9503.000000;0.276738
9502.000000;0.276254
9501.000000;0.275805
9500.000000;0.275514
9499.000000;0.275292
9498.000000;0.274960
9497.000000;0.274475
9496.000000;0.273977
9495.000000;0.273616
9494.000000;0.273404
9493.000000;0.273251
9492.000000;0.273100
9491.000000;0.272955
9490.000000;0.272802
9489.000000;0.272547
9488.000000;0.272097
9487.000000;0.271462
9486.000000;0.270757
9485.000000;0.270106
9484.000000;0.269568
9483.000000;0.269124
9482.000000;0.268700
9481.000000;0.268231
9480.000000;0.267745
9479.000000;0.267372
9478.000000;0.267217
9477.000000;0.267219
9476.000000;0.267176
9475.000000;0.266924
9474.000000;0.266457
9473.000000;0.265886
9472.000000;0.265337
9471.000000;0.264901
9470.000000;0.264606
9469.000000;0.264414
9468.000000;0.264255
9467.000000;0.264083
9466.000000;0.263884
9465.000000;0.263638
9464.000000;0.263317
9463.000000;0.262919
9462.000000;0.262452
9461.000000;0.261907
9460.000000;0.261293
9459.000000;0.260715
9458.000000;0.260327
9457.000000;0.260183
9456.000000;0.260167
9455.000000;0.260092
9454.000000;0.259823
9453.000000;0.259339
9452.000000;0.258736
9451.000000;0.258201
9450.000000;0.257876
9449.000000;0.257706
9448.000000;0.257476
9447.000000;0.257028
9446.000000;0.256396
9445.000000;0.255719
9444.000000;0.255088
9443.000000;0.254548
9442.000000;0.254157
9441.000000;0.253951
9440.000000;0.253882
9439.000000;0.253853
9438.000000;0.253789
9437.000000;0.253653
9436.000000;0.253433
9435.000000;0.253154
9434.000000;0.252851
9433.000000;0.252500
9432.000000;0.252010
9431.000000;0.251356
9430.000000;0.250671
9429.000000;0.250146
9428.000000;0.249864
9427.000000;0.249759
9426.000000;0.249693
9425.000000;0.249532
9424.000000;0.249183
9423.000000;0.248654
9422.000000;0.248087
9421.000000;0.247665
9420.000000;0.247471
9419.000000;0.247414
9418.000000;0.247293
9417.000000;0.246950
9416.000000;0.246404
9415.000000;0.245846
9414.000000;0.245440
9413.000000;0.245157
9412.000000;0.244833
9411.000000;0.244412
9410.000000;0.244028
9409.000000;0.243818
9408.000000;0.243745
9407.000000;0.243659
9406.000000;0.243472
9405.000000;0.243194
9404.000000;0.242851
9403.000000;0.242456
9402.000000;0.242028
9401.000000;0.241580
9400.000000;0.241124
9399.000000;0.240702
9398.000000;0.240383
9397.000000;0.240159
9396.000000;0.239926
9395.000000;0.239605
9394.000000;0.239247
9393.000000;0.238945
9392.000000;0.238681
9391.000000;0.238358
9390.000000;0.237951
9389.000000;0.237541
9388.000000;0.237210
9387.000000;0.236956
9386.000000;0.236725
9385.000000;0.236469
9384.000000;0.236172
9383.000000;0.235861
9382.000000;0.235584
9381.000000;0.235331
9380.000000;0.235012
9379.000000;0.234549
9378.000000;0.233990
9377.000000;0.233482
9376.000000;0.233140
9375.000000;0.232976
9374.000000;0.232919
9373.000000;0.232860
9372.000000;0.232695
9371.000000;0.232393
9370.000000;0.232021
9369.000000;0.231666
9368.000000;0.231340
9367.000000;0.230979
9366.000000;0.230542
9365.000000;0.230061
9364.000000;0.229603
9363.000000;0.229231
9362.000000;0.228978
9361.000000;0.228815
9360.000000;0.228656
9359.000000;0.228430
9358.000000;0.228138
9357.000000;0.227819
9356.000000;0.227478
9355.000000;0.227109
9354.000000;0.226747
9353.000000;0.226451
9352.000000;0.226234
9351.000000;0.226035
9350.000000;0.225790
9349.000000;0.225488
9348.000000;0.225148
9347.000000;0.224796
9346.000000;0.224460
9345.000000;0.224175
9344.000000;0.223970
9343.000000;0.223834
9342.000000;0.223696
9341.000000;0.223450
9340.000000;0.223037
9339.000000;0.222510
9338.000000;0.222001
9337.000000;0.221604
9336.000000;0.221307
9335.000000;0.221045
9334.000000;0.220788
9333.000000;0.220562
9332.000000;0.220412
9331.000000;0.220331
9330.000000;0.220215
9329.000000;0.219900
9328.000000;0.219311
9327.000000;0.218585
9326.000000;0.217981
9325.000000;0.217654
9324.000000;0.217543
9323.000000;0.217491
9322.000000;0.217384
9321.000000;0.217175
9320.000000;0.216863
9319.000000;0.216515
9318.000000;0.216240
9317.000000;0.216075
9316.000000;0.215926
9315.000000;0.215671
9314.000000;0.215296
9313.000000;0.214874
9312.000000;0.214457
9311.000000;0.214054
9310.000000;0.213671
9309.000000;0.213320
9308.000000;0.213000
9307.000000;0.212704
9306.000000;0.212443
9305.000000;0.212207
9304.000000;0.211956
9303.000000;0.211679
9302.000000;0.211427
9301.000000;0.211241
9300.000000;0.211077
9299.000000;0.210858
9298.000000;0.210568
9297.000000;0.210239
9296.000000;0.209871
9295.000000;0.209457
9294.000000;0.209057
9293.000000;0.208782
9292.000000;0.208684
9291.000000;0.208693
9290.000000;0.208687
9289.000000;0.208590
9288.000000;0.208403
9287.000000;0.208156
9286.000000;0.207851
9285.000000;0.207444
9284.000000;0.206903
9283.000000;0.206290
9282.000000;0.205749
9281.000000;0.205411
9280.000000;0.205304
9279.000000;0.205346
9278.000000;0.205393
9277.000000;0.205299
9276.000000;0.205013
9275.000000;0.204618
9274.000000;0.204243
9273.000000;0.203914
9272.000000;0.203564
9271.000000;0.203183
9270.000000;0.202863
9269.000000;0.202657
9268.000000;0.202489
9267.000000;0.202263
9266.000000;0.201992
9265.000000;0.201749
9264.000000;0.201564
9263.000000;0.201419
9262.000000;0.201290
9261.000000;0.201105
9260.000000;0.200759
9259.000000;0.200233
9258.000000;0.199685
9257.000000;0.199306
9256.000000;0.199126
9255.000000;0.199020
9254.000000;0.198866
9253.000000;0.198627
9252.000000;0.198316
9251.000000;0.197970
9250.000000;0.197651
9249.000000;0.197387
9248.000000;0.197131
9247.000000;0.196830
9246.000000;0.196516
9245.000000;0.196251
9244.000000;0.196015
9243.000000;0.195728
9242.000000;0.195371
9241.000000;0.195022
9240.000000;0.194770
9239.000000;0.194655
9238.000000;0.194668
9237.000000;0.194726
9236.000000;0.194689
9235.000000;0.194463
9234.000000;0.194092
9233.000000;0.193691
9232.000000;0.193305
9231.000000;0.192916
9230.000000;0.192546
9229.000000;0.192261
9228.000000;0.192056
9227.000000;0.191835
9226.000000;0.191522
9225.000000;0.191139
9224.000000;0.190755
9223.000000;0.190439
9222.000000;0.190255
9221.000000;0.190236
9220.000000;0.190320
9219.000000;0.190360
9218.000000;0.190220
9217.000000;0.189871
9216.000000;0.189396
9215.000000;0.188943
9214.000000;0.188629
9213.000000;0.188434
9212.000000;0.188203
9211.000000;0.187816
9210.000000;0.187345
9209.000000;0.186976
9208.000000;0.186795
9207.000000;0.186721
9206.000000;0.186649
9205.000000;0.186563
9204.000000;0.186475
9203.000000;0.186347
9202.000000;0.186111
9201.000000;0.185754
9200.000000;0.185321
9199.000000;0.184886
9198.000000;0.184521
9197.000000;0.184277
9196.000000;0.184151
9195.000000;0.184083
9194.000000;0.184008
9193.000000;0.183892
9192.000000;0.183731
9191.000000;0.183544
9190.000000;0.183334
9189.000000;0.183055
9188.000000;0.182642
9187.000000;0.182111
9186.000000;0.181613
9185.000000;0.181311
9184.000000;0.181220
9183.000000;0.181203
9182.000000;0.181119
9181.000000;0.180912
9180.000000;0.180611
9179.000000;0.180283
9178.000000;0.180012
9177.000000;0.179836
9176.000000;0.179694
9175.000000;0.179489
9174.000000;0.179207
9173.000000;0.178937
9172.000000;0.178750
9171.000000;0.178622
9170.000000;0.178476
9169.000000;0.178267
9168.000000;0.178005
9167.000000;0.177739
9166.000000;0.177535
9165.000000;0.177414
9164.000000;0.177313
9163.000000;0.177145
9162.000000;0.176878
9161.000000;0.176545
9160.000000;0.176171
9159.000000;0.175781
9158.000000;0.175451
9157.000000;0.175281
9156.000000;0.175269
9155.000000;0.175274
9154.000000;0.175139
9153.000000;0.174824
9152.000000;0.174404
9151.000000;0.173991
9150.000000;0.173686
9149.000000;0.173541
9148.000000;0.173506
9147.000000;0.173448
9146.000000;0.173264
9145.000000;0.172977
9144.000000;0.172684
9143.000000;0.172448
9142.000000;0.172265
9141.000000;0.172105
9140.000000;0.171942
9139.000000;0.171743
9138.000000;0.171479
9137.000000;0.171160
9136.000000;0.170829
9135.000000;0.170533
9134.000000;0.170302
9133.000000;0.170159
9132.000000;0.170106
9131.000000;0.170089
9130.000000;0.170004
9129.000000;0.169745
9128.000000;0.169292
9127.000000;0.168751
9126.000000;0.168308
9125.000000;0.168091
9124.000000;0.168070
9123.000000;0.168088
9122.000000;0.168004
9121.000000;0.167809
9120.000000;0.167601
9119.000000;0.167452
9118.000000;0.167327
9117.000000;0.167132
9116.000000;0.166831
9115.000000;0.166488
9114.000000;0.166188
9113.000000;0.165942
9112.000000;0.165701
9111.000000;0.165456
9110.000000;0.165267
9109.000000;0.165172
9108.000000;0.165113
9107.000000;0.164982
9106.000000;0.164740
9105.000000;0.164444
9104.000000;0.164181
9103.000000;0.163988
9102.000000;0.163839
9101.000000;0.163672
9100.000000;0.163443
9099.000000;0.163155
9098.000000;0.162865
9097.000000;0.162625
9096.000000;0.162443
9095.000000;0.162303
9094.000000;0.162208
9093.000000;0.162167
9092.000000;0.162156
9091.000000;0.162119
9090.000000;0.162018
9089.000000;0.161858
9088.000000;0.161661
9087.000000;0.161429
9086.000000;0.161160
9085.000000;0.160871
9084.000000;0.160608
9083.000000;0.160394
9082.000000;0.160198
9081.000000;0.159959
9080.000000;0.159660
9079.000000;0.159371
9078.000000;0.159184
9077.000000;0.159111
9076.000000;0.159062
9075.000000;0.158944
9074.000000;0.158740
9073.000000;0.158505
9072.000000;0.158297
9071.000000;0.158123
9070.000000;0.157946
9069.000000;0.157708
9068.000000;0.157397
9067.000000;0.157078
9066.000000;0.156842
9065.000000;0.156714
9064.000000;0.156633
9063.000000;0.156536
9062.000000;0.156410
9061.000000;0.156251
9060.000000;0.156013
9059.000000;0.155669
9058.000000;0.155278
9057.000000;0.154954
9056.000000;0.154759
9055.000000;0.154671
9054.000000;0.154629
9053.000000;0.154578
