Criado como novo conjunto de dados;"e2410_daniel_v2.spp","23762.9 Secs"
cm-1;Abs
10000.000000;0.565401
9999.000000;0.565503
9998.000000;0.565424
9997.000000;0.565020
9996.000000;0.564418
9995.000000;0.563820
9994.000000;0.563283
9993.000000;0.562716
9992.000000;0.562047
9991.000000;0.561305
9990.000000;0.560598
9989.000000;0.560060
9988.000000;0.559767
9987.000000;0.559642
9986.000000;0.559445
9985.000000;0.558968
9984.000000;0.558248
9983.000000;0.557525
9982.000000;0.556986
9981.000000;0.556638
9980.000000;0.556411
9979.000000;0.556275
9978.000000;0.556185
9977.000000;0.555992
9976.000000;0.555529
9975.000000;0.554753
9974.000000;0.553750
9973.000000;0.552639
9972.000000;0.551559
9971.000000;0.550714
9970.000000;0.550295
9969.000000;0.550280
9968.000000;0.550387
9967.000000;0.550300
9966.000000;0.549900
9965.000000;0.549249
9964.000000;0.548436
9963.000000;0.547535
9962.000000;0.546689
9961.000000;0.546077
9960.000000;0.545767
9959.000000;0.545659
9958.000000;0.545594
9957.000000;0.545437
9956.000000;0.545054
9955.000000;0.544368
9954.000000;0.543518
9953.000000;0.542837
9952.000000;0.542532
9951.000000;0.542422
9950.000000;0.542137
9949.000000;0.541544
9948.000000;0.540857
9947.000000;0.540315
9946.000000;0.539899
9945.000000;0.539406
9944.000000;0.538695
9943.000000;0.537799
9942.000000;0.536884
9941.000000;0.536164
9940.000000;0.535783
9939.000000;0.535678
9938.000000;0.535589
9937.000000;0.535255
9936.000000;0.534639
9935.000000;0.533931
9934.000000;0.533341
9933.000000;0.532921
9932.000000;0.532572
9931.000000;0.532197
9930.000000;0.531820
9929.000000;0.531527
9928.000000;0.531299
9927.000000;0.530951
9926.000000;0.530319
9925.000000;0.529458
9924.000000;0.528596
9923.000000;0.527896
9922.000000;0.527341
9921.000000;0.526841
9920.000000;0.526355
9919.000000;0.525883
9918.000000;0.525434
9917.000000;0.525054
9916.000000;0.524800
9915.000000;0.524630
9914.000000;0.524384
9913.000000;0.523954
9912.000000;0.523409
9911.000000;0.522900
9910.000000;0.522470
9909.000000;0.522048
9908.000000;0.521589
9907.000000;0.521163
9906.000000;0.520851
9905.000000;0.520589
9904.000000;0.520146
9903.000000;0.519305
9902.000000;0.518127
9901.000000;0.516998
9900.000000;0.516332
9899.000000;0.516186
9898.000000;0.516233
9897.000000;0.516110
9896.000000;0.515716
9895.000000;0.515169
9894.000000;0.514602
9893.000000;0.514075
9892.000000;0.513598
9891.000000;0.513119
9890.000000;0.512540
9889.000000;0.511843
9888.000000;0.511177
9887.000000;0.510735
9886.000000;0.510583
9885.000000;0.510647
9884.000000;0.510806
9883.000000;0.510893
9882.000000;0.510673
9881.000000;0.509978
9880.000000;0.508894
9879.000000;0.507709
9878.000000;0.506638
9877.000000;0.505708
9876.000000;0.504904
9875.000000;0.504312
9874.000000;0.504037
9873.000000;0.504029
9872.000000;0.504075
9871.000000;0.503954
9870.000000;0.503580
9869.000000;0.503007
9868.000000;0.502340
9867.000000;0.501648
9866.000000;0.500943
9865.000000;0.500243
9864.000000;0.499615
9863.000000;0.499134
9862.000000;0.498805
9861.000000;0.498531
9860.000000;0.498173
9859.000000;0.497648
9858.000000;0.496994
9857.000000;0.496373
9856.000000;0.495968
9855.000000;0.495807
9854.000000;0.495687
9853.000000;0.495327
9852.000000;0.494620
9851.000000;0.493739
9850.000000;0.492961
9849.000000;0.492411
9848.000000;0.491986
9847.000000;0.491517
9846.000000;0.490974
9845.000000;0.490496
9844.000000;0.490231
9843.000000;0.490157
9842.000000;0.490103
9841.000000;0.489901
9840.000000;0.489507
9839.000000;0.488975
9838.000000;0.488372
9837.000000;0.487749
9836.000000;0.487144
9835.000000;0.486578
9834.000000;0.486045
9833.000000;0.485518
9832.000000;0.484968
9831.000000;0.484391
9830.000000;0.483819
9829.000000;0.483290
9828.000000;0.482771
9827.000000;0.482164
9826.000000;0.481460
9825.000000;0.480848
9824.000000;0.480567
9823.000000;0.480603
9822.000000;0.480636
9821.000000;0.480357
9820.000000;0.479761
9819.000000;0.479069
9818.000000;0.478438
9817.000000;0.477834
9816.000000;0.477162
9815.000000;0.476412
9814.000000;0.475682
9813.000000;0.475107
9812.000000;0.474772
9811.000000;0.474635
9810.000000;0.474539
9809.000000;0.474319
9808.000000;0.473913
9807.000000;0.473356
9806.000000;0.472727
9805.000000;0.472131
9804.000000;0.471653
9803.000000;0.471261
9802.000000;0.470810
9801.000000;0.470236
9800.000000;0.469702
9799.000000;0.469435
9798.000000;0.469413
9797.000000;0.469331
9796.000000;0.468928
9795.000000;0.468252
9794.000000;0.467557
9793.000000;0.467016
9792.000000;0.466602
9791.000000;0.466211
9790.000000;0.465792
9789.000000;0.465346
9788.000000;0.464863
9787.000000;0.464311
9786.000000;0.463674
9785.000000;0.462984
9784.000000;0.462307
9783.000000;0.461704
9782.000000;0.461213
9781.000000;0.460852
9780.000000;0.460592
9779.000000;0.460346
9778.000000;0.460001
9777.000000;0.459522
9776.000000;0.458981
9775.000000;0.458488
9774.000000;0.458099
9773.000000;0.457803
9772.000000;0.457561
9771.000000;0.457308
9770.000000;0.456966
9769.000000;0.456508
9768.000000;0.455997
9767.000000;0.455502
9766.000000;0.454984
9765.000000;0.454345
9764.000000;0.453582
9763.000000;0.452831
9762.000000;0.452231
9761.000000;0.451787
9760.000000;0.451401
9759.000000;0.450994
9758.000000;0.450561
9757.000000;0.450111
9756.000000;0.449649
9755.000000;0.449205
9754.000000;0.448841
9753.000000;0.448574
9752.000000;0.448318
9751.000000;0.447945
9750.000000;0.447428
9749.000000;0.446900
9748.000000;0.446545
9747.000000;0.446406
9746.000000;0.446322
9745.000000;0.446054
9744.000000;0.445496
9743.000000;0.444765
9742.000000;0.444099
9741.000000;0.443645
9740.000000;0.443353
9739.000000;0.443062
9738.000000;0.442677
9737.000000;0.442209
9736.000000;0.441665
9735.000000;0.441010
9734.000000;0.440289
9733.000000;0.439680
9732.000000;0.439321
9731.000000;0.439108
9730.000000;0.438769
9729.000000;0.438176
9728.000000;0.437465
9727.000000;0.436851
9726.000000;0.436416
9725.000000;0.436120
9724.000000;0.435884
9723.000000;0.435612
9722.000000;0.435201
9721.000000;0.434643
9720.000000;0.434055
9719.000000;0.433528
9718.000000;0.433009
9717.000000;0.432406
9716.000000;0.431769
9715.000000;0.431248
9714.000000;0.430871
9713.000000;0.430496
9712.000000;0.429999
9711.000000;0.429434
9710.000000;0.428952
9709.000000;0.428630
9708.000000;0.428438
9707.000000;0.428329
9706.000000;0.428272
9705.000000;0.428191
9704.000000;0.427953
9703.000000;0.427481
9702.000000;0.426861
9701.000000;0.426294
9700.000000;0.425897
9699.000000;0.425590
9698.000000;0.425197
9697.000000;0.424632
9696.000000;0.423955
9695.000000;0.423285
9694.000000;0.422707
9693.000000;0.422260
9692.000000;0.421913
9691.000000;0.421558
9690.000000;0.421099
9689.000000;0.420577
9688.000000;0.420155
9687.000000;0.419911
9686.000000;0.419727
9685.000000;0.419416
9684.000000;0.418918
9683.000000;0.418308
9682.000000;0.417676
9681.000000;0.417070
9680.000000;0.416541
9679.000000;0.416142
9678.000000;0.415859
9677.000000;0.415576
9676.000000;0.415139
9675.000000;0.414446
9674.000000;0.413538
9673.000000;0.412612
9672.000000;0.411941
9671.000000;0.411685
9670.000000;0.411755
9669.000000;0.411867
9668.000000;0.411748
9667.000000;0.411336
9666.000000;0.410786
9665.000000;0.410314
9664.000000;0.409996
9663.000000;0.409698
9662.000000;0.409221
9661.000000;0.408506
9660.000000;0.407697
9659.000000;0.407013
9658.000000;0.406576
9657.000000;0.406348
9656.000000;0.406171
9655.000000;0.405879
9654.000000;0.405426
9653.000000;0.404931
9652.000000;0.404528
9651.000000;0.404195
9650.000000;0.403794
9649.000000;0.403273
9648.000000;0.402735
9647.000000;0.402271
9646.000000;0.401842
9645.000000;0.401388
9644.000000;0.400946
9643.000000;0.400575
9642.000000;0.400235
9641.000000;0.399851
9640.000000;0.399435
9639.000000;0.399047
9638.000000;0.398692
9637.000000;0.398340
9636.000000;0.398027
9635.000000;0.397804
9634.000000;0.397594
9633.000000;0.397212
9632.000000;0.396575
9631.000000;0.395812
9630.000000;0.395130
9629.000000;0.394639
9628.000000;0.394313
9627.000000;0.394057
9626.000000;0.393758
9625.000000;0.393336
9624.000000;0.392805
9623.000000;0.392279
9622.000000;0.391886
9621.000000;0.391661
9620.000000;0.391519
9619.000000;0.391331
9618.000000;0.391017
9617.000000;0.390603
9616.000000;0.390175
9615.000000;0.389793
9614.000000;0.389447
9613.000000;0.389082
9612.000000;0.388666
9611.000000;0.388209
9610.000000;0.387744
9609.000000;0.387302
9608.000000;0.386903
9607.000000;0.386549
9606.000000;0.386210
9605.000000;0.385824
9604.000000;0.385304
9603.000000;0.384604
9602.000000;0.383805
9601.000000;0.383121
9600.000000;0.382742
9599.000000;0.382651
9598.000000;0.382638
9597.000000;0.382516
9596.000000;0.382267
9595.000000;0.381957
9594.000000;0.381590
9593.000000;0.381104
9592.000000;0.380483
9591.000000;0.379806
9590.000000;0.379190
9589.000000;0.378728
9588.000000;0.378434
9587.000000;0.378228
9586.000000;0.377976
9585.000000;0.377592
9584.000000;0.377110
9583.000000;0.376605
9582.000000;0.376086
9581.000000;0.375512
9580.000000;0.374909
9579.000000;0.374408
9578.000000;0.374124
9577.000000;0.374016
9576.000000;0.373897
9575.000000;0.373593
9574.000000;0.373077
9573.000000;0.372425
9572.000000;0.371702
9571.000000;0.370977
9570.000000;0.370419
9569.000000;0.370241
9568.000000;0.370441
9567.000000;0.370691
9566.000000;0.370624
9565.000000;0.370203
9564.000000;0.369671
9563.000000;0.369188
9562.000000;0.368690
9561.000000;0.368098
9560.000000;0.367485
9559.000000;0.366939
9558.000000;0.366450
9557.000000;0.366001
9556.000000;0.365655
9555.000000;0.365437
9554.000000;0.365248
9553.000000;0.365009
9552.000000;0.364752
9551.000000;0.364475
9550.000000;0.364029
9549.000000;0.363342
9548.000000;0.362640
9547.000000;0.362222
9546.000000;0.362046
9545.000000;0.361753
9544.000000;0.361141
9543.000000;0.360436
9542.000000;0.359988
9541.000000;0.359852
9540.000000;0.359769
9539.000000;0.359494
9538.000000;0.359036
9537.000000;0.358588
9536.000000;0.358308
9535.000000;0.358178
9534.000000;0.358051
9533.000000;0.357796
9532.000000;0.357382
9531.000000;0.356850
9530.000000;0.356262
9529.000000;0.355702
9528.000000;0.355250
9527.000000;0.354886
9526.000000;0.354484
9525.000000;0.353960
9524.000000;0.353391
9523.000000;0.352919
9522.000000;0.352556
9521.000000;0.352183
9520.000000;0.351724
9519.000000;0.351251
9518.000000;0.350897
9517.000000;0.350700
9516.000000;0.350548
9515.000000;0.350253
9514.000000;0.349714
9513.000000;0.349052
9512.000000;0.348529
9511.000000;0.348283
9510.000000;0.348185
9509.000000;0.348010
9508.000000;0.347700
9507.000000;0.347357
9506.000000;0.347036
9505.000000;0.346686
9504.000000;0.346291
9503.000000;0.345959
9502.000000;0.345795
9501.000000;0.345746
9500.000000;0.345625
9499.000000;0.345276
9498.000000;0.344693
9497.000000;0.344028
9496.000000;0.343458
9495.000000;0.343044
9494.000000;0.342715
9493.000000;0.342390
9492.000000;0.342056
9491.000000;0.341690
9490.000000;0.341209
9489.000000;0.340580
9488.000000;0.339934
9487.000000;0.339444
9486.000000;0.339123
9485.000000;0.338844
9484.000000;0.338566
9483.000000;0.338382
9482.000000;0.338348
9481.000000;0.338356
9480.000000;0.338244
9479.000000;0.337939
9478.000000;0.337443
9477.000000;0.336793
9476.000000;0.336085
9475.000000;0.335465
9474.000000;0.335026
9473.000000;0.334737
9472.000000;0.334520
9471.000000;0.334342
9470.000000;0.334180
9469.000000;0.333967
9468.000000;0.333638
9467.000000;0.333209
9466.000000;0.332752
9465.000000;0.332301
9464.000000;0.331834
9463.000000;0.331349
9462.000000;0.330903
9461.000000;0.330550
9460.000000;0.330284
9459.000000;0.330036
9458.000000;0.329733
9457.000000;0.329342
9456.000000;0.328867
9455.000000;0.328336
9454.000000;0.327823
9453.000000;0.327451
9452.000000;0.327315
9451.000000;0.327347
9450.000000;0.327308
9449.000000;0.326993
9448.000000;0.326437
9447.000000;0.325847
9446.000000;0.325360
9445.000000;0.324943
9444.000000;0.324530
9443.000000;0.324156
9442.000000;0.323908
9441.000000;0.323793
9440.000000;0.323732
9439.000000;0.323649
9438.000000;0.323494
9437.000000;0.323231
9436.000000;0.322845
9435.000000;0.322366
9434.000000;0.321826
9433.000000;0.321223
9432.000000;0.320567
9431.000000;0.319970
9430.000000;0.319585
9429.000000;0.319443
9428.000000;0.319382
9427.000000;0.319200
9426.000000;0.318846
9425.000000;0.318453
9424.000000;0.318181
9423.000000;0.318079
9422.000000;0.318052
9421.000000;0.317933
9420.000000;0.317595
9419.000000;0.317055
9418.000000;0.316461
9417.000000;0.315955
9416.000000;0.315537
9415.000000;0.315122
9414.000000;0.314712
9413.000000;0.314424
9412.000000;0.314292
9411.000000;0.314149
9410.000000;0.313783
9409.000000;0.313187
9408.000000;0.312555
9407.000000;0.312053
9406.000000;0.311673
9405.000000;0.311335
9404.000000;0.311018
9403.000000;0.310758
9402.000000;0.310561
9401.000000;0.310373
9400.000000;0.310119
9399.000000;0.309772
9398.000000;0.309398
9397.000000;0.309113
9396.000000;0.308963
9395.000000;0.308850
9394.000000;0.308631
9393.000000;0.308270
9392.000000;0.307836
9391.000000;0.307381
9390.000000;0.306905
9389.000000;0.306446
9388.000000;0.306087
9387.000000;0.305844
9386.000000;0.305623
9385.000000;0.305331
9384.000000;0.304968
9383.000000;0.304585
9382.000000;0.304227
9381.000000;0.303942
9380.000000;0.303742
9379.000000;0.303522
9378.000000;0.303107
9377.000000;0.302462
9376.000000;0.301784
9375.000000;0.301325
9374.000000;0.301153
9373.000000;0.301157
9372.000000;0.301181
9371.000000;0.301088
9370.000000;0.300772
9369.000000;0.300240
9368.000000;0.299648
9367.000000;0.299179
9366.000000;0.298883
9365.000000;0.298689
9364.000000;0.298532
9363.000000;0.298391
9362.000000;0.298244
9361.000000;0.298051
9360.000000;0.297780
9359.000000;0.297413
9358.000000;0.296940
9357.000000;0.296423
9356.000000;0.295988
9355.000000;0.295719
9354.000000;0.295555
9353.000000;0.295373
9352.000000;0.295131
9351.000000;0.294866
9350.000000;0.294606
9349.000000;0.294350
9348.000000;0.294103
9347.000000;0.293870
9346.000000;0.293615
9345.000000;0.293312
9344.000000;0.292988
9343.000000;0.292683
9342.000000;0.292362
9341.000000;0.291969
9340.000000;0.291534
9339.000000;0.291172
9338.000000;0.290949
9337.000000;0.290804
9336.000000;0.290598
9335.000000;0.290203
9334.000000;0.289588
9333.000000;0.288872
9332.000000;0.288266
9331.000000;0.287894
9330.000000;0.287690
9329.000000;0.287516
9328.000000;0.287338
9327.000000;0.287215
9326.000000;0.287155
9325.000000;0.287067
9324.000000;0.286867
9323.000000;0.286563
9322.000000;0.286222
9321.000000;0.285884
9320.000000;0.285539
9319.000000;0.285154
9318.000000;0.284738
9317.000000;0.284357
9316.000000;0.284070
9315.000000;0.283814
9314.000000;0.283462
9313.000000;0.283013
9312.000000;0.282640
9311.000000;0.282467
9310.000000;0.282387
9309.000000;0.282198
9308.000000;0.281871
9307.000000;0.281543
9306.000000;0.281296
9305.000000;0.281062
9304.000000;0.280758
9303.000000;0.280397
9302.000000;0.280049
9301.000000;0.279761
9300.000000;0.279544
9299.000000;0.279369
9298.000000;0.279159
9297.000000;0.278842
9296.000000;0.278420
9295.000000;0.277948
9294.000000;0.277473
9293.000000;0.277042
9292.000000;0.276742
9291.000000;0.276631
9290.000000;0.276636
9289.000000;0.276592
9288.000000;0.276400
9287.000000;0.276084
9286.000000;0.275727
9285.000000;0.275398
9284.000000;0.275147
9283.000000;0.274982
9282.000000;0.274850
9281.000000;0.274712
9280.000000;0.274596
9279.000000;0.274520
9278.000000;0.274392
9277.000000;0.274095
9276.000000;0.273656
9275.000000;0.273221
9274.000000;0.272848
9273.000000;0.272458
9272.000000;0.271992
9271.000000;0.271508
9270.000000;0.271082
9269.000000;0.270711
9268.000000;0.270383
9267.000000;0.270143
9266.000000;0.270028
9265.000000;0.269987
9264.000000;0.269919
9263.000000;0.269738
9262.000000;0.269389
9261.000000;0.268852
9260.000000;0.268215
9259.000000;0.267664
9258.000000;0.267340
9257.000000;0.267208
9256.000000;0.267114
9255.000000;0.266954
9254.000000;0.266738
9253.000000;0.266529
9252.000000;0.266347
9251.000000;0.266155
9250.000000;0.265917
9249.000000;0.265669
9248.000000;0.265480
9247.000000;0.265343
9246.000000;0.265135
9245.000000;0.264750
9244.000000;0.264256
9243.000000;0.263835
9242.000000;0.263588
9241.000000;0.263450
9240.000000;0.263311
9239.000000;0.263121
9238.000000;0.262869
9237.000000;0.262542
9236.000000;0.262156
9235.000000;0.261782
9234.000000;0.261476
9233.000000;0.261216
9232.000000;0.260941
9231.000000;0.260627
9230.000000;0.260300
9229.000000;0.260003
9228.000000;0.259769
9227.000000;0.259610
9226.000000;0.259500
9225.000000;0.259392
9224.000000;0.259260
9223.000000;0.259098
9222.000000;0.258904
9221.000000;0.258679
9220.000000;0.258444
9219.000000;0.258221
9218.000000;0.258004
9217.000000;0.257787
9216.000000;0.257589
9215.000000;0.257397
9214.000000;0.257118
9213.000000;0.256670
9212.000000;0.256117
9211.000000;0.255646
9210.000000;0.255387
9209.000000;0.255312
9208.000000;0.255307
9207.000000;0.255283
9206.000000;0.255195
9205.000000;0.255040
9204.000000;0.254858
9203.000000;0.254695
9202.000000;0.254518
9201.000000;0.254234
9200.000000;0.253820
9199.000000;0.253378
9198.000000;0.253026
9197.000000;0.252761
9196.000000;0.252487
9195.000000;0.252147
9194.000000;0.251782
9193.000000;0.251497
9192.000000;0.251364
9191.000000;0.251342
9190.000000;0.251275
9189.000000;0.251005
9188.000000;0.250534
9187.000000;0.250052
9186.000000;0.249769
9185.000000;0.249723
9184.000000;0.249748
9183.000000;0.249629
9182.000000;0.249294
9181.000000;0.248875
9180.000000;0.248570
9179.000000;0.248440
9178.000000;0.248366
9177.000000;0.248215
9176.000000;0.248007
9175.000000;0.247839
9174.000000;0.247696
9173.000000;0.247453
9172.000000;0.247061
9171.000000;0.246635
9170.000000;0.246309
9169.000000;0.246091
9168.000000;0.245921
9167.000000;0.245785
9166.000000;0.245711
9165.000000;0.245660
9164.000000;0.245514
9163.000000;0.245175
9162.000000;0.244669
9161.000000;0.244137
9160.000000;0.243737
9159.000000;0.243532
9158.000000;0.243451
9157.000000;0.243368
9156.000000;0.243225
9155.000000;0.243061
9154.000000;0.242932
9153.000000;0.242845
9152.000000;0.242759
9151.000000;0.242606
9150.000000;0.242325
9149.000000;0.241911
9148.000000;0.241454
9147.000000;0.241081
9146.000000;0.240832
9145.000000;0.240640
9144.000000;0.240437
9143.000000;0.240249
9142.000000;0.240137
9141.000000;0.240091
9140.000000;0.240015
9139.000000;0.239812
9138.000000;0.239482
9137.000000;0.239125
9136.000000;0.238843
9135.000000;0.238634
9134.000000;0.238396
9133.000000;0.238060
9132.000000;0.237705
9131.000000;0.237469
9130.000000;0.237373
9129.000000;0.237298
9128.000000;0.237140
9127.000000;0.236929
9126.000000;0.236753
9125.000000;0.236625
9124.000000;0.236482
9123.000000;0.236279
9122.000000;0.236032
9121.000000;0.235790
9120.000000;0.235582
9119.000000;0.235401
9118.000000;0.235207
9117.000000;0.234948
9116.000000;0.234617
9115.000000;0.234279
9114.000000;0.234042
9113.000000;0.233966
9112.000000;0.234000
9111.000000;0.233998
9110.000000;0.233829
9109.000000;0.233485
9108.000000;0.233065
9107.000000;0.232674
9106.000000;0.232346
9105.000000;0.232094
9104.000000;0.231947
9103.000000;0.231882
9102.000000;0.231771
9101.000000;0.231496
9100.000000;0.231125
9099.000000;0.230869
9098.000000;0.230848
9097.000000;0.230945
9096.000000;0.230938
9095.000000;0.230719
9094.000000;0.230348
9093.000000;0.229936
9092.000000;0.229545
9091.000000;0.229196
9090.000000;0.228928
9089.000000;0.228801
9088.000000;0.228821
9087.000000;0.228884
9086.000000;0.228825
9085.000000;0.228562
9084.000000;0.228181
9083.000000;0.227835
9082.000000;0.227590
9081.000000;0.227391
9080.000000;0.227158
9079.000000;0.226873
9078.000000;0.226575
9077.000000;0.226325
9076.000000;0.226184
9075.000000;0.226174
9074.000000;0.226233
9073.000000;0.226229
9072.000000;0.226045
9071.000000;0.225658
9070.000000;0.225161
9069.000000;0.224733
9068.000000;0.224547
9067.000000;0.224632
9066.000000;0.224810
9065.000000;0.224824
9064.000000;0.224567
9063.000000;0.224159
9062.000000;0.223807
9061.000000;0.223619
9060.000000;0.223552
9059.000000;0.223488
9058.000000;0.223333
9057.000000;0.223074
9056.000000;0.222765
9055.000000;0.222461
9054.000000;0.222174
9053.000000;0.221907
