Criado como novo conjunto de dados;"e2410_daniel_v2.spp","67145.5 Secs"
cm-1;Abs
10000.000000;1.300339
9999.000000;1.299513
9998.000000;1.299133
9997.000000;1.298893
9996.000000;1.298746
9995.000000;1.298477
9994.000000;1.297865
9993.000000;1.297139
9992.000000;1.296708
9991.000000;1.296622
9990.000000;1.296728
9989.000000;1.297019
9988.000000;1.297332
9987.000000;1.297133
9986.000000;1.296188
9985.000000;1.295103
9984.000000;1.294549
9983.000000;1.294277
9982.000000;1.293524
9981.000000;1.292166
9980.000000;1.290819
9979.000000;1.289952
9978.000000;1.289465
9977.000000;1.289033
9976.000000;1.288380
9975.000000;1.287325
9974.000000;1.286000
9973.000000;1.284906
9972.000000;1.284432
9971.000000;1.284468
9970.000000;1.284717
9969.000000;1.285102
9968.000000;1.285558
9967.000000;1.285754
9966.000000;1.285391
9965.000000;1.284561
9964.000000;1.283503
9963.000000;1.282336
9962.000000;1.281279
9961.000000;1.280724
9960.000000;1.280697
9959.000000;1.280650
9958.000000;1.280218
9957.000000;1.279788
9956.000000;1.279857
9955.000000;1.280161
9954.000000;1.279960
9953.000000;1.278945
9952.000000;1.277434
9951.000000;1.275912
9950.000000;1.274773
9949.000000;1.274252
9948.000000;1.274192
9947.000000;1.274063
9946.000000;1.273535
9945.000000;1.272821
9944.000000;1.272209
9943.000000;1.271661
9942.000000;1.271192
9941.000000;1.271164
9940.000000;1.271693
9939.000000;1.272135
9938.000000;1.271704
9937.000000;1.270388
9936.000000;1.268812
9935.000000;1.267469
9934.000000;1.266525
9933.000000;1.266077
9932.000000;1.266012
9931.000000;1.265781
9930.000000;1.264885
9929.000000;1.263569
9928.000000;1.262613
9927.000000;1.262427
9926.000000;1.262687
9925.000000;1.262808
9924.000000;1.262514
9923.000000;1.261956
9922.000000;1.261447
9921.000000;1.261073
9920.000000;1.260569
9919.000000;1.259720
9918.000000;1.258835
9917.000000;1.258408
9916.000000;1.258304
9915.000000;1.257792
9914.000000;1.256592
9913.000000;1.255364
9912.000000;1.254831
9911.000000;1.254892
9910.000000;1.254971
9909.000000;1.254809
9908.000000;1.254412
9907.000000;1.253606
9906.000000;1.252290
9905.000000;1.250953
9904.000000;1.250341
9903.000000;1.250582
9902.000000;1.251062
9901.000000;1.251166
9900.000000;1.250856
9899.000000;1.250480
9898.000000;1.250266
9897.000000;1.250110
9896.000000;1.249744
9895.000000;1.249033
9894.000000;1.248064
9893.000000;1.246961
9892.000000;1.245783
9891.000000;1.244750
9890.000000;1.244359
9889.000000;1.244851
9888.000000;1.245615
9887.000000;1.245569
9886.000000;1.244299
9885.000000;1.242475
9884.000000;1.241038
9883.000000;1.240362
9882.000000;1.240238
9881.000000;1.240214
9880.000000;1.239787
9879.000000;1.238678
9878.000000;1.237165
9877.000000;1.235892
9876.000000;1.235216
9875.000000;1.234998
9874.000000;1.235004
9873.000000;1.235103
9872.000000;1.235026
9871.000000;1.234476
9870.000000;1.233662
9869.000000;1.233264
9868.000000;1.233585
9867.000000;1.234106
9866.000000;1.234115
9865.000000;1.233459
9864.000000;1.232499
9863.000000;1.231683
9862.000000;1.231333
9861.000000;1.231530
9860.000000;1.231960
9859.000000;1.232005
9858.000000;1.231157
9857.000000;1.229330
9856.000000;1.226904
9855.000000;1.224669
9854.000000;1.223484
9853.000000;1.223496
9852.000000;1.223795
9851.000000;1.223376
9850.000000;1.222332
9849.000000;1.221511
9848.000000;1.221181
9847.000000;1.220840
9846.000000;1.220272
9845.000000;1.219881
9844.000000;1.219834
9843.000000;1.219760
9842.000000;1.219574
9841.000000;1.219734
9840.000000;1.220290
9839.000000;1.220496
9838.000000;1.219864
9837.000000;1.218872
9836.000000;1.218133
9835.000000;1.217547
9834.000000;1.216893
9833.000000;1.216555
9832.000000;1.216884
9831.000000;1.217354
9830.000000;1.217101
9829.000000;1.216059
9828.000000;1.214911
9827.000000;1.214108
9826.000000;1.213533
9825.000000;1.212986
9824.000000;1.212463
9823.000000;1.211978
9822.000000;1.211475
9821.000000;1.210883
9820.000000;1.210084
9819.000000;1.208984
9818.000000;1.207756
9817.000000;1.206813
9816.000000;1.206422
9815.000000;1.206556
9814.000000;1.207138
9813.000000;1.208063
9812.000000;1.208872
9811.000000;1.208878
9810.000000;1.207846
9809.000000;1.206214
9808.000000;1.204525
9807.000000;1.203059
9806.000000;1.202051
9805.000000;1.201711
9804.000000;1.201795
9803.000000;1.201662
9802.000000;1.201054
9801.000000;1.200360
9800.000000;1.199852
9799.000000;1.199207
9798.000000;1.198130
9797.000000;1.196996
9796.000000;1.196472
9795.000000;1.196841
9794.000000;1.197927
9793.000000;1.199265
9792.000000;1.200112
9791.000000;1.199820
9790.000000;1.198557
9789.000000;1.197246
9788.000000;1.196500
9787.000000;1.196070
9786.000000;1.195550
9785.000000;1.195065
9784.000000;1.194847
9783.000000;1.194621
9782.000000;1.193923
9781.000000;1.192682
9780.000000;1.191128
9779.000000;1.189526
9778.000000;1.188275
9777.000000;1.187798
9776.000000;1.187926
9775.000000;1.187869
9774.000000;1.187220
9773.000000;1.186551
9772.000000;1.186568
9771.000000;1.187149
9770.000000;1.187699
9769.000000;1.188034
9768.000000;1.188326
9767.000000;1.188504
9766.000000;1.188301
9765.000000;1.187691
9764.000000;1.186732
9763.000000;1.185224
9762.000000;1.183078
9761.000000;1.180847
9760.000000;1.179375
9759.000000;1.178930
9758.000000;1.179044
9757.000000;1.179091
9756.000000;1.178730
9755.000000;1.177923
9754.000000;1.176909
9753.000000;1.176109
9752.000000;1.175769
9751.000000;1.175706
9750.000000;1.175568
9749.000000;1.175171
9748.000000;1.174451
9747.000000;1.173381
9746.000000;1.172176
9745.000000;1.171316
9744.000000;1.171067
9743.000000;1.171151
9742.000000;1.171131
9741.000000;1.170923
9740.000000;1.170701
9739.000000;1.170550
9738.000000;1.170458
9737.000000;1.170439
9736.000000;1.170384
9735.000000;1.170004
9734.000000;1.169161
9733.000000;1.168122
9732.000000;1.167261
9731.000000;1.166653
9730.000000;1.166115
9729.000000;1.165476
9728.000000;1.164669
9727.000000;1.163829
9726.000000;1.163384
9725.000000;1.163656
9724.000000;1.164288
9723.000000;1.164480
9722.000000;1.164007
9721.000000;1.163571
9720.000000;1.163798
9719.000000;1.164315
9718.000000;1.164234
9717.000000;1.163291
9716.000000;1.162062
9715.000000;1.161178
9714.000000;1.160721
9713.000000;1.160369
9712.000000;1.159814
9711.000000;1.159003
9710.000000;1.158104
9709.000000;1.157297
9708.000000;1.156670
9707.000000;1.156389
9706.000000;1.156725
9705.000000;1.157574
9704.000000;1.158093
9703.000000;1.157413
9702.000000;1.155762
9701.000000;1.154290
9700.000000;1.153647
9699.000000;1.153371
9698.000000;1.152906
9697.000000;1.152569
9696.000000;1.153001
9695.000000;1.154073
9694.000000;1.154905
9693.000000;1.154779
9692.000000;1.153662
9691.000000;1.152011
9690.000000;1.150427
9689.000000;1.149326
9688.000000;1.148609
9687.000000;1.147761
9686.000000;1.146520
9685.000000;1.145283
9684.000000;1.144673
9683.000000;1.144894
9682.000000;1.145667
9681.000000;1.146545
9680.000000;1.147104
9679.000000;1.147050
9678.000000;1.146404
9677.000000;1.145450
9676.000000;1.144406
9675.000000;1.143317
9674.000000;1.142292
9673.000000;1.141491
9672.000000;1.140777
9671.000000;1.139794
9670.000000;1.138576
9669.000000;1.137737
9668.000000;1.137786
9667.000000;1.138528
9666.000000;1.139313
9665.000000;1.139610
9664.000000;1.139220
9663.000000;1.138282
9662.000000;1.137307
9661.000000;1.136841
9660.000000;1.136842
9659.000000;1.136670
9658.000000;1.135880
9657.000000;1.134704
9656.000000;1.133582
9655.000000;1.132614
9654.000000;1.131753
9653.000000;1.131126
9652.000000;1.130831
9651.000000;1.130679
9650.000000;1.130466
9649.000000;1.130258
9648.000000;1.130166
9647.000000;1.130060
9646.000000;1.129805
9645.000000;1.129557
9644.000000;1.129549
9643.000000;1.129744
9642.000000;1.129898
9641.000000;1.129790
9640.000000;1.129239
9639.000000;1.128107
9638.000000;1.126488
9637.000000;1.124724
9636.000000;1.123116
9635.000000;1.121855
9634.000000;1.121238
9633.000000;1.121599
9632.000000;1.122834
9631.000000;1.124279
9630.000000;1.125267
9629.000000;1.125538
9628.000000;1.125058
9627.000000;1.123810
9626.000000;1.122023
9625.000000;1.120254
9624.000000;1.118935
9623.000000;1.118021
9622.000000;1.117241
9621.000000;1.116501
9620.000000;1.115896
9619.000000;1.115563
9618.000000;1.115624
9617.000000;1.116009
9616.000000;1.116300
9615.000000;1.116084
9614.000000;1.115529
9613.000000;1.115194
9612.000000;1.115212
9611.000000;1.115103
9610.000000;1.114540
9609.000000;1.113835
9608.000000;1.113450
9607.000000;1.113419
9606.000000;1.113442
9605.000000;1.113212
9604.000000;1.112468
9603.000000;1.111163
9602.000000;1.109748
9601.000000;1.108861
9600.000000;1.108542
9599.000000;1.108227
9598.000000;1.107691
9597.000000;1.107458
9596.000000;1.107939
9595.000000;1.108711
9594.000000;1.109075
9593.000000;1.108890
9592.000000;1.108406
9591.000000;1.107677
9590.000000;1.106626
9589.000000;1.105418
9588.000000;1.104284
9587.000000;1.103204
9586.000000;1.102129
9585.000000;1.101281
9584.000000;1.100877
9583.000000;1.100778
9582.000000;1.100746
9581.000000;1.100808
9580.000000;1.101070
9579.000000;1.101369
9578.000000;1.101454
9577.000000;1.101308
9576.000000;1.101055
9575.000000;1.100729
9574.000000;1.100397
9573.000000;1.100204
9572.000000;1.100030
9571.000000;1.099417
9570.000000;1.098178
9569.000000;1.096805
9568.000000;1.095963
9567.000000;1.095777
9566.000000;1.095870
9565.000000;1.095835
9564.000000;1.095387
9563.000000;1.094385
9562.000000;1.093078
9561.000000;1.092083
9560.000000;1.091773
9559.000000;1.091847
9558.000000;1.091804
9557.000000;1.091616
9556.000000;1.091582
9555.000000;1.091701
9554.000000;1.091568
9553.000000;1.090825
9552.000000;1.089458
9551.000000;1.087785
9550.000000;1.086356
9549.000000;1.085682
9548.000000;1.085784
9547.000000;1.086176
9546.000000;1.086452
9545.000000;1.086653
9544.000000;1.086810
9543.000000;1.086533
9542.000000;1.085479
9541.000000;1.084027
9540.000000;1.083014
9539.000000;1.082864
9538.000000;1.083303
9537.000000;1.083802
9536.000000;1.084003
9535.000000;1.083764
9534.000000;1.083133
9533.000000;1.082326
9532.000000;1.081523
9531.000000;1.080732
9530.000000;1.079970
9529.000000;1.079477
9528.000000;1.079520
9527.000000;1.080049
9526.000000;1.080658
9525.000000;1.080844
9524.000000;1.080266
9523.000000;1.078966
9522.000000;1.077448
9521.000000;1.076360
9520.000000;1.075906
9519.000000;1.075692
9518.000000;1.075249
9517.000000;1.074515
9516.000000;1.073740
9515.000000;1.073154
9514.000000;1.072872
9513.000000;1.072870
9512.000000;1.072889
9511.000000;1.072615
9510.000000;1.072096
9509.000000;1.071705
9508.000000;1.071588
9507.000000;1.071448
9506.000000;1.071082
9505.000000;1.070727
9504.000000;1.070612
9503.000000;1.070488
9502.000000;1.069991
9501.000000;1.069213
9500.000000;1.068566
9499.000000;1.068247
9498.000000;1.068168
9497.000000;1.068226
9496.000000;1.068290
9495.000000;1.068077
9494.000000;1.067414
9493.000000;1.066558
9492.000000;1.065947
9491.000000;1.065686
9490.000000;1.065530
9489.000000;1.065287
9488.000000;1.064959
9487.000000;1.064536
9486.000000;1.063959
9485.000000;1.063289
9484.000000;1.062698
9483.000000;1.062261
9482.000000;1.061907
9481.000000;1.061590
9480.000000;1.061366
9479.000000;1.061293
9478.000000;1.061324
9477.000000;1.061300
9476.000000;1.061010
9475.000000;1.060374
9474.000000;1.059603
9473.000000;1.059060
9472.000000;1.058868
9471.000000;1.058763
9470.000000;1.058420
9469.000000;1.057776
9468.000000;1.056976
9467.000000;1.056173
9466.000000;1.055499
9465.000000;1.055099
9464.000000;1.055022
9463.000000;1.055130
9462.000000;1.055179
9461.000000;1.054945
9460.000000;1.054329
9459.000000;1.053498
9458.000000;1.052864
9457.000000;1.052711
9456.000000;1.052842
9455.000000;1.052792
9454.000000;1.052393
9453.000000;1.051870
9452.000000;1.051381
9451.000000;1.050791
9450.000000;1.050036
9449.000000;1.049355
9448.000000;1.048967
9447.000000;1.048750
9446.000000;1.048448
9445.000000;1.048014
9444.000000;1.047579
9443.000000;1.047240
9442.000000;1.047010
9441.000000;1.046832
9440.000000;1.046541
9439.000000;1.045995
9438.000000;1.045346
9437.000000;1.044957
9436.000000;1.044927
9435.000000;1.044890
9434.000000;1.044427
9433.000000;1.043522
9432.000000;1.042497
9431.000000;1.041683
9430.000000;1.041255
9429.000000;1.041226
9428.000000;1.041431
9427.000000;1.041668
9426.000000;1.041912
9425.000000;1.042253
9424.000000;1.042587
9423.000000;1.042594
9422.000000;1.042123
9421.000000;1.041394
9420.000000;1.040714
9419.000000;1.040173
9418.000000;1.039667
9417.000000;1.039034
9416.000000;1.038135
9415.000000;1.037005
9414.000000;1.035998
9413.000000;1.035553
9412.000000;1.035726
9411.000000;1.036134
9410.000000;1.036421
9409.000000;1.036542
9408.000000;1.036532
9407.000000;1.036275
9406.000000;1.035674
9405.000000;1.034829
9404.000000;1.033904
9403.000000;1.032979
9402.000000;1.032084
9401.000000;1.031225
9400.000000;1.030335
9399.000000;1.029408
9398.000000;1.028685
9397.000000;1.028462
9396.000000;1.028657
9395.000000;1.028844
9394.000000;1.028723
9393.000000;1.028328
9392.000000;1.027761
9391.000000;1.027084
9390.000000;1.026532
9389.000000;1.026433
9388.000000;1.026749
9387.000000;1.027007
9386.000000;1.026855
9385.000000;1.026427
9384.000000;1.026010
9383.000000;1.025641
9382.000000;1.025200
9381.000000;1.024677
9380.000000;1.024166
9379.000000;1.023759
9378.000000;1.023561
9377.000000;1.023586
9376.000000;1.023584
9375.000000;1.023257
9374.000000;1.022700
9373.000000;1.022321
9372.000000;1.022223
9371.000000;1.022052
9370.000000;1.021587
9369.000000;1.021089
9368.000000;1.020825
9367.000000;1.020611
9366.000000;1.020119
9365.000000;1.019410
9364.000000;1.018810
9363.000000;1.018444
9362.000000;1.018144
9361.000000;1.017717
9360.000000;1.017090
9359.000000;1.016316
9358.000000;1.015587
9357.000000;1.015151
9356.000000;1.015080
9355.000000;1.015220
9354.000000;1.015417
9353.000000;1.015606
9352.000000;1.015634
9351.000000;1.015274
9350.000000;1.014591
9349.000000;1.014049
9348.000000;1.014030
9347.000000;1.014393
9346.000000;1.014648
9345.000000;1.014448
9344.000000;1.013805
9343.000000;1.012959
9342.000000;1.012193
9341.000000;1.011657
9340.000000;1.011275
9339.000000;1.010894
9338.000000;1.010546
9337.000000;1.010414
9336.000000;1.010527
9335.000000;1.010679
9334.000000;1.010689
9333.000000;1.010542
9332.000000;1.010272
9331.000000;1.009931
9330.000000;1.009659
9329.000000;1.009522
9328.000000;1.009257
9327.000000;1.008500
9326.000000;1.007332
9325.000000;1.006316
9324.000000;1.005895
9323.000000;1.005996
9322.000000;1.006264
9321.000000;1.006384
9320.000000;1.006128
9319.000000;1.005452
9318.000000;1.004694
9317.000000;1.004376
9316.000000;1.004608
9315.000000;1.004913
9314.000000;1.004787
9313.000000;1.004196
9312.000000;1.003451
9311.000000;1.002823
9310.000000;1.002407
9309.000000;1.002130
9308.000000;1.001774
9307.000000;1.001209
9306.000000;1.000649
9305.000000;1.000413
9304.000000;1.000432
9303.000000;1.000316
9302.000000;0.999960
9301.000000;0.999689
9300.000000;0.999702
9299.000000;0.999772
9298.000000;0.999660
9297.000000;0.999427
9296.000000;0.999110
9295.000000;0.998485
9294.000000;0.997457
9293.000000;0.996404
9292.000000;0.995789
9291.000000;0.995663
9290.000000;0.995767
9289.000000;0.995922
9288.000000;0.996033
9287.000000;0.995954
9286.000000;0.995608
9285.000000;0.995142
9284.000000;0.994747
9283.000000;0.994430
9282.000000;0.994088
9281.000000;0.993654
9280.000000;0.993072
9279.000000;0.992346
9278.000000;0.991722
9277.000000;0.991516
9276.000000;0.991637
9275.000000;0.991559
9274.000000;0.990984
9273.000000;0.990240
9272.000000;0.989759
9271.000000;0.989488
9270.000000;0.989098
9269.000000;0.988553
9268.000000;0.988099
9267.000000;0.987817
9266.000000;0.987582
9265.000000;0.987406
9264.000000;0.987485
9263.000000;0.987816
9262.000000;0.987995
9261.000000;0.987543
9260.000000;0.986400
9259.000000;0.985064
9258.000000;0.984230
9257.000000;0.984233
9256.000000;0.984781
9255.000000;0.985278
9254.000000;0.985375
9253.000000;0.985144
9252.000000;0.984814
9251.000000;0.984542
9250.000000;0.984414
9249.000000;0.984390
9248.000000;0.984203
9247.000000;0.983586
9246.000000;0.982695
9245.000000;0.982045
9244.000000;0.981923
9243.000000;0.982079
9242.000000;0.982107
9241.000000;0.981924
9240.000000;0.981705
9239.000000;0.981542
9238.000000;0.981362
9237.000000;0.981100
9236.000000;0.980785
9235.000000;0.980512
9234.000000;0.980362
9233.000000;0.980275
9232.000000;0.980027
9231.000000;0.979462
9230.000000;0.978740
9229.000000;0.978189
9228.000000;0.977895
9227.000000;0.977639
9226.000000;0.977207
9225.000000;0.976562
9224.000000;0.975752
9223.000000;0.974901
9222.000000;0.974304
9221.000000;0.974235
9220.000000;0.974616
9219.000000;0.975088
9218.000000;0.975449
9217.000000;0.975748
9216.000000;0.975926
9215.000000;0.975707
9214.000000;0.974997
9213.000000;0.974101
9212.000000;0.973392
9211.000000;0.972960
9210.000000;0.972709
9209.000000;0.972601
9208.000000;0.972635
9207.000000;0.972735
9206.000000;0.972743
9205.000000;0.972474
9204.000000;0.971806
9203.000000;0.970881
9202.000000;0.970152
9201.000000;0.970007
9200.000000;0.970353
9199.000000;0.970782
9198.000000;0.971066
9197.000000;0.971192
9196.000000;0.971024
9195.000000;0.970369
9194.000000;0.969400
9193.000000;0.968595
9192.000000;0.968156
9191.000000;0.967852
9190.000000;0.967506
9189.000000;0.967256
9188.000000;0.967214
9187.000000;0.967225
9186.000000;0.967137
9185.000000;0.966960
9184.000000;0.966650
9183.000000;0.966105
9182.000000;0.965502
9181.000000;0.965232
9180.000000;0.965315
9179.000000;0.965268
9178.000000;0.964817
9177.000000;0.964348
9176.000000;0.964324
9175.000000;0.964604
9174.000000;0.964699
9173.000000;0.964447
9172.000000;0.964053
9171.000000;0.963636
9170.000000;0.963119
9169.000000;0.962471
9168.000000;0.961789
9167.000000;0.961181
9166.000000;0.960750
9165.000000;0.960602
9164.000000;0.960687
9163.000000;0.960738
9162.000000;0.960516
9161.000000;0.960059
9160.000000;0.959586
9159.000000;0.959274
9158.000000;0.959208
9157.000000;0.959369
9156.000000;0.959575
9155.000000;0.959555
9154.000000;0.959205
9153.000000;0.958649
9152.000000;0.958022
9151.000000;0.957401
9150.000000;0.956969
9149.000000;0.956956
9148.000000;0.957298
9147.000000;0.957587
9146.000000;0.957536
9145.000000;0.957286
9144.000000;0.957133
9143.000000;0.957107
9142.000000;0.956981
9141.000000;0.956537
9140.000000;0.955734
9139.000000;0.954773
9138.000000;0.954088
9137.000000;0.954043
9136.000000;0.954502
9135.000000;0.954869
9134.000000;0.954669
9133.000000;0.953947
9132.000000;0.953061
9131.000000;0.952315
9130.000000;0.951887
9129.000000;0.951817
9128.000000;0.951925
9127.000000;0.951945
9126.000000;0.951878
9125.000000;0.951976
9124.000000;0.952261
9123.000000;0.952360
9122.000000;0.951987
9121.000000;0.951357
9120.000000;0.950883
9119.000000;0.950654
9118.000000;0.950453
9117.000000;0.950102
9116.000000;0.949612
9115.000000;0.949073
9114.000000;0.948607
9113.000000;0.948330
9112.000000;0.948228
9111.000000;0.948164
9110.000000;0.948053
9109.000000;0.947928
9108.000000;0.947781
9107.000000;0.947512
9106.000000;0.947124
9105.000000;0.946789
9104.000000;0.946616
9103.000000;0.946532
9102.000000;0.946459
9101.000000;0.946417
9100.000000;0.946352
9099.000000;0.946081
9098.000000;0.945547
9097.000000;0.944971
9096.000000;0.944615
9095.000000;0.944546
9094.000000;0.944713
9093.000000;0.945065
9092.000000;0.945483
9091.000000;0.945756
9090.000000;0.945761
9089.000000;0.945535
9088.000000;0.945099
9087.000000;0.944402
9086.000000;0.943510
9085.000000;0.942693
9084.000000;0.942191
9083.000000;0.942034
9082.000000;0.942138
9081.000000;0.942383
9080.000000;0.942542
9079.000000;0.942366
9078.000000;0.941857
9077.000000;0.941313
9076.000000;0.940976
9075.000000;0.940774
9074.000000;0.940473
9073.000000;0.939953
9072.000000;0.939282
9071.000000;0.938678
9070.000000;0.938435
9069.000000;0.938706
9068.000000;0.939280
9067.000000;0.939714
9066.000000;0.939711
9065.000000;0.939268
9064.000000;0.938542
9063.000000;0.937800
9062.000000;0.937417
9061.000000;0.937572
9060.000000;0.937918
9059.000000;0.937884
9058.000000;0.937375
9057.000000;0.936855
9056.000000;0.936690
9055.000000;0.936739
9054.000000;0.936721
9053.000000;0.936597
