Criado como novo conjunto de dados;"e2410_daniel_v2.spp","53824.6 Secs"
cm-1;Abs
10000.000000;1.079835
9999.000000;1.079354
9998.000000;1.078871
9997.000000;1.078395
9996.000000;1.077906
9995.000000;1.077445
9994.000000;1.076901
9993.000000;1.075990
9992.000000;1.074800
9991.000000;1.073665
9990.000000;1.073027
9989.000000;1.072786
9988.000000;1.072315
9987.000000;1.071197
9986.000000;1.069752
9985.000000;1.068666
9984.000000;1.068345
9983.000000;1.068697
9982.000000;1.069298
9981.000000;1.069621
9980.000000;1.069357
9979.000000;1.068661
9978.000000;1.067906
9977.000000;1.067179
9976.000000;1.066277
9975.000000;1.065181
9974.000000;1.064178
9973.000000;1.063456
9972.000000;1.062980
9971.000000;1.062857
9970.000000;1.063330
9969.000000;1.064171
9968.000000;1.064553
9967.000000;1.063948
9966.000000;1.062806
9965.000000;1.061906
9964.000000;1.061344
9963.000000;1.060589
9962.000000;1.059371
9961.000000;1.058057
9960.000000;1.057187
9959.000000;1.056974
9958.000000;1.057220
9957.000000;1.057456
9956.000000;1.057230
9955.000000;1.056500
9954.000000;1.055670
9953.000000;1.055083
9952.000000;1.054617
9951.000000;1.054000
9950.000000;1.053313
9949.000000;1.052884
9948.000000;1.052796
9947.000000;1.052801
9946.000000;1.052646
9945.000000;1.052211
9944.000000;1.051399
9943.000000;1.050174
9942.000000;1.048755
9941.000000;1.047502
9940.000000;1.046627
9939.000000;1.046148
9938.000000;1.046059
9937.000000;1.046291
9936.000000;1.046515
9935.000000;1.046272
9934.000000;1.045418
9933.000000;1.044296
9932.000000;1.043410
9931.000000;1.043003
9930.000000;1.042937
9929.000000;1.042875
9928.000000;1.042562
9927.000000;1.042034
9926.000000;1.041579
9925.000000;1.041438
9924.000000;1.041524
9923.000000;1.041453
9922.000000;1.040874
9921.000000;1.039762
9920.000000;1.038466
9919.000000;1.037453
9918.000000;1.036947
9917.000000;1.036781
9916.000000;1.036658
9915.000000;1.036471
9914.000000;1.036243
9913.000000;1.035871
9912.000000;1.035223
9911.000000;1.034495
9910.000000;1.034165
9909.000000;1.034393
9908.000000;1.034700
9907.000000;1.034454
9906.000000;1.033556
9905.000000;1.032476
9904.000000;1.031669
9903.000000;1.031142
9902.000000;1.030577
9901.000000;1.029785
9900.000000;1.028983
9899.000000;1.028564
9898.000000;1.028562
9897.000000;1.028504
9896.000000;1.027969
9895.000000;1.027153
9894.000000;1.026579
9893.000000;1.026336
9892.000000;1.026012
9891.000000;1.025369
9890.000000;1.024657
9889.000000;1.024126
9888.000000;1.023641
9887.000000;1.023046
9886.000000;1.022534
9885.000000;1.022355
9884.000000;1.022374
9883.000000;1.022220
9882.000000;1.021701
9881.000000;1.020861
9880.000000;1.019815
9879.000000;1.018769
9878.000000;1.018001
9877.000000;1.017560
9876.000000;1.017163
9875.000000;1.016627
9874.000000;1.016192
9873.000000;1.016145
9872.000000;1.016289
9871.000000;1.016137
9870.000000;1.015514
9869.000000;1.014669
9868.000000;1.013875
9867.000000;1.013252
9866.000000;1.012908
9865.000000;1.012920
9864.000000;1.013106
9863.000000;1.013074
9862.000000;1.012571
9861.000000;1.011638
9860.000000;1.010451
9859.000000;1.009194
9858.000000;1.008080
9857.000000;1.007307
9856.000000;1.006943
9855.000000;1.006956
9854.000000;1.007259
9853.000000;1.007597
9852.000000;1.007505
9851.000000;1.006647
9850.000000;1.005252
9849.000000;1.003996
9848.000000;1.003397
9847.000000;1.003413
9846.000000;1.003587
9845.000000;1.003466
9844.000000;1.002890
9843.000000;1.002086
9842.000000;1.001491
9841.000000;1.001368
9840.000000;1.001522
9839.000000;1.001456
9838.000000;1.000831
9837.000000;0.999720
9836.000000;0.998449
9835.000000;0.997304
9834.000000;0.996384
9833.000000;0.995634
9832.000000;0.994950
9831.000000;0.994293
9830.000000;0.993718
9829.000000;0.993278
9828.000000;0.992963
9827.000000;0.992733
9826.000000;0.992560
9825.000000;0.992361
9824.000000;0.991984
9823.000000;0.991346
9822.000000;0.990561
9821.000000;0.989867
9820.000000;0.989419
9819.000000;0.989186
9818.000000;0.988995
9817.000000;0.988662
9816.000000;0.988127
9815.000000;0.987522
9814.000000;0.987066
9813.000000;0.986834
9812.000000;0.986649
9811.000000;0.986264
9810.000000;0.985637
9809.000000;0.984987
9808.000000;0.984566
9807.000000;0.984383
9806.000000;0.984143
9805.000000;0.983497
9804.000000;0.982399
9803.000000;0.981216
9802.000000;0.980427
9801.000000;0.980223
9800.000000;0.980403
9799.000000;0.980600
9798.000000;0.980532
9797.000000;0.980107
9796.000000;0.979389
9795.000000;0.978511
9794.000000;0.977574
9793.000000;0.976664
9792.000000;0.975969
9791.000000;0.975704
9790.000000;0.975814
9789.000000;0.975896
9788.000000;0.975619
9787.000000;0.975100
9786.000000;0.974659
9785.000000;0.974308
9784.000000;0.973742
9783.000000;0.972838
9782.000000;0.971886
9781.000000;0.971276
9780.000000;0.971132
9779.000000;0.971260
9778.000000;0.971275
9777.000000;0.970805
9776.000000;0.969770
9775.000000;0.968509
9774.000000;0.967454
9773.000000;0.966710
9772.000000;0.966095
9771.000000;0.965518
9770.000000;0.965070
9769.000000;0.964829
9768.000000;0.964826
9767.000000;0.965129
9766.000000;0.965623
9765.000000;0.965747
9764.000000;0.964917
9763.000000;0.963353
9762.000000;0.962091
9761.000000;0.961929
9760.000000;0.962630
9759.000000;0.963287
9758.000000;0.963250
9757.000000;0.962506
9756.000000;0.961429
9755.000000;0.960446
9754.000000;0.959796
9753.000000;0.959417
9752.000000;0.959106
9751.000000;0.958838
9750.000000;0.958714
9749.000000;0.958561
9748.000000;0.957920
9747.000000;0.956646
9746.000000;0.955233
9745.000000;0.954284
9744.000000;0.953848
9743.000000;0.953547
9742.000000;0.953156
9741.000000;0.952744
9740.000000;0.952344
9739.000000;0.951809
9738.000000;0.951077
9737.000000;0.950354
9736.000000;0.949959
9735.000000;0.950026
9734.000000;0.950359
9733.000000;0.950543
9732.000000;0.950289
9731.000000;0.949708
9730.000000;0.949157
9729.000000;0.948785
9728.000000;0.948360
9727.000000;0.947605
9726.000000;0.946542
9725.000000;0.945393
9724.000000;0.944343
9723.000000;0.943540
9722.000000;0.943170
9721.000000;0.943298
9720.000000;0.943663
9719.000000;0.943824
9718.000000;0.943559
9717.000000;0.943024
9716.000000;0.942488
9715.000000;0.942018
9714.000000;0.941452
9713.000000;0.940657
9712.000000;0.939749
9711.000000;0.938975
9710.000000;0.938404
9709.000000;0.937872
9708.000000;0.937299
9707.000000;0.936894
9706.000000;0.936861
9705.000000;0.937053
9704.000000;0.937152
9703.000000;0.937067
9702.000000;0.936875
9701.000000;0.936438
9700.000000;0.935489
9699.000000;0.934135
9698.000000;0.932905
9697.000000;0.932178
9696.000000;0.931851
9695.000000;0.931678
9694.000000;0.931626
9693.000000;0.931681
9692.000000;0.931595
9691.000000;0.931108
9690.000000;0.930323
9689.000000;0.929656
9688.000000;0.929427
9687.000000;0.929572
9686.000000;0.929672
9685.000000;0.929268
9684.000000;0.928322
9683.000000;0.927355
9682.000000;0.926931
9681.000000;0.926994
9680.000000;0.926978
9679.000000;0.926592
9678.000000;0.926146
9677.000000;0.926000
9676.000000;0.926044
9675.000000;0.925942
9674.000000;0.925591
9673.000000;0.925087
9672.000000;0.924473
9671.000000;0.923773
9670.000000;0.923109
9669.000000;0.922536
9668.000000;0.921895
9667.000000;0.921058
9666.000000;0.920191
9665.000000;0.919564
9664.000000;0.919235
9663.000000;0.919079
9662.000000;0.918995
9661.000000;0.918895
9660.000000;0.918603
9659.000000;0.917983
9658.000000;0.917109
9657.000000;0.916181
9656.000000;0.915373
9655.000000;0.914833
9654.000000;0.914664
9653.000000;0.914735
9652.000000;0.914686
9651.000000;0.914333
9650.000000;0.913929
9649.000000;0.913810
9648.000000;0.913889
9647.000000;0.913699
9646.000000;0.912889
9645.000000;0.911526
9644.000000;0.910003
9643.000000;0.908786
9642.000000;0.908182
9641.000000;0.908147
9640.000000;0.908331
9639.000000;0.908398
9638.000000;0.908269
9637.000000;0.908042
9636.000000;0.907763
9635.000000;0.907390
9634.000000;0.906850
9633.000000;0.906081
9632.000000;0.905117
9631.000000;0.904213
9630.000000;0.903701
9629.000000;0.903618
9628.000000;0.903630
9627.000000;0.903442
9626.000000;0.903086
9625.000000;0.902704
9624.000000;0.902260
9623.000000;0.901694
9622.000000;0.901152
9621.000000;0.900815
9620.000000;0.900594
9619.000000;0.900226
9618.000000;0.899618
9617.000000;0.898888
9616.000000;0.898156
9615.000000;0.897521
9614.000000;0.897156
9613.000000;0.897178
9612.000000;0.897403
9611.000000;0.897454
9610.000000;0.897151
9609.000000;0.896677
9608.000000;0.896305
9607.000000;0.896096
9606.000000;0.895910
9605.000000;0.895622
9604.000000;0.895223
9603.000000;0.894728
9602.000000;0.894066
9601.000000;0.893166
9600.000000;0.892179
9599.000000;0.891473
9598.000000;0.891259
9597.000000;0.891284
9596.000000;0.891081
9595.000000;0.890519
9594.000000;0.889867
9593.000000;0.889320
9592.000000;0.888746
9591.000000;0.888015
9590.000000;0.887311
9589.000000;0.886903
9588.000000;0.886780
9587.000000;0.886710
9586.000000;0.886530
9585.000000;0.886205
9584.000000;0.885686
9583.000000;0.884924
9582.000000;0.883999
9581.000000;0.883112
9580.000000;0.882461
9579.000000;0.882147
9578.000000;0.882106
9577.000000;0.882069
9576.000000;0.881746
9575.000000;0.881162
9574.000000;0.880649
9573.000000;0.880407
9572.000000;0.880219
9571.000000;0.879770
9570.000000;0.879123
9569.000000;0.878655
9568.000000;0.878581
9567.000000;0.878704
9566.000000;0.878623
9565.000000;0.878078
9564.000000;0.877109
9563.000000;0.875973
9562.000000;0.874946
9561.000000;0.874144
9560.000000;0.873554
9559.000000;0.873188
9558.000000;0.873090
9557.000000;0.873214
9556.000000;0.873414
9555.000000;0.873601
9554.000000;0.873732
9553.000000;0.873651
9552.000000;0.873128
9551.000000;0.872198
9550.000000;0.871261
9549.000000;0.870719
9548.000000;0.870640
9547.000000;0.870865
9546.000000;0.871237
9545.000000;0.871562
9544.000000;0.871521
9543.000000;0.870890
9542.000000;0.869789
9541.000000;0.868576
9540.000000;0.867515
9539.000000;0.866691
9538.000000;0.866155
9537.000000;0.865957
9536.000000;0.866039
9535.000000;0.866200
9534.000000;0.866205
9533.000000;0.865927
9532.000000;0.865414
9531.000000;0.864844
9530.000000;0.864355
9529.000000;0.863900
9528.000000;0.863354
9527.000000;0.862737
9526.000000;0.862182
9525.000000;0.861678
9524.000000;0.861054
9523.000000;0.860290
9522.000000;0.859636
9521.000000;0.859297
9520.000000;0.859160
9519.000000;0.858981
9518.000000;0.858697
9517.000000;0.858389
9516.000000;0.858082
9515.000000;0.857757
9514.000000;0.857487
9513.000000;0.857355
9512.000000;0.857291
9511.000000;0.857092
9510.000000;0.856613
9509.000000;0.855880
9508.000000;0.855076
9507.000000;0.854466
9506.000000;0.854211
9505.000000;0.854206
9504.000000;0.854193
9503.000000;0.854075
9502.000000;0.853973
9501.000000;0.853917
9500.000000;0.853684
9499.000000;0.853096
9498.000000;0.852309
9497.000000;0.851631
9496.000000;0.851182
9495.000000;0.850908
9494.000000;0.850779
9493.000000;0.850781
9492.000000;0.850781
9491.000000;0.850599
9490.000000;0.850185
9489.000000;0.849593
9488.000000;0.848858
9487.000000;0.848049
9486.000000;0.847375
9485.000000;0.847035
9484.000000;0.846957
9483.000000;0.846823
9482.000000;0.846382
9481.000000;0.845643
9480.000000;0.844821
9479.000000;0.844199
9478.000000;0.844012
9477.000000;0.844308
9476.000000;0.844836
9475.000000;0.845145
9474.000000;0.844839
9473.000000;0.843817
9472.000000;0.842334
9471.000000;0.840871
9470.000000;0.839857
9469.000000;0.839444
9468.000000;0.839507
9467.000000;0.839828
9466.000000;0.840169
9465.000000;0.840221
9464.000000;0.839713
9463.000000;0.838694
9462.000000;0.837592
9461.000000;0.836851
9460.000000;0.836577
9459.000000;0.836556
9458.000000;0.836512
9457.000000;0.836266
9456.000000;0.835793
9455.000000;0.835245
9454.000000;0.834854
9453.000000;0.834692
9452.000000;0.834591
9451.000000;0.834358
9450.000000;0.833988
9449.000000;0.833569
9448.000000;0.833080
9447.000000;0.832442
9446.000000;0.831709
9445.000000;0.831088
9444.000000;0.830758
9443.000000;0.830725
9442.000000;0.830825
9441.000000;0.830816
9440.000000;0.830544
9439.000000;0.830093
9438.000000;0.829735
9437.000000;0.829660
9436.000000;0.829795
9435.000000;0.829867
9434.000000;0.829604
9433.000000;0.828877
9432.000000;0.827784
9431.000000;0.826652
9430.000000;0.825842
9429.000000;0.825473
9428.000000;0.825364
9427.000000;0.825285
9426.000000;0.825146
9425.000000;0.824937
9424.000000;0.824627
9423.000000;0.824229
9422.000000;0.823851
9421.000000;0.823593
9420.000000;0.823457
9419.000000;0.823396
9418.000000;0.823343
9417.000000;0.823130
9416.000000;0.822537
9415.000000;0.821564
9414.000000;0.820548
9413.000000;0.819869
9412.000000;0.819598
9411.000000;0.819529
9410.000000;0.819491
9409.000000;0.819459
9408.000000;0.819401
9407.000000;0.819173
9406.000000;0.818641
9405.000000;0.817856
9404.000000;0.817060
9403.000000;0.816493
9402.000000;0.816211
9401.000000;0.816082
9400.000000;0.815958
9399.000000;0.815800
9398.000000;0.815617
9397.000000;0.815396
9396.000000;0.815167
9395.000000;0.815056
9394.000000;0.815118
9393.000000;0.815177
9392.000000;0.814988
9391.000000;0.814524
9390.000000;0.813928
9389.000000;0.813227
9388.000000;0.812340
9387.000000;0.811386
9386.000000;0.810714
9385.000000;0.810510
9384.000000;0.810586
9383.000000;0.810652
9382.000000;0.810623
9381.000000;0.810537
9380.000000;0.810362
9379.000000;0.810062
9378.000000;0.809706
9377.000000;0.809333
9376.000000;0.808812
9375.000000;0.807997
9374.000000;0.806992
9373.000000;0.806121
9372.000000;0.805650
9371.000000;0.805593
9370.000000;0.805731
9369.000000;0.805767
9368.000000;0.805549
9367.000000;0.805204
9366.000000;0.804979
9365.000000;0.804931
9364.000000;0.804865
9363.000000;0.804619
9362.000000;0.804263
9361.000000;0.803939
9360.000000;0.803641
9359.000000;0.803261
9358.000000;0.802762
9357.000000;0.802184
9356.000000;0.801569
9355.000000;0.800997
9354.000000;0.800622
9353.000000;0.800524
9352.000000;0.800541
9351.000000;0.800365
9350.000000;0.799829
9349.000000;0.799067
9348.000000;0.798387
9347.000000;0.797988
9346.000000;0.797793
9345.000000;0.797560
9344.000000;0.797194
9343.000000;0.796883
9342.000000;0.796848
9341.000000;0.796993
9340.000000;0.796960
9339.000000;0.796533
9338.000000;0.795847
9337.000000;0.795185
9336.000000;0.794694
9335.000000;0.794349
9334.000000;0.794046
9333.000000;0.793678
9332.000000;0.793224
9331.000000;0.792817
9330.000000;0.792627
9329.000000;0.792660
9328.000000;0.792765
9327.000000;0.792813
9326.000000;0.792739
9325.000000;0.792424
9324.000000;0.791759
9323.000000;0.790902
9322.000000;0.790273
9321.000000;0.790173
9320.000000;0.790505
9319.000000;0.790884
9318.000000;0.790942
9317.000000;0.790523
9316.000000;0.789781
9315.000000;0.789117
9314.000000;0.788815
9313.000000;0.788698
9312.000000;0.788341
9311.000000;0.787665
9310.000000;0.787073
9309.000000;0.786899
9308.000000;0.787005
9307.000000;0.787071
9306.000000;0.787029
9305.000000;0.786959
9304.000000;0.786786
9303.000000;0.786374
9302.000000;0.785826
9301.000000;0.785424
9300.000000;0.785291
9299.000000;0.785290
9298.000000;0.785221
9297.000000;0.784966
9296.000000;0.784502
9295.000000;0.783940
9294.000000;0.783471
9293.000000;0.783136
9292.000000;0.782728
9291.000000;0.782097
9290.000000;0.781458
9289.000000;0.781192
9288.000000;0.781355
9287.000000;0.781605
9286.000000;0.781615
9285.000000;0.781350
9284.000000;0.780903
9283.000000;0.780281
9282.000000;0.779496
9281.000000;0.778721
9280.000000;0.778202
9279.000000;0.778036
9278.000000;0.778098
9277.000000;0.778158
9276.000000;0.778027
9275.000000;0.777644
9274.000000;0.777084
9273.000000;0.776508
9272.000000;0.776043
9271.000000;0.775700
9270.000000;0.775403
9269.000000;0.775090
9268.000000;0.774767
9267.000000;0.774467
9266.000000;0.774181
9265.000000;0.773863
9264.000000;0.773482
9263.000000;0.773034
9262.000000;0.772523
9261.000000;0.771977
9260.000000;0.771519
9259.000000;0.771344
9258.000000;0.771532
9257.000000;0.771906
9256.000000;0.772138
9255.000000;0.772011
9254.000000;0.771564
9253.000000;0.771017
9252.000000;0.770578
9251.000000;0.770303
9250.000000;0.770073
9249.000000;0.769758
9248.000000;0.769371
9247.000000;0.769010
9246.000000;0.768651
9245.000000;0.768162
9244.000000;0.767576
9243.000000;0.767189
9242.000000;0.767229
9241.000000;0.767557
9240.000000;0.767842
9239.000000;0.767915
9238.000000;0.767779
9237.000000;0.767428
9236.000000;0.766890
9235.000000;0.766394
9234.000000;0.766200
9233.000000;0.766268
9232.000000;0.766292
9231.000000;0.766084
9230.000000;0.765706
9229.000000;0.765259
9228.000000;0.764764
9227.000000;0.764297
9226.000000;0.763979
9225.000000;0.763770
9224.000000;0.763470
9223.000000;0.763003
9222.000000;0.762528
9221.000000;0.762198
9220.000000;0.761980
9219.000000;0.761774
9218.000000;0.761525
9217.000000;0.761179
9216.000000;0.760700
9215.000000;0.760218
9214.000000;0.759972
9213.000000;0.760004
9212.000000;0.760052
9211.000000;0.759849
9210.000000;0.759395
9209.000000;0.758866
9208.000000;0.758421
9207.000000;0.758177
9206.000000;0.758196
9205.000000;0.758358
9204.000000;0.758356
9203.000000;0.757970
9202.000000;0.757293
9201.000000;0.756633
9200.000000;0.756240
9199.000000;0.756150
9198.000000;0.756208
9197.000000;0.756185
9196.000000;0.755987
9195.000000;0.755746
9194.000000;0.755665
9193.000000;0.755779
9192.000000;0.755974
9191.000000;0.756162
9190.000000;0.756255
9189.000000;0.756047
9188.000000;0.755398
9187.000000;0.754546
9186.000000;0.753977
9185.000000;0.753879
9184.000000;0.753939
9183.000000;0.753756
9182.000000;0.753251
9181.000000;0.752583
9180.000000;0.751899
9179.000000;0.751335
9178.000000;0.751067
9177.000000;0.751158
9176.000000;0.751439
9175.000000;0.751646
9174.000000;0.751603
9173.000000;0.751220
9172.000000;0.750504
9171.000000;0.749675
9170.000000;0.749109
9169.000000;0.748999
9168.000000;0.749169
9167.000000;0.749298
9166.000000;0.749222
9165.000000;0.748936
9164.000000;0.748456
9163.000000;0.747840
9162.000000;0.747234
9161.000000;0.746783
9160.000000;0.746533
9159.000000;0.746472
9158.000000;0.746554
9157.000000;0.746634
9156.000000;0.746522
9155.000000;0.746190
9154.000000;0.745790
9153.000000;0.745416
9152.000000;0.744980
9151.000000;0.744422
9150.000000;0.743888
9149.000000;0.743589
9148.000000;0.743592
9147.000000;0.743810
9146.000000;0.744076
9145.000000;0.744156
9144.000000;0.743865
9143.000000;0.743257
9142.000000;0.742604
9141.000000;0.742109
9140.000000;0.741784
9139.000000;0.741622
9138.000000;0.741660
9137.000000;0.741761
9136.000000;0.741608
9135.000000;0.741093
9134.000000;0.740539
9133.000000;0.740324
9132.000000;0.740449
9131.000000;0.740625
9130.000000;0.740654
9129.000000;0.740518
9128.000000;0.740226
9127.000000;0.739812
9126.000000;0.739430
9125.000000;0.739219
9124.000000;0.739094
9123.000000;0.738834
9122.000000;0.738365
9121.000000;0.737829
9120.000000;0.737408
9119.000000;0.737194
9118.000000;0.737182
9117.000000;0.737274
9116.000000;0.737286
9115.000000;0.737081
9114.000000;0.736684
9113.000000;0.736228
9112.000000;0.735836
9111.000000;0.735599
9110.000000;0.735561
9109.000000;0.735634
9108.000000;0.735594
9107.000000;0.735277
9106.000000;0.734742
9105.000000;0.734187
9104.000000;0.733773
9103.000000;0.733578
9102.000000;0.733604
9101.000000;0.733742
9100.000000;0.733804
9099.000000;0.733722
9098.000000;0.733617
9097.000000;0.733601
9096.000000;0.733567
9095.000000;0.733310
9094.000000;0.732818
9093.000000;0.732314
9092.000000;0.732023
9091.000000;0.731978
9090.000000;0.732012
9089.000000;0.731890
9088.000000;0.731504
9087.000000;0.730984
9086.000000;0.730591
9085.000000;0.730439
9084.000000;0.730402
9083.000000;0.730304
9082.000000;0.730102
9081.000000;0.729822
9080.000000;0.729450
9079.000000;0.728998
9078.000000;0.728614
9077.000000;0.728469
9076.000000;0.728553
9075.000000;0.728666
9074.000000;0.728612
9073.000000;0.728353
9072.000000;0.728004
9071.000000;0.727701
9070.000000;0.727475
9069.000000;0.727244
9068.000000;0.726933
9067.000000;0.726566
9066.000000;0.726197
9065.000000;0.725826
9064.000000;0.725484
9063.000000;0.725355
9062.000000;0.725598
9061.000000;0.726036
9060.000000;0.726208
9059.000000;0.725855
9058.000000;0.725197
9057.000000;0.724649
9056.000000;0.724384
9055.000000;0.724259
9054.000000;0.724072
9053.000000;0.723760
