Criado como novo conjunto de dados;"e2410_daniel_v2.spp","2701.9 Secs"
cm-1;Abs
10000.000000;0.138011
9999.000000;0.152756
9998.000000;0.146173
9997.000000;0.119377
9996.000000;0.098516
9995.000000;0.100734
9994.000000;0.119328
9993.000000;0.129383
9992.000000;0.117715
9991.000000;0.101867
9990.000000;0.101786
9989.000000;0.118773
9988.000000;0.138616
9987.000000;0.144901
9986.000000;0.133622
9985.000000;0.112620
9984.000000;0.092799
9983.000000;0.083588
9982.000000;0.089206
9981.000000;0.105524
9980.000000;0.123023
9979.000000;0.136743
9978.000000;0.147665
9977.000000;0.148316
9976.000000;0.123670
9975.000000;0.081186
9974.000000;0.050167
9973.000000;0.051816
9972.000000;0.089776
9971.000000;0.146393
9970.000000;0.179014
9969.000000;0.162034
9968.000000;0.121855
9967.000000;0.085802
9966.000000;0.061772
9965.000000;0.053108
9964.000000;0.063856
9963.000000;0.094709
9962.000000;0.137040
9961.000000;0.169577
9960.000000;0.167220
9959.000000;0.127192
9958.000000;0.074659
9957.000000;0.037546
9956.000000;0.032556
9955.000000;0.064614
9954.000000;0.122066
9953.000000;0.165967
9952.000000;0.159355
9951.000000;0.124045
9950.000000;0.093340
9949.000000;0.072455
9948.000000;0.057611
9947.000000;0.053463
9946.000000;0.069416
9945.000000;0.106185
9944.000000;0.144772
9943.000000;0.152473
9942.000000;0.123234
9941.000000;0.084267
9940.000000;0.057681
9939.000000;0.051998
9938.000000;0.067836
9937.000000;0.096563
9936.000000;0.117644
9935.000000;0.115372
9934.000000;0.101091
9933.000000;0.094034
9932.000000;0.095073
9931.000000;0.090306
9930.000000;0.075701
9929.000000;0.066341
9928.000000;0.075068
9927.000000;0.095768
9926.000000;0.106732
9925.000000;0.097763
9924.000000;0.084936
9923.000000;0.084097
9922.000000;0.092943
9921.000000;0.097391
9920.000000;0.089096
9919.000000;0.073904
9918.000000;0.062438
9917.000000;0.062402
9916.000000;0.077231
9915.000000;0.102001
9914.000000;0.118237
9913.000000;0.108203
9912.000000;0.081957
9911.000000;0.063022
9910.000000;0.059541
9909.000000;0.062833
9908.000000;0.063774
9907.000000;0.068145
9906.000000;0.087324
9905.000000;0.116200
9904.000000;0.124788
9903.000000;0.095173
9902.000000;0.054315
9901.000000;0.031835
9900.000000;0.035477
9899.000000;0.058826
9898.000000;0.088770
9897.000000;0.109837
9896.000000;0.110285
9895.000000;0.091775
9894.000000;0.068742
9893.000000;0.053641
9892.000000;0.048221
9891.000000;0.048136
9890.000000;0.053423
9889.000000;0.070073
9888.000000;0.097122
9887.000000;0.112934
9886.000000;0.094358
9885.000000;0.057661
9884.000000;0.035750
9883.000000;0.040752
9882.000000;0.062226
9881.000000;0.077615
9880.000000;0.076158
9879.000000;0.068898
9878.000000;0.067120
9877.000000;0.069703
9876.000000;0.070659
9875.000000;0.068173
9874.000000;0.063707
9873.000000;0.058485
9872.000000;0.054880
9871.000000;0.055923
9870.000000;0.060027
9869.000000;0.060893
9868.000000;0.058081
9867.000000;0.061547
9866.000000;0.077769
9865.000000;0.093068
9864.000000;0.080932
9863.000000;0.044085
9862.000000;0.014690
9861.000000;0.013531
9860.000000;0.040377
9859.000000;0.078131
9858.000000;0.102349
9857.000000;0.101725
9856.000000;0.082299
9855.000000;0.052771
9854.000000;0.022608
9853.000000;0.003535
9852.000000;0.004488
9851.000000;0.028434
9850.000000;0.071772
9849.000000;0.119390
9848.000000;0.136054
9847.000000;0.095426
9846.000000;0.028501
9845.000000;-0.020672
9844.000000;-0.032374
9843.000000;-0.003973
9842.000000;0.054096
9841.000000;0.112717
9840.000000;0.134195
9839.000000;0.111512
9838.000000;0.065133
9837.000000;0.014042
9836.000000;-0.024584
9835.000000;-0.035942
9834.000000;-0.011061
9833.000000;0.049790
9832.000000;0.126241
9831.000000;0.158043
9830.000000;0.108998
9829.000000;0.032345
9828.000000;-0.023765
9827.000000;-0.044815
9826.000000;-0.028379
9825.000000;0.020424
9824.000000;0.082986
9823.000000;0.123466
9822.000000;0.117818
9821.000000;0.078715
9820.000000;0.027730
9819.000000;-0.017686
9818.000000;-0.040872
9817.000000;-0.029202
9816.000000;0.021075
9815.000000;0.093925
9814.000000;0.134764
9813.000000;0.102850
9812.000000;0.042684
9811.000000;-0.002290
9810.000000;-0.022351
9809.000000;-0.018693
9808.000000;0.005322
9807.000000;0.041818
9806.000000;0.074607
9805.000000;0.086435
9804.000000;0.073633
9803.000000;0.044550
9802.000000;0.010312
9801.000000;-0.015439
9800.000000;-0.019017
9799.000000;0.005889
9798.000000;0.049145
9797.000000;0.077614
9796.000000;0.066163
9795.000000;0.036911
9794.000000;0.018665
9793.000000;0.014717
9792.000000;0.014119
9791.000000;0.011276
9790.000000;0.012247
9789.000000;0.022678
9788.000000;0.038002
9787.000000;0.047068
9786.000000;0.043673
9785.000000;0.031062
9784.000000;0.016547
9783.000000;0.007727
9782.000000;0.009867
9781.000000;0.020683
9780.000000;0.028527
9779.000000;0.024631
9778.000000;0.017398
9777.000000;0.021213
9776.000000;0.035668
9775.000000;0.041437
9774.000000;0.025050
9773.000000;0.002162
9772.000000;-0.005430
9771.000000;0.006253
9770.000000;0.023668
9769.000000;0.030503
9768.000000;0.026330
9767.000000;0.021472
9766.000000;0.019840
9765.000000;0.017879
9764.000000;0.013358
9763.000000;0.008272
9762.000000;0.005214
9761.000000;0.006381
9760.000000;0.013972
9759.000000;0.025634
9758.000000;0.030056
9757.000000;0.017961
9756.000000;-0.000622
9755.000000;-0.006321
9754.000000;0.007710
9753.000000;0.027330
9752.000000;0.028571
9751.000000;0.010196
9750.000000;-0.005582
9749.000000;-0.005526
9748.000000;0.004902
9747.000000;0.013164
9746.000000;0.015722
9745.000000;0.018196
9744.000000;0.021460
9743.000000;0.018325
9742.000000;0.005028
9741.000000;-0.011890
9740.000000;-0.022674
9739.000000;-0.020378
9738.000000;-0.001231
9737.000000;0.031622
9736.000000;0.057585
9735.000000;0.045886
9734.000000;0.001670
9733.000000;-0.038033
9732.000000;-0.050972
9731.000000;-0.036337
9730.000000;-0.006218
9729.000000;0.024395
9728.000000;0.047406
9727.000000;0.056205
9726.000000;0.037447
9725.000000;-0.007432
9724.000000;-0.052449
9723.000000;-0.073682
9722.000000;-0.061220
9721.000000;-0.015723
9720.000000;0.049480
9719.000000;0.095161
9718.000000;0.074409
9717.000000;0.007031
9716.000000;-0.054257
9715.000000;-0.084632
9714.000000;-0.079830
9713.000000;-0.044890
9712.000000;0.008421
9711.000000;0.061798
9710.000000;0.088867
9709.000000;0.063732
9708.000000;-0.002867
9707.000000;-0.068889
9706.000000;-0.104412
9705.000000;-0.097569
9704.000000;-0.046948
9703.000000;0.035742
9702.000000;0.103345
9701.000000;0.091190
9700.000000;0.021161
9699.000000;-0.046170
9698.000000;-0.087447
9697.000000;-0.097213
9696.000000;-0.075212
9695.000000;-0.025299
9694.000000;0.039145
9693.000000;0.085921
9692.000000;0.074960
9691.000000;0.011980
9690.000000;-0.057590
9689.000000;-0.101287
9688.000000;-0.105634
9687.000000;-0.067663
9686.000000;0.002891
9685.000000;0.067392
9684.000000;0.071591
9683.000000;0.025608
9682.000000;-0.024807
9681.000000;-0.061613
9680.000000;-0.080937
9679.000000;-0.078640
9678.000000;-0.051227
9677.000000;-0.003164
9676.000000;0.043506
9675.000000;0.053081
9674.000000;0.017359
9673.000000;-0.033347
9672.000000;-0.071072
9671.000000;-0.082638
9670.000000;-0.064725
9669.000000;-0.025070
9668.000000;0.012166
9667.000000;0.020359
9666.000000;0.004203
9665.000000;-0.014236
9664.000000;-0.028952
9663.000000;-0.044972
9662.000000;-0.059239
9661.000000;-0.059632
9660.000000;-0.039436
9659.000000;-0.008273
9658.000000;0.009340
9657.000000;-0.000531
9656.000000;-0.023614
9655.000000;-0.041575
9654.000000;-0.048598
9653.000000;-0.046453
9652.000000;-0.039111
9651.000000;-0.031812
9650.000000;-0.028484
9649.000000;-0.026906
9648.000000;-0.021700
9647.000000;-0.015043
9646.000000;-0.018758
9645.000000;-0.036889
9644.000000;-0.054707
9643.000000;-0.056040
9642.000000;-0.040195
9641.000000;-0.023356
9640.000000;-0.021886
9639.000000;-0.030710
9638.000000;-0.034537
9637.000000;-0.031057
9636.000000;-0.030994
9635.000000;-0.040336
9634.000000;-0.050808
9633.000000;-0.051996
9632.000000;-0.042525
9631.000000;-0.029204
9630.000000;-0.021379
9629.000000;-0.025416
9628.000000;-0.039894
9627.000000;-0.054498
9626.000000;-0.057293
9625.000000;-0.044963
9624.000000;-0.028556
9623.000000;-0.025715
9622.000000;-0.037825
9621.000000;-0.048584
9620.000000;-0.048519
9619.000000;-0.044604
9618.000000;-0.047126
9617.000000;-0.052224
9616.000000;-0.047399
9615.000000;-0.030918
9614.000000;-0.019185
9613.000000;-0.029698
9612.000000;-0.055485
9611.000000;-0.075827
9610.000000;-0.078841
9609.000000;-0.063405
9608.000000;-0.035620
9607.000000;-0.010089
9606.000000;-0.007105
9605.000000;-0.031249
9604.000000;-0.062839
9603.000000;-0.082488
9602.000000;-0.085414
9601.000000;-0.076358
9600.000000;-0.059122
9599.000000;-0.032394
9598.000000;-0.000782
9597.000000;0.009112
9596.000000;-0.025755
9595.000000;-0.080297
9594.000000;-0.116554
9593.000000;-0.118909
9592.000000;-0.088216
9591.000000;-0.036831
9590.000000;0.009836
9589.000000;0.020447
9588.000000;-0.012052
9587.000000;-0.062367
9586.000000;-0.103707
9585.000000;-0.122689
9584.000000;-0.115778
9583.000000;-0.084296
9582.000000;-0.033351
9581.000000;0.020806
9580.000000;0.036779
9579.000000;-0.012450
9578.000000;-0.085708
9577.000000;-0.136193
9576.000000;-0.146995
9575.000000;-0.117360
9574.000000;-0.057782
9573.000000;0.004220
9572.000000;0.028962
9571.000000;0.003416
9570.000000;-0.048434
9569.000000;-0.099911
9568.000000;-0.133535
9567.000000;-0.138968
9566.000000;-0.111939
9565.000000;-0.055952
9564.000000;0.009161
9563.000000;0.036148
9562.000000;-0.004350
9561.000000;-0.073450
9560.000000;-0.126119
9559.000000;-0.144951
9558.000000;-0.127429
9557.000000;-0.081407
9556.000000;-0.028720
9555.000000;-0.000066
9554.000000;-0.006942
9553.000000;-0.036921
9552.000000;-0.076737
9551.000000;-0.113576
9550.000000;-0.132343
9549.000000;-0.122104
9548.000000;-0.082197
9547.000000;-0.029413
9546.000000;-0.001171
9545.000000;-0.019819
9544.000000;-0.061625
9543.000000;-0.097038
9542.000000;-0.114019
9541.000000;-0.110665
9540.000000;-0.091425
9539.000000;-0.067235
9538.000000;-0.050662
9537.000000;-0.045357
9536.000000;-0.047652
9535.000000;-0.058324
9534.000000;-0.079472
9533.000000;-0.101959
9532.000000;-0.110019
9531.000000;-0.096180
9530.000000;-0.069442
9529.000000;-0.052400
9528.000000;-0.057238
9527.000000;-0.070383
9526.000000;-0.076485
9525.000000;-0.076310
9524.000000;-0.078921
9523.000000;-0.086833
9522.000000;-0.093577
9521.000000;-0.093193
9520.000000;-0.085009
9519.000000;-0.072185
9518.000000;-0.061080
9517.000000;-0.060331
9516.000000;-0.072573
9515.000000;-0.088180
9514.000000;-0.095203
9513.000000;-0.092028
9512.000000;-0.087785
9511.000000;-0.089086
9510.000000;-0.089152
9509.000000;-0.078192
9508.000000;-0.060800
9507.000000;-0.057308
9506.000000;-0.077030
9505.000000;-0.101936
9504.000000;-0.112169
9503.000000;-0.104220
9502.000000;-0.087506
9501.000000;-0.074365
9500.000000;-0.070283
9499.000000;-0.073740
9498.000000;-0.081449
9497.000000;-0.089600
9496.000000;-0.094820
9495.000000;-0.096998
9494.000000;-0.098110
9493.000000;-0.096836
9492.000000;-0.088855
9491.000000;-0.075832
9490.000000;-0.070769
9489.000000;-0.083513
9488.000000;-0.102644
9487.000000;-0.108804
9486.000000;-0.096423
9485.000000;-0.079015
9484.000000;-0.076645
9483.000000;-0.090288
9482.000000;-0.103060
9481.000000;-0.104651
9480.000000;-0.098053
9479.000000;-0.090723
9478.000000;-0.085830
9477.000000;-0.083086
9476.000000;-0.083845
9475.000000;-0.089786
9474.000000;-0.099257
9473.000000;-0.108785
9472.000000;-0.115381
9471.000000;-0.114561
9470.000000;-0.100613
9469.000000;-0.074278
9468.000000;-0.053759
9467.000000;-0.064974
9466.000000;-0.102240
9465.000000;-0.134032
9464.000000;-0.141694
9463.000000;-0.126018
9462.000000;-0.099434
9461.000000;-0.075790
9460.000000;-0.061649
9459.000000;-0.060792
9458.000000;-0.078726
9457.000000;-0.111203
9456.000000;-0.141178
9455.000000;-0.153248
9454.000000;-0.141023
9453.000000;-0.106403
9452.000000;-0.061056
9451.000000;-0.032741
9450.000000;-0.050028
9449.000000;-0.100054
9448.000000;-0.145122
9447.000000;-0.163641
9446.000000;-0.152612
9445.000000;-0.120957
9444.000000;-0.084690
9443.000000;-0.058183
9442.000000;-0.049609
9441.000000;-0.066023
9440.000000;-0.105418
9439.000000;-0.147489
9438.000000;-0.169683
9437.000000;-0.160910
9436.000000;-0.122640
9435.000000;-0.071166
9434.000000;-0.039613
9433.000000;-0.052314
9432.000000;-0.093789
9431.000000;-0.134183
9430.000000;-0.156590
9429.000000;-0.156052
9428.000000;-0.136118
9427.000000;-0.107173
9426.000000;-0.081713
9425.000000;-0.067847
9424.000000;-0.070992
9423.000000;-0.094755
9422.000000;-0.129969
9421.000000;-0.156138
9420.000000;-0.157554
9419.000000;-0.132228
9418.000000;-0.095350
9417.000000;-0.074835
9416.000000;-0.082714
9415.000000;-0.102422
9414.000000;-0.117886
9413.000000;-0.126842
9412.000000;-0.131466
9411.000000;-0.131421
9410.000000;-0.125738
9409.000000;-0.116318
9408.000000;-0.106744
9407.000000;-0.100228
9406.000000;-0.100445
9405.000000;-0.109835
9404.000000;-0.123388
9403.000000;-0.130397
9402.000000;-0.125599
9401.000000;-0.116502
9400.000000;-0.116609
9399.000000;-0.126104
9398.000000;-0.129953
9397.000000;-0.118249
9396.000000;-0.099332
9395.000000;-0.094066
9394.000000;-0.109753
9393.000000;-0.130764
9392.000000;-0.142268
9391.000000;-0.142241
9390.000000;-0.134946
9389.000000;-0.123601
9388.000000;-0.110158
9387.000000;-0.099336
9386.000000;-0.097464
9385.000000;-0.106656
9384.000000;-0.123772
9383.000000;-0.143400
9382.000000;-0.157597
9381.000000;-0.156388
9380.000000;-0.133826
9379.000000;-0.097379
9378.000000;-0.074965
9377.000000;-0.089630
9376.000000;-0.123894
9375.000000;-0.149042
9374.000000;-0.156796
9373.000000;-0.152988
9372.000000;-0.143689
9371.000000;-0.128324
9370.000000;-0.106533
9369.000000;-0.089151
9368.000000;-0.093178
9367.000000;-0.118843
9366.000000;-0.147956
9365.000000;-0.165023
9364.000000;-0.163977
9363.000000;-0.145065
9362.000000;-0.115540
9361.000000;-0.093366
9360.000000;-0.096777
9359.000000;-0.119949
9358.000000;-0.140901
9357.000000;-0.148406
9356.000000;-0.146890
9355.000000;-0.145008
9354.000000;-0.142442
9353.000000;-0.132026
9352.000000;-0.114564
9351.000000;-0.105337
9350.000000;-0.116695
9349.000000;-0.138047
9348.000000;-0.150791
9347.000000;-0.148770
9346.000000;-0.138585
9345.000000;-0.130587
9344.000000;-0.129407
9343.000000;-0.132667
9342.000000;-0.135745
9341.000000;-0.134754
9340.000000;-0.129100
9339.000000;-0.124578
9338.000000;-0.129645
9337.000000;-0.143162
9336.000000;-0.153069
9335.000000;-0.150538
9334.000000;-0.139437
9333.000000;-0.131800
9332.000000;-0.131947
9331.000000;-0.131334
9330.000000;-0.124618
9329.000000;-0.121366
9328.000000;-0.133941
9327.000000;-0.156198
9326.000000;-0.169834
9325.000000;-0.164461
9324.000000;-0.142957
9323.000000;-0.118250
9322.000000;-0.105980
9321.000000;-0.113672
9320.000000;-0.135422
9319.000000;-0.157813
9318.000000;-0.169621
9317.000000;-0.167273
9316.000000;-0.155087
9315.000000;-0.140091
9314.000000;-0.125413
9313.000000;-0.112469
9312.000000;-0.110443
9311.000000;-0.130033
9310.000000;-0.162273
9309.000000;-0.184250
9308.000000;-0.181536
9307.000000;-0.155693
9306.000000;-0.123997
9305.000000;-0.109441
9304.000000;-0.117543
9303.000000;-0.135342
9302.000000;-0.152279
9301.000000;-0.164632
9300.000000;-0.169670
9299.000000;-0.165187
9298.000000;-0.152532
9297.000000;-0.137014
9296.000000;-0.125143
9295.000000;-0.123055
9294.000000;-0.134660
9293.000000;-0.155503
9292.000000;-0.171943
9291.000000;-0.171795
9290.000000;-0.154583
9289.000000;-0.135271
9288.000000;-0.132792
9287.000000;-0.145505
9286.000000;-0.155359
9285.000000;-0.153488
9284.000000;-0.146731
9283.000000;-0.145665
9282.000000;-0.150445
9281.000000;-0.153694
9280.000000;-0.153084
9279.000000;-0.152889
9278.000000;-0.155755
9277.000000;-0.158440
9276.000000;-0.156620
9275.000000;-0.149463
9274.000000;-0.139603
9273.000000;-0.133116
9272.000000;-0.138696
9271.000000;-0.158607
9270.000000;-0.180782
9269.000000;-0.188210
9268.000000;-0.172737
9267.000000;-0.141636
9266.000000;-0.117883
9265.000000;-0.120036
9264.000000;-0.139738
9263.000000;-0.160184
9262.000000;-0.176414
9261.000000;-0.188269
9260.000000;-0.190572
9259.000000;-0.175782
9258.000000;-0.143746
9257.000000;-0.110220
9256.000000;-0.102941
9255.000000;-0.130845
9254.000000;-0.172246
9253.000000;-0.203769
9252.000000;-0.213228
9251.000000;-0.196373
9250.000000;-0.157422
9249.000000;-0.115397
9248.000000;-0.100633
9247.000000;-0.120866
9246.000000;-0.153900
9245.000000;-0.182625
9244.000000;-0.202706
9243.000000;-0.210122
9242.000000;-0.197308
9241.000000;-0.160278
9240.000000;-0.111527
9239.000000;-0.089810
9238.000000;-0.119173
9237.000000;-0.168757
9236.000000;-0.204309
9235.000000;-0.215796
9234.000000;-0.204402
9233.000000;-0.175560
9232.000000;-0.139657
9231.000000;-0.115021
9230.000000;-0.117205
9229.000000;-0.141225
9228.000000;-0.170477
9227.000000;-0.194264
9226.000000;-0.207340
9225.000000;-0.204026
9224.000000;-0.179884
9223.000000;-0.140413
9222.000000;-0.111712
9221.000000;-0.121868
9220.000000;-0.157811
9219.000000;-0.187123
9218.000000;-0.197092
9217.000000;-0.192266
9216.000000;-0.181652
9215.000000;-0.169150
9214.000000;-0.154593
9213.000000;-0.142086
9212.000000;-0.140511
9211.000000;-0.152939
9210.000000;-0.171878
9209.000000;-0.187685
9208.000000;-0.194183
9207.000000;-0.188313
9206.000000;-0.171468
9205.000000;-0.153153
9204.000000;-0.147429
9203.000000;-0.156520
9202.000000;-0.167327
9201.000000;-0.170207
9200.000000;-0.169871
9199.000000;-0.176203
9198.000000;-0.187224
9197.000000;-0.190073
9196.000000;-0.177653
9195.000000;-0.157677
9194.000000;-0.147231
9193.000000;-0.153776
9192.000000;-0.167874
9191.000000;-0.179095
9190.000000;-0.185009
9189.000000;-0.186584
9188.000000;-0.183930
9187.000000;-0.177352
9186.000000;-0.168802
9185.000000;-0.160381
9184.000000;-0.154332
9183.000000;-0.155940
9182.000000;-0.170029
9181.000000;-0.190592
9180.000000;-0.202517
9179.000000;-0.195420
9178.000000;-0.172839
9177.000000;-0.153013
9176.000000;-0.152596
9175.000000;-0.165818
9174.000000;-0.177018
9173.000000;-0.181870
9172.000000;-0.185348
9171.000000;-0.189073
9170.000000;-0.187690
9169.000000;-0.177635
9168.000000;-0.164236
9167.000000;-0.158299
9166.000000;-0.165085
9165.000000;-0.179527
9164.000000;-0.192486
9163.000000;-0.196237
9162.000000;-0.187017
9161.000000;-0.169060
9160.000000;-0.157156
9159.000000;-0.164392
9158.000000;-0.183312
9157.000000;-0.195512
9156.000000;-0.193053
9155.000000;-0.182486
9154.000000;-0.174786
9153.000000;-0.171927
9152.000000;-0.168565
9151.000000;-0.165955
9150.000000;-0.173239
9149.000000;-0.191372
9148.000000;-0.207152
9147.000000;-0.207399
9146.000000;-0.189432
9145.000000;-0.162119
9144.000000;-0.143138
9143.000000;-0.148083
9142.000000;-0.174886
9141.000000;-0.205635
9140.000000;-0.222868
9139.000000;-0.218448
9138.000000;-0.194978
9137.000000;-0.165278
9136.000000;-0.145631
9135.000000;-0.143392
9134.000000;-0.157029
9133.000000;-0.183843
9132.000000;-0.215605
9131.000000;-0.236584
9130.000000;-0.232560
9129.000000;-0.199045
9128.000000;-0.147748
9127.000000;-0.113998
9126.000000;-0.128850
9125.000000;-0.174416
9124.000000;-0.216779
9123.000000;-0.240265
9122.000000;-0.240332
9121.000000;-0.217172
9120.000000;-0.176917
9119.000000;-0.136499
9118.000000;-0.120570
9117.000000;-0.140014
9116.000000;-0.181255
9115.000000;-0.223477
9114.000000;-0.250338
9113.000000;-0.250226
9112.000000;-0.217859
9111.000000;-0.160147
9110.000000;-0.111472
9109.000000;-0.117157
9108.000000;-0.164770
9107.000000;-0.210588
9106.000000;-0.237156
9105.000000;-0.243661
9104.000000;-0.231334
9103.000000;-0.200884
9102.000000;-0.158667
9101.000000;-0.126220
9100.000000;-0.130286
9099.000000;-0.168240
9098.000000;-0.212354
9097.000000;-0.242082
9096.000000;-0.248228
9095.000000;-0.227787
9094.000000;-0.185506
9093.000000;-0.142491
9092.000000;-0.132110
9091.000000;-0.158633
9090.000000;-0.192777
9089.000000;-0.215588
9088.000000;-0.226323
9087.000000;-0.227865
9086.000000;-0.218037
9085.000000;-0.193493
9084.000000;-0.161199
9083.000000;-0.144001
