Criado como novo conjunto de dados;"e2410_daniel_v2.spp","84426.5 Secs"
cm-1;Abs
10000.000000;1.168362
9999.000000;1.168452
9998.000000;1.167915
9997.000000;1.166777
9996.000000;1.165429
9995.000000;1.163998
9994.000000;1.162442
9993.000000;1.160836
9992.000000;1.159656
9991.000000;1.159312
9990.000000;1.159705
9989.000000;1.160325
9988.000000;1.160769
9987.000000;1.160956
9986.000000;1.160875
9985.000000;1.160401
9984.000000;1.159500
9983.000000;1.158470
9982.000000;1.157741
9981.000000;1.157399
9980.000000;1.157123
9979.000000;1.156726
9978.000000;1.156545
9977.000000;1.156997
9976.000000;1.157784
9975.000000;1.157927
9974.000000;1.156771
9973.000000;1.154705
9972.000000;1.152694
9971.000000;1.151362
9970.000000;1.150728
9969.000000;1.150561
9968.000000;1.150591
9967.000000;1.150496
9966.000000;1.150070
9965.000000;1.149461
9964.000000;1.149008
9963.000000;1.148767
9962.000000;1.148387
9961.000000;1.147506
9960.000000;1.146145
9959.000000;1.144703
9958.000000;1.143676
9957.000000;1.143316
9956.000000;1.143437
9955.000000;1.143566
9954.000000;1.143342
9953.000000;1.142720
9952.000000;1.141798
9951.000000;1.140709
9950.000000;1.139774
9949.000000;1.139402
9948.000000;1.139559
9947.000000;1.139579
9946.000000;1.138888
9945.000000;1.137762
9944.000000;1.136975
9943.000000;1.136801
9942.000000;1.136808
9941.000000;1.136604
9940.000000;1.136296
9939.000000;1.136130
9938.000000;1.136067
9937.000000;1.135910
9936.000000;1.135594
9935.000000;1.135159
9934.000000;1.134604
9933.000000;1.133853
9932.000000;1.132754
9931.000000;1.131185
9930.000000;1.129342
9929.000000;1.127884
9928.000000;1.127474
9927.000000;1.128067
9926.000000;1.128814
9925.000000;1.128801
9924.000000;1.127839
9923.000000;1.126562
9922.000000;1.125873
9921.000000;1.126184
9920.000000;1.127027
9919.000000;1.127440
9918.000000;1.126918
9917.000000;1.125860
9916.000000;1.124894
9915.000000;1.124035
9914.000000;1.122921
9913.000000;1.121652
9912.000000;1.120810
9911.000000;1.120577
9910.000000;1.120362
9909.000000;1.119539
9908.000000;1.118236
9907.000000;1.117160
9906.000000;1.116865
9905.000000;1.117354
9904.000000;1.118163
9903.000000;1.118693
9902.000000;1.118620
9901.000000;1.118096
9900.000000;1.117468
9899.000000;1.116843
9898.000000;1.116066
9897.000000;1.115045
9896.000000;1.113861
9895.000000;1.112581
9894.000000;1.111265
9893.000000;1.110088
9892.000000;1.109213
9891.000000;1.108601
9890.000000;1.108241
9889.000000;1.108397
9888.000000;1.109175
9887.000000;1.109939
9886.000000;1.109751
9885.000000;1.108544
9884.000000;1.107331
9883.000000;1.107016
9882.000000;1.107428
9881.000000;1.107746
9880.000000;1.107425
9879.000000;1.106417
9878.000000;1.104926
9877.000000;1.103408
9876.000000;1.102497
9875.000000;1.102425
9874.000000;1.102663
9873.000000;1.102462
9872.000000;1.101681
9871.000000;1.100774
9870.000000;1.100144
9869.000000;1.099878
9868.000000;1.099975
9867.000000;1.100364
9866.000000;1.100685
9865.000000;1.100434
9864.000000;1.099483
9863.000000;1.098215
9862.000000;1.097086
9861.000000;1.096251
9860.000000;1.095624
9859.000000;1.095061
9858.000000;1.094365
9857.000000;1.093360
9856.000000;1.092175
9855.000000;1.091353
9854.000000;1.091401
9853.000000;1.092163
9852.000000;1.092806
9851.000000;1.092560
9850.000000;1.091455
9849.000000;1.090180
9848.000000;1.089252
9847.000000;1.088534
9846.000000;1.087625
9845.000000;1.086514
9844.000000;1.085610
9843.000000;1.085200
9842.000000;1.085142
9841.000000;1.085139
9840.000000;1.085104
9839.000000;1.085102
9838.000000;1.085070
9837.000000;1.084743
9836.000000;1.083930
9835.000000;1.082814
9834.000000;1.081876
9833.000000;1.081464
9832.000000;1.081439
9831.000000;1.081334
9830.000000;1.080881
9829.000000;1.080218
9828.000000;1.079560
9827.000000;1.078908
9826.000000;1.078227
9825.000000;1.077673
9824.000000;1.077371
9823.000000;1.077106
9822.000000;1.076538
9821.000000;1.075655
9820.000000;1.074724
9819.000000;1.073842
9818.000000;1.072894
9817.000000;1.071967
9816.000000;1.071401
9815.000000;1.071304
9814.000000;1.071289
9813.000000;1.070924
9812.000000;1.070289
9811.000000;1.069875
9810.000000;1.069979
9809.000000;1.070325
9808.000000;1.070290
9807.000000;1.069506
9806.000000;1.068253
9805.000000;1.067219
9804.000000;1.066818
9803.000000;1.066821
9802.000000;1.066734
9801.000000;1.066383
9800.000000;1.065943
9799.000000;1.065551
9798.000000;1.065188
9797.000000;1.064863
9796.000000;1.064589
9795.000000;1.064195
9794.000000;1.063452
9793.000000;1.062427
9792.000000;1.061411
9791.000000;1.060503
9790.000000;1.059566
9789.000000;1.058624
9788.000000;1.057967
9787.000000;1.057724
9786.000000;1.057645
9785.000000;1.057467
9784.000000;1.057201
9783.000000;1.056893
9782.000000;1.056394
9781.000000;1.055637
9780.000000;1.054915
9779.000000;1.054609
9778.000000;1.054718
9777.000000;1.054884
9776.000000;1.054798
9775.000000;1.054431
9774.000000;1.053902
9773.000000;1.053262
9772.000000;1.052430
9771.000000;1.051312
9770.000000;1.050040
9769.000000;1.049068
9768.000000;1.048807
9767.000000;1.049129
9766.000000;1.049424
9765.000000;1.049259
9764.000000;1.048769
9763.000000;1.048286
9762.000000;1.047814
9761.000000;1.047102
9760.000000;1.046080
9759.000000;1.044974
9758.000000;1.044048
9757.000000;1.043383
9756.000000;1.042885
9755.000000;1.042367
9754.000000;1.041686
9753.000000;1.040916
9752.000000;1.040330
9751.000000;1.040120
9750.000000;1.040194
9749.000000;1.040326
9748.000000;1.040366
9747.000000;1.040227
9746.000000;1.039817
9745.000000;1.039137
9744.000000;1.038354
9743.000000;1.037603
9742.000000;1.036829
9741.000000;1.035995
9740.000000;1.035331
9739.000000;1.035126
9738.000000;1.035278
9737.000000;1.035299
9736.000000;1.034844
9735.000000;1.034077
9734.000000;1.033395
9733.000000;1.032913
9732.000000;1.032380
9731.000000;1.031565
9730.000000;1.030590
9729.000000;1.029836
9728.000000;1.029544
9727.000000;1.029573
9726.000000;1.029540
9725.000000;1.029187
9724.000000;1.028617
9723.000000;1.028152
9722.000000;1.027978
9721.000000;1.027932
9720.000000;1.027666
9719.000000;1.027027
9718.000000;1.026208
9717.000000;1.025463
9716.000000;1.024777
9715.000000;1.023948
9714.000000;1.022992
9713.000000;1.022232
9712.000000;1.021843
9711.000000;1.021518
9710.000000;1.020805
9709.000000;1.019710
9708.000000;1.018742
9707.000000;1.018328
9706.000000;1.018393
9705.000000;1.018542
9704.000000;1.018482
9703.000000;1.018203
9702.000000;1.017859
9701.000000;1.017589
9700.000000;1.017376
9699.000000;1.017052
9698.000000;1.016486
9697.000000;1.015765
9696.000000;1.015100
9695.000000;1.014573
9694.000000;1.014106
9693.000000;1.013669
9692.000000;1.013320
9691.000000;1.012992
9690.000000;1.012440
9689.000000;1.011559
9688.000000;1.010613
9687.000000;1.009982
9686.000000;1.009765
9685.000000;1.009768
9684.000000;1.009797
9683.000000;1.009744
9682.000000;1.009454
9681.000000;1.008747
9680.000000;1.007698
9679.000000;1.006704
9678.000000;1.006107
9677.000000;1.005794
9676.000000;1.005330
9675.000000;1.004501
9674.000000;1.003592
9673.000000;1.003080
9672.000000;1.003147
9671.000000;1.003558
9670.000000;1.003879
9669.000000;1.003733
9668.000000;1.002949
9667.000000;1.001667
9666.000000;1.000308
9665.000000;0.999269
9664.000000;0.998606
9663.000000;0.998119
9662.000000;0.997731
9661.000000;0.997614
9660.000000;0.997869
9659.000000;0.998229
9658.000000;0.998239
9657.000000;0.997675
9656.000000;0.996707
9655.000000;0.995686
9654.000000;0.994841
9653.000000;0.994149
9652.000000;0.993470
9651.000000;0.992817
9650.000000;0.992426
9649.000000;0.992409
9648.000000;0.992432
9647.000000;0.992006
9646.000000;0.991141
9645.000000;0.990422
9644.000000;0.990281
9643.000000;0.990476
9642.000000;0.990424
9641.000000;0.989864
9640.000000;0.988946
9639.000000;0.987913
9638.000000;0.987012
9637.000000;0.986544
9636.000000;0.986645
9635.000000;0.987001
9634.000000;0.987073
9633.000000;0.986617
9632.000000;0.985841
9631.000000;0.985110
9630.000000;0.984677
9629.000000;0.984597
9628.000000;0.984640
9627.000000;0.984361
9626.000000;0.983530
9625.000000;0.982442
9624.000000;0.981570
9623.000000;0.980983
9622.000000;0.980423
9621.000000;0.979839
9620.000000;0.979449
9619.000000;0.979236
9618.000000;0.978833
9617.000000;0.978045
9616.000000;0.977139
9615.000000;0.976391
9614.000000;0.975699
9613.000000;0.974903
9612.000000;0.974241
9611.000000;0.974106
9610.000000;0.974464
9609.000000;0.974795
9608.000000;0.974640
9607.000000;0.974041
9606.000000;0.973425
9605.000000;0.973139
9604.000000;0.973104
9603.000000;0.972900
9602.000000;0.972231
9601.000000;0.971292
9600.000000;0.970544
9599.000000;0.970141
9598.000000;0.969745
9597.000000;0.968997
9596.000000;0.967957
9595.000000;0.966987
9594.000000;0.966377
9593.000000;0.966210
9592.000000;0.966428
9591.000000;0.966817
9590.000000;0.967050
9589.000000;0.966919
9588.000000;0.966498
9587.000000;0.965950
9586.000000;0.965320
9585.000000;0.964652
9584.000000;0.964134
9583.000000;0.963900
9582.000000;0.963771
9581.000000;0.963465
9580.000000;0.962996
9579.000000;0.962620
9578.000000;0.962392
9577.000000;0.962068
9576.000000;0.961510
9575.000000;0.960916
9574.000000;0.960494
9573.000000;0.960133
9572.000000;0.959611
9571.000000;0.958965
9570.000000;0.958443
9569.000000;0.958175
9568.000000;0.958100
9567.000000;0.958162
9566.000000;0.958304
9565.000000;0.958272
9564.000000;0.957693
9563.000000;0.956493
9562.000000;0.955074
9561.000000;0.953943
9560.000000;0.953278
9559.000000;0.952943
9558.000000;0.952755
9557.000000;0.952582
9556.000000;0.952280
9555.000000;0.951754
9554.000000;0.951073
9553.000000;0.950367
9552.000000;0.949636
9551.000000;0.948817
9550.000000;0.947987
9549.000000;0.947331
9548.000000;0.946909
9547.000000;0.946629
9546.000000;0.946459
9545.000000;0.946451
9544.000000;0.946527
9543.000000;0.946461
9542.000000;0.946152
9541.000000;0.945722
9540.000000;0.945270
9539.000000;0.944741
9538.000000;0.944173
9537.000000;0.943826
9536.000000;0.943878
9535.000000;0.944114
9534.000000;0.944147
9533.000000;0.943824
9532.000000;0.943251
9531.000000;0.942539
9530.000000;0.941738
9529.000000;0.940960
9528.000000;0.940317
9527.000000;0.939743
9526.000000;0.939087
9525.000000;0.938395
9524.000000;0.937907
9523.000000;0.937730
9522.000000;0.937661
9521.000000;0.937392
9520.000000;0.936789
9519.000000;0.935995
9518.000000;0.935335
9517.000000;0.935101
9516.000000;0.935289
9515.000000;0.935551
9514.000000;0.935505
9513.000000;0.935110
9512.000000;0.934606
9511.000000;0.934136
9510.000000;0.933621
9509.000000;0.933006
9508.000000;0.932411
9507.000000;0.931948
9506.000000;0.931510
9505.000000;0.930898
9504.000000;0.930080
9503.000000;0.929253
9502.000000;0.928685
9501.000000;0.928530
9500.000000;0.928729
9499.000000;0.929002
9498.000000;0.928985
9497.000000;0.928490
9496.000000;0.927635
9495.000000;0.926699
9494.000000;0.925859
9493.000000;0.925116
9492.000000;0.924459
9491.000000;0.924001
9490.000000;0.923852
9489.000000;0.923879
9488.000000;0.923740
9487.000000;0.923246
9486.000000;0.922596
9485.000000;0.922107
9484.000000;0.921789
9483.000000;0.921414
9482.000000;0.920955
9481.000000;0.920671
9480.000000;0.920656
9479.000000;0.920597
9478.000000;0.920225
9477.000000;0.919806
9476.000000;0.919867
9475.000000;0.920483
9474.000000;0.921124
9473.000000;0.921186
9472.000000;0.920487
9471.000000;0.919265
9470.000000;0.917974
9469.000000;0.917098
9468.000000;0.916876
9467.000000;0.917021
9466.000000;0.916897
9465.000000;0.916136
9464.000000;0.914965
9463.000000;0.913849
9462.000000;0.913002
9461.000000;0.912416
9460.000000;0.912143
9459.000000;0.912251
9458.000000;0.912530
9457.000000;0.912565
9456.000000;0.912187
9455.000000;0.911638
9454.000000;0.911174
9453.000000;0.910700
9452.000000;0.910004
9451.000000;0.909198
9450.000000;0.908645
9449.000000;0.908418
9448.000000;0.908154
9447.000000;0.907547
9446.000000;0.906775
9445.000000;0.906258
9444.000000;0.906101
9443.000000;0.906025
9442.000000;0.905777
9441.000000;0.905386
9440.000000;0.904986
9439.000000;0.904612
9438.000000;0.904268
9437.000000;0.904033
9436.000000;0.903946
9435.000000;0.903875
9434.000000;0.903597
9433.000000;0.903013
9432.000000;0.902253
9431.000000;0.901609
9430.000000;0.901355
9429.000000;0.901514
9428.000000;0.901788
9427.000000;0.901823
9426.000000;0.901584
9425.000000;0.901306
9424.000000;0.901074
9423.000000;0.900641
9422.000000;0.899766
9421.000000;0.898575
9420.000000;0.897434
9419.000000;0.896579
9418.000000;0.895976
9417.000000;0.895460
9416.000000;0.894918
9415.000000;0.894420
9414.000000;0.894231
9413.000000;0.894550
9412.000000;0.895159
9411.000000;0.895494
9410.000000;0.895231
9409.000000;0.894627
9408.000000;0.894122
9407.000000;0.893785
9406.000000;0.893359
9405.000000;0.892732
9404.000000;0.892047
9403.000000;0.891414
9402.000000;0.890785
9401.000000;0.890134
9400.000000;0.889529
9399.000000;0.889000
9398.000000;0.888546
9397.000000;0.888298
9396.000000;0.888419
9395.000000;0.888787
9394.000000;0.888974
9393.000000;0.888667
9392.000000;0.887987
9391.000000;0.887286
9390.000000;0.886770
9389.000000;0.886437
9388.000000;0.886210
9387.000000;0.885986
9386.000000;0.885606
9385.000000;0.884956
9384.000000;0.884116
9383.000000;0.883333
9382.000000;0.882811
9381.000000;0.882561
9380.000000;0.882414
9379.000000;0.882175
9378.000000;0.881796
9377.000000;0.881434
9376.000000;0.881282
9375.000000;0.881330
9374.000000;0.881318
9373.000000;0.880996
9372.000000;0.880373
9371.000000;0.879688
9370.000000;0.879138
9369.000000;0.878712
9368.000000;0.878300
9367.000000;0.877901
9366.000000;0.877643
9365.000000;0.877623
9364.000000;0.877755
9363.000000;0.877840
9362.000000;0.877735
9361.000000;0.877412
9360.000000;0.876898
9359.000000;0.876260
9358.000000;0.875646
9357.000000;0.875235
9356.000000;0.875046
9355.000000;0.874859
9354.000000;0.874420
9353.000000;0.873740
9352.000000;0.873109
9351.000000;0.872782
9350.000000;0.872699
9349.000000;0.872547
9348.000000;0.872110
9347.000000;0.871500
9346.000000;0.871018
9345.000000;0.870815
9344.000000;0.870771
9343.000000;0.870677
9342.000000;0.870459
9341.000000;0.870160
9340.000000;0.869817
9339.000000;0.869435
9338.000000;0.869030
9337.000000;0.868590
9336.000000;0.868077
9335.000000;0.867554
9334.000000;0.867223
9333.000000;0.867187
9332.000000;0.867218
9331.000000;0.866950
9330.000000;0.866303
9329.000000;0.865542
9328.000000;0.864922
9327.000000;0.864468
9326.000000;0.864132
9325.000000;0.863941
9324.000000;0.863897
9323.000000;0.863878
9322.000000;0.863743
9321.000000;0.863413
9320.000000;0.862795
9319.000000;0.861843
9318.000000;0.860806
9317.000000;0.860199
9316.000000;0.860314
9315.000000;0.860832
9314.000000;0.861131
9313.000000;0.860930
9312.000000;0.860473
9311.000000;0.860135
9310.000000;0.860047
9309.000000;0.860104
9308.000000;0.860134
9307.000000;0.859989
9306.000000;0.859588
9305.000000;0.858994
9304.000000;0.858382
9303.000000;0.857879
9302.000000;0.857452
9301.000000;0.856990
9300.000000;0.856497
9299.000000;0.856141
9298.000000;0.856068
9297.000000;0.856176
9296.000000;0.856150
9295.000000;0.855771
9294.000000;0.855145
9293.000000;0.854592
9292.000000;0.854327
9291.000000;0.854311
9290.000000;0.854354
9289.000000;0.854272
9288.000000;0.853981
9287.000000;0.853570
9286.000000;0.853257
9285.000000;0.853134
9284.000000;0.852976
9283.000000;0.852448
9282.000000;0.851523
9281.000000;0.850581
9280.000000;0.850046
9279.000000;0.850020
9278.000000;0.850257
9277.000000;0.850386
9276.000000;0.850166
9275.000000;0.849650
9274.000000;0.849098
9273.000000;0.848637
9272.000000;0.848076
9271.000000;0.847218
9270.000000;0.846256
9269.000000;0.845614
9268.000000;0.845420
9267.000000;0.845433
9266.000000;0.845482
9265.000000;0.845633
9264.000000;0.845836
9263.000000;0.845769
9262.000000;0.845259
9261.000000;0.844565
9260.000000;0.844022
9259.000000;0.843611
9258.000000;0.843142
9257.000000;0.842653
9256.000000;0.842349
9255.000000;0.842259
9254.000000;0.842225
9253.000000;0.842142
9252.000000;0.842017
9251.000000;0.841847
9250.000000;0.841640
9249.000000;0.841475
9248.000000;0.841345
9247.000000;0.841034
9246.000000;0.840354
9245.000000;0.839443
9244.000000;0.838608
9243.000000;0.837940
9242.000000;0.837299
9241.000000;0.836654
9240.000000;0.836205
9239.000000;0.836095
9238.000000;0.836191
9237.000000;0.836241
9236.000000;0.836176
9235.000000;0.836164
9234.000000;0.836359
9233.000000;0.836615
9232.000000;0.836511
9231.000000;0.835779
9230.000000;0.834699
9229.000000;0.833883
9228.000000;0.833622
9227.000000;0.833623
9226.000000;0.833481
9225.000000;0.833209
9224.000000;0.833117
9223.000000;0.833332
9222.000000;0.833639
9221.000000;0.833739
9220.000000;0.833456
9219.000000;0.832792
9218.000000;0.831962
9217.000000;0.831339
9216.000000;0.831146
9215.000000;0.831212
9214.000000;0.831136
9213.000000;0.830703
9212.000000;0.830058
9211.000000;0.829524
9210.000000;0.829343
9209.000000;0.829473
9208.000000;0.829548
9207.000000;0.829161
9206.000000;0.828353
9205.000000;0.827681
9204.000000;0.827593
9203.000000;0.827862
9202.000000;0.827863
9201.000000;0.827345
9200.000000;0.826645
9199.000000;0.826170
9198.000000;0.825926
9197.000000;0.825643
9196.000000;0.825143
9195.000000;0.824496
9194.000000;0.823921
9193.000000;0.823584
9192.000000;0.823437
9191.000000;0.823260
9190.000000;0.822959
9189.000000;0.822708
9188.000000;0.822669
9187.000000;0.822664
9186.000000;0.822338
9185.000000;0.821664
9184.000000;0.821041
9183.000000;0.820848
9182.000000;0.821063
9181.000000;0.821375
9180.000000;0.821480
9179.000000;0.821195
9178.000000;0.820490
9177.000000;0.819567
9176.000000;0.818819
9175.000000;0.818549
9174.000000;0.818725
9173.000000;0.819055
9172.000000;0.819249
9171.000000;0.819192
9170.000000;0.818943
9169.000000;0.818671
9168.000000;0.818566
9167.000000;0.818719
9166.000000;0.818997
9165.000000;0.819041
9164.000000;0.818492
9163.000000;0.817347
9162.000000;0.816082
9161.000000;0.815290
9160.000000;0.815141
9159.000000;0.815261
9158.000000;0.815186
9157.000000;0.814821
9156.000000;0.814386
9155.000000;0.814065
9154.000000;0.813883
9153.000000;0.813819
9152.000000;0.813854
9151.000000;0.813888
9150.000000;0.813784
9149.000000;0.813522
9148.000000;0.813202
9147.000000;0.812899
9146.000000;0.812610
9145.000000;0.812348
9144.000000;0.812170
9143.000000;0.812074
9142.000000;0.811964
9141.000000;0.811749
9140.000000;0.811423
9139.000000;0.811026
9138.000000;0.810579
9137.000000;0.810081
9136.000000;0.809570
9135.000000;0.809163
9134.000000;0.808999
9133.000000;0.809086
9132.000000;0.809230
9131.000000;0.809186
9130.000000;0.808912
9129.000000;0.808589
9128.000000;0.808377
9127.000000;0.808257
9126.000000;0.808142
9125.000000;0.808017
9124.000000;0.807868
9123.000000;0.807622
9122.000000;0.807261
9121.000000;0.806922
9120.000000;0.806728
9119.000000;0.806612
9118.000000;0.806404
9117.000000;0.806013
9116.000000;0.805444
9115.000000;0.804711
9114.000000;0.803906
9113.000000;0.803227
9112.000000;0.802804
9111.000000;0.802518
9110.000000;0.802188
9109.000000;0.801871
9108.000000;0.801812
9107.000000;0.802073
9106.000000;0.802398
9105.000000;0.802475
9104.000000;0.802223
9103.000000;0.801789
9102.000000;0.801386
9101.000000;0.801176
9100.000000;0.801206
9099.000000;0.801365
9098.000000;0.801466
9097.000000;0.801403
9096.000000;0.801217
9095.000000;0.800983
9094.000000;0.800684
9093.000000;0.800258
9092.000000;0.799721
9091.000000;0.799208
9090.000000;0.798868
9089.000000;0.798733
9088.000000;0.798719
9087.000000;0.798741
9086.000000;0.798778
9085.000000;0.798794
9084.000000;0.798668
9083.000000;0.798287
9082.000000;0.797671
9081.000000;0.796933
9080.000000;0.796167
9079.000000;0.795496
9078.000000;0.795134
9077.000000;0.795217
9076.000000;0.795557
9075.000000;0.795757
9074.000000;0.795591
9073.000000;0.795133
9072.000000;0.794535
9071.000000;0.793918
9070.000000;0.793497
9069.000000;0.793512
9068.000000;0.793886
9067.000000;0.794188
9066.000000;0.794084
9065.000000;0.793659
9064.000000;0.793144
9063.000000;0.792572
9062.000000;0.791929
9061.000000;0.791411
9060.000000;0.791237
9059.000000;0.791322
9058.000000;0.791382
9057.000000;0.791291
9056.000000;0.791103
9055.000000;0.790819
9054.000000;0.790403
9053.000000;0.789968
