Criado como novo conjunto de dados;"e2410_daniel_v2.spp","20883.3 Secs"
cm-1;Abs
10000.000000;0.504707
9999.000000;0.504325
9998.000000;0.503945
9997.000000;0.503564
9996.000000;0.503184
9995.000000;0.502804
9994.000000;0.502425
9993.000000;0.502046
9992.000000;0.501667
9991.000000;0.501289
9990.000000;0.500834
9989.000000;0.500247
9988.000000;0.499657
9987.000000;0.499217
9986.000000;0.498849
9985.000000;0.498340
9984.000000;0.497656
9983.000000;0.496970
9982.000000;0.496407
9981.000000;0.495945
9980.000000;0.495543
9979.000000;0.495182
9978.000000;0.494762
9977.000000;0.494176
9976.000000;0.493487
9975.000000;0.492887
9974.000000;0.492458
9973.000000;0.492125
9972.000000;0.491836
9971.000000;0.491596
9970.000000;0.491333
9969.000000;0.490930
9968.000000;0.490398
9967.000000;0.489875
9966.000000;0.489405
9965.000000;0.488921
9964.000000;0.488423
9963.000000;0.487994
9962.000000;0.487609
9961.000000;0.487138
9960.000000;0.486567
9959.000000;0.486044
9958.000000;0.485610
9957.000000;0.485095
9956.000000;0.484361
9955.000000;0.483509
9954.000000;0.482766
9953.000000;0.482270
9952.000000;0.482013
9951.000000;0.481863
9950.000000;0.481605
9949.000000;0.481098
9948.000000;0.480439
9947.000000;0.479843
9946.000000;0.479340
9945.000000;0.478763
9944.000000;0.478061
9943.000000;0.477433
9942.000000;0.477058
9941.000000;0.476849
9940.000000;0.476585
9939.000000;0.476172
9938.000000;0.475655
9937.000000;0.475078
9936.000000;0.474448
9935.000000;0.473773
9934.000000;0.473079
9933.000000;0.472417
9932.000000;0.471892
9931.000000;0.471591
9930.000000;0.471453
9929.000000;0.471297
9928.000000;0.471014
9927.000000;0.470649
9926.000000;0.470266
9925.000000;0.469814
9924.000000;0.469193
9923.000000;0.468378
9922.000000;0.467461
9921.000000;0.466607
9920.000000;0.465978
9919.000000;0.465630
9918.000000;0.465458
9917.000000;0.465296
9916.000000;0.465031
9915.000000;0.464587
9914.000000;0.463874
9913.000000;0.462923
9912.000000;0.462009
9911.000000;0.461454
9910.000000;0.461285
9909.000000;0.461191
9908.000000;0.460851
9907.000000;0.460201
9906.000000;0.459389
9905.000000;0.458614
9904.000000;0.458068
9903.000000;0.457860
9902.000000;0.457924
9901.000000;0.458042
9900.000000;0.458000
9899.000000;0.457703
9898.000000;0.457168
9897.000000;0.456488
9896.000000;0.455800
9895.000000;0.455162
9894.000000;0.454486
9893.000000;0.453671
9892.000000;0.452781
9891.000000;0.452011
9890.000000;0.451486
9889.000000;0.451206
9888.000000;0.451126
9887.000000;0.451157
9886.000000;0.451105
9885.000000;0.450780
9884.000000;0.450157
9883.000000;0.449344
9882.000000;0.448416
9881.000000;0.447422
9880.000000;0.446533
9879.000000;0.445967
9878.000000;0.445749
9877.000000;0.445703
9876.000000;0.445692
9875.000000;0.445681
9874.000000;0.445547
9873.000000;0.445028
9872.000000;0.444007
9871.000000;0.442710
9870.000000;0.441524
9869.000000;0.440700
9868.000000;0.440266
9867.000000;0.440119
9866.000000;0.440091
9865.000000;0.439990
9864.000000;0.439686
9863.000000;0.439145
9862.000000;0.438400
9861.000000;0.437548
9860.000000;0.436766
9859.000000;0.436231
9858.000000;0.435980
9857.000000;0.435892
9856.000000;0.435797
9855.000000;0.435560
9854.000000;0.435089
9853.000000;0.434405
9852.000000;0.433703
9851.000000;0.433227
9850.000000;0.433035
9849.000000;0.432948
9848.000000;0.432743
9847.000000;0.432325
9846.000000;0.431727
9845.000000;0.431049
9844.000000;0.430428
9843.000000;0.429940
9842.000000;0.429520
9841.000000;0.429030
9840.000000;0.428425
9839.000000;0.427774
9838.000000;0.427139
9837.000000;0.426521
9836.000000;0.425937
9835.000000;0.425431
9834.000000;0.425003
9833.000000;0.424614
9832.000000;0.424259
9831.000000;0.423962
9830.000000;0.423692
9829.000000;0.423374
9828.000000;0.422993
9827.000000;0.422589
9826.000000;0.422152
9825.000000;0.421610
9824.000000;0.420943
9823.000000;0.420227
9822.000000;0.419545
9821.000000;0.418927
9820.000000;0.418391
9819.000000;0.417950
9818.000000;0.417582
9817.000000;0.417246
9816.000000;0.416933
9815.000000;0.416632
9814.000000;0.416286
9813.000000;0.415848
9812.000000;0.415352
9811.000000;0.414838
9810.000000;0.414274
9809.000000;0.413656
9808.000000;0.413147
9807.000000;0.412947
9806.000000;0.413016
9805.000000;0.413063
9804.000000;0.412834
9803.000000;0.412324
9802.000000;0.411674
9801.000000;0.411012
9800.000000;0.410412
9799.000000;0.409901
9798.000000;0.409426
9797.000000;0.408885
9796.000000;0.408245
9795.000000;0.407568
9794.000000;0.406920
9793.000000;0.406333
9792.000000;0.405861
9791.000000;0.405587
9790.000000;0.405494
9789.000000;0.405413
9788.000000;0.405130
9787.000000;0.404566
9786.000000;0.403822
9785.000000;0.403086
9784.000000;0.402492
9783.000000;0.402050
9782.000000;0.401695
9781.000000;0.401399
9780.000000;0.401173
9779.000000;0.400954
9778.000000;0.400592
9777.000000;0.399989
9776.000000;0.399229
9775.000000;0.398486
9774.000000;0.397863
9773.000000;0.397350
9772.000000;0.396868
9771.000000;0.396317
9770.000000;0.395645
9769.000000;0.394958
9768.000000;0.394463
9767.000000;0.394212
9766.000000;0.393991
9765.000000;0.393574
9764.000000;0.393003
9763.000000;0.392492
9762.000000;0.392118
9761.000000;0.391762
9760.000000;0.391326
9759.000000;0.390853
9758.000000;0.390422
9757.000000;0.390028
9756.000000;0.389617
9755.000000;0.389168
9754.000000;0.388735
9753.000000;0.388440
9752.000000;0.388364
9751.000000;0.388399
9750.000000;0.388279
9749.000000;0.387840
9748.000000;0.387182
9747.000000;0.386483
9746.000000;0.385759
9745.000000;0.384954
9744.000000;0.384176
9743.000000;0.383643
9742.000000;0.383406
9741.000000;0.383274
9740.000000;0.383023
9739.000000;0.382585
9738.000000;0.382021
9737.000000;0.381441
9736.000000;0.380941
9735.000000;0.380528
9734.000000;0.380109
9733.000000;0.379620
9732.000000;0.379137
9731.000000;0.378759
9730.000000;0.378448
9729.000000;0.378089
9728.000000;0.377665
9727.000000;0.377246
9726.000000;0.376833
9725.000000;0.376347
9724.000000;0.375772
9723.000000;0.375174
9722.000000;0.374591
9721.000000;0.374006
9720.000000;0.373419
9719.000000;0.372886
9718.000000;0.372474
9717.000000;0.372255
9716.000000;0.372260
9715.000000;0.372361
9714.000000;0.372270
9713.000000;0.371784
9712.000000;0.371010
9711.000000;0.370214
9710.000000;0.369512
9709.000000;0.368836
9708.000000;0.368161
9707.000000;0.367581
9706.000000;0.367160
9705.000000;0.366870
9704.000000;0.366662
9703.000000;0.366488
9702.000000;0.366259
9701.000000;0.365915
9700.000000;0.365542
9699.000000;0.365270
9698.000000;0.365070
9697.000000;0.364764
9696.000000;0.364266
9695.000000;0.363658
9694.000000;0.363025
9693.000000;0.362364
9692.000000;0.361684
9691.000000;0.361079
9690.000000;0.360620
9689.000000;0.360280
9688.000000;0.359997
9687.000000;0.359728
9686.000000;0.359427
9685.000000;0.359044
9684.000000;0.358577
9683.000000;0.358069
9682.000000;0.357541
9681.000000;0.356998
9680.000000;0.356482
9679.000000;0.356030
9678.000000;0.355608
9677.000000;0.355184
9676.000000;0.354820
9675.000000;0.354587
9674.000000;0.354407
9673.000000;0.354113
9672.000000;0.353678
9671.000000;0.353234
9670.000000;0.352852
9669.000000;0.352435
9668.000000;0.351890
9667.000000;0.351274
9666.000000;0.350705
9665.000000;0.350209
9664.000000;0.349733
9663.000000;0.349239
9662.000000;0.348722
9661.000000;0.348197
9660.000000;0.347717
9659.000000;0.347368
9658.000000;0.347157
9657.000000;0.346941
9656.000000;0.346526
9655.000000;0.345877
9654.000000;0.345197
9653.000000;0.344771
9652.000000;0.344692
9651.000000;0.344752
9650.000000;0.344634
9649.000000;0.344209
9648.000000;0.343589
9647.000000;0.342929
9646.000000;0.342273
9645.000000;0.341643
9644.000000;0.341147
9643.000000;0.340857
9642.000000;0.340647
9641.000000;0.340281
9640.000000;0.339666
9639.000000;0.338947
9638.000000;0.338338
9637.000000;0.337932
9636.000000;0.337682
9635.000000;0.337488
9634.000000;0.337300
9633.000000;0.337142
9632.000000;0.337028
9631.000000;0.336867
9630.000000;0.336482
9629.000000;0.335778
9628.000000;0.334853
9627.000000;0.333942
9626.000000;0.333247
9625.000000;0.332843
9624.000000;0.332648
9623.000000;0.332488
9622.000000;0.332236
9621.000000;0.331914
9620.000000;0.331611
9619.000000;0.331322
9618.000000;0.330976
9617.000000;0.330599
9616.000000;0.330283
9615.000000;0.329972
9614.000000;0.329468
9613.000000;0.328727
9612.000000;0.327983
9611.000000;0.327461
9610.000000;0.327125
9609.000000;0.326828
9608.000000;0.326561
9607.000000;0.326375
9606.000000;0.326180
9605.000000;0.325820
9604.000000;0.325314
9603.000000;0.324840
9602.000000;0.324504
9601.000000;0.324244
9600.000000;0.323924
9599.000000;0.323441
9598.000000;0.322769
9597.000000;0.322016
9596.000000;0.321376
9595.000000;0.320936
9594.000000;0.320580
9593.000000;0.320172
9592.000000;0.319757
9591.000000;0.319477
9590.000000;0.319350
9589.000000;0.319260
9588.000000;0.319090
9587.000000;0.318782
9586.000000;0.318309
9585.000000;0.317725
9584.000000;0.317181
9583.000000;0.316791
9582.000000;0.316524
9581.000000;0.316284
9580.000000;0.316009
9579.000000;0.315634
9578.000000;0.315073
9577.000000;0.314345
9576.000000;0.313620
9575.000000;0.313022
9574.000000;0.312503
9573.000000;0.312022
9572.000000;0.311693
9571.000000;0.311578
9570.000000;0.311475
9569.000000;0.311136
9568.000000;0.310612
9567.000000;0.310172
9566.000000;0.309925
9565.000000;0.309746
9564.000000;0.309521
9563.000000;0.309254
9562.000000;0.308931
9561.000000;0.308479
9560.000000;0.307905
9559.000000;0.307323
9558.000000;0.306817
9557.000000;0.306395
9556.000000;0.306076
9555.000000;0.305873
9554.000000;0.305681
9553.000000;0.305336
9552.000000;0.304806
9551.000000;0.304230
9550.000000;0.303746
9549.000000;0.303375
9548.000000;0.303039
9547.000000;0.302633
9546.000000;0.302085
9545.000000;0.301437
9544.000000;0.300846
9543.000000;0.300413
9542.000000;0.300072
9541.000000;0.299721
9540.000000;0.299374
9539.000000;0.299073
9538.000000;0.298758
9537.000000;0.298371
9536.000000;0.298002
9535.000000;0.297778
9534.000000;0.297647
9533.000000;0.297438
9532.000000;0.297094
9531.000000;0.296686
9530.000000;0.296243
9529.000000;0.295731
9528.000000;0.295193
9527.000000;0.294725
9526.000000;0.294321
9525.000000;0.293893
9524.000000;0.293440
9523.000000;0.293067
9522.000000;0.292812
9521.000000;0.292597
9520.000000;0.292337
9519.000000;0.291980
9518.000000;0.291488
9517.000000;0.290906
9516.000000;0.290412
9515.000000;0.290157
9514.000000;0.290070
9513.000000;0.289947
9512.000000;0.289708
9511.000000;0.289395
9510.000000;0.288994
9509.000000;0.288449
9508.000000;0.287857
9507.000000;0.287439
9506.000000;0.287253
9505.000000;0.287101
9504.000000;0.286793
9503.000000;0.286362
9502.000000;0.285971
9501.000000;0.285697
9500.000000;0.285466
9499.000000;0.285124
9498.000000;0.284568
9497.000000;0.283853
9496.000000;0.283173
9495.000000;0.282659
9494.000000;0.282268
9493.000000;0.281922
9492.000000;0.281670
9491.000000;0.281561
9490.000000;0.281444
9489.000000;0.281102
9488.000000;0.280563
9487.000000;0.280075
9486.000000;0.279785
9485.000000;0.279599
9484.000000;0.279390
9483.000000;0.279135
9482.000000;0.278823
9481.000000;0.278393
9480.000000;0.277859
9479.000000;0.277341
9478.000000;0.276920
9477.000000;0.276562
9476.000000;0.276226
9475.000000;0.275920
9474.000000;0.275617
9473.000000;0.275230
9472.000000;0.274736
9471.000000;0.274221
9470.000000;0.273748
9469.000000;0.273293
9468.000000;0.272845
9467.000000;0.272469
9466.000000;0.272209
9465.000000;0.272001
9464.000000;0.271755
9463.000000;0.271456
9462.000000;0.271138
9461.000000;0.270800
9460.000000;0.270402
9459.000000;0.269925
9458.000000;0.269440
9457.000000;0.269096
9456.000000;0.268995
9455.000000;0.269031
9454.000000;0.268934
9453.000000;0.268547
9452.000000;0.268012
9451.000000;0.267589
9450.000000;0.267345
9449.000000;0.267160
9448.000000;0.266956
9447.000000;0.266758
9446.000000;0.266529
9445.000000;0.266150
9444.000000;0.265591
9443.000000;0.265003
9442.000000;0.264563
9441.000000;0.264312
9440.000000;0.264163
9439.000000;0.263982
9438.000000;0.263653
9437.000000;0.263146
9436.000000;0.262556
9435.000000;0.262016
9434.000000;0.261553
9433.000000;0.261095
9432.000000;0.260604
9431.000000;0.260126
9430.000000;0.259730
9429.000000;0.259449
9428.000000;0.259274
9427.000000;0.259125
9426.000000;0.258876
9425.000000;0.258477
9424.000000;0.258026
9423.000000;0.257655
9422.000000;0.257394
9421.000000;0.257209
9420.000000;0.257112
9419.000000;0.257087
9418.000000;0.256989
9417.000000;0.256667
9416.000000;0.256167
9415.000000;0.255683
9414.000000;0.255303
9413.000000;0.254946
9412.000000;0.254549
9411.000000;0.254150
9410.000000;0.253772
9409.000000;0.253365
9408.000000;0.252903
9407.000000;0.252449
9406.000000;0.252066
9405.000000;0.251754
9404.000000;0.251488
9403.000000;0.251222
9402.000000;0.250879
9401.000000;0.250421
9400.000000;0.249964
9399.000000;0.249687
9398.000000;0.249607
9397.000000;0.249516
9396.000000;0.249202
9395.000000;0.248659
9394.000000;0.248060
9393.000000;0.247592
9392.000000;0.247334
9391.000000;0.247216
9390.000000;0.247080
9389.000000;0.246823
9388.000000;0.246493
9387.000000;0.246192
9386.000000;0.245931
9385.000000;0.245645
9384.000000;0.245331
9383.000000;0.245073
9382.000000;0.244921
9381.000000;0.244830
9380.000000;0.244714
9379.000000;0.244498
9378.000000;0.244118
9377.000000;0.243573
9376.000000;0.242975
9375.000000;0.242479
9374.000000;0.242144
9373.000000;0.241916
9372.000000;0.241721
9371.000000;0.241503
9370.000000;0.241195
9369.000000;0.240753
9368.000000;0.240232
9367.000000;0.239753
9366.000000;0.239374
9365.000000;0.239054
9364.000000;0.238726
9363.000000;0.238375
9362.000000;0.238061
9361.000000;0.237870
9360.000000;0.237819
9359.000000;0.237768
9358.000000;0.237510
9357.000000;0.237015
9356.000000;0.236492
9355.000000;0.236145
9354.000000;0.235937
9353.000000;0.235702
9352.000000;0.235396
9351.000000;0.235113
9350.000000;0.234898
9349.000000;0.234693
9348.000000;0.234459
9347.000000;0.234212
9346.000000;0.233951
9345.000000;0.233657
9344.000000;0.233367
9343.000000;0.233129
9342.000000;0.232886
9341.000000;0.232507
9340.000000;0.231945
9339.000000;0.231313
9338.000000;0.230791
9337.000000;0.230499
9336.000000;0.230414
9335.000000;0.230345
9334.000000;0.230067
9333.000000;0.229554
9332.000000;0.229045
9331.000000;0.228765
9330.000000;0.228670
9329.000000;0.228543
9328.000000;0.228279
9327.000000;0.227923
9326.000000;0.227512
9325.000000;0.227049
9324.000000;0.226617
9323.000000;0.226337
9322.000000;0.226197
9321.000000;0.226060
9320.000000;0.225858
9319.000000;0.225635
9318.000000;0.225407
9317.000000;0.225101
9316.000000;0.224685
9315.000000;0.224237
9314.000000;0.223836
9313.000000;0.223499
9312.000000;0.223224
9311.000000;0.223019
9310.000000;0.222859
9309.000000;0.222694
9308.000000;0.222517
9307.000000;0.222355
9306.000000;0.222169
9305.000000;0.221865
9304.000000;0.221393
9303.000000;0.220799
9302.000000;0.220181
9301.000000;0.219656
9300.000000;0.219335
9299.000000;0.219235
9298.000000;0.219235
9297.000000;0.219202
9296.000000;0.219125
9295.000000;0.219034
9294.000000;0.218856
9293.000000;0.218484
9292.000000;0.217974
9291.000000;0.217532
9290.000000;0.217282
9289.000000;0.217172
9288.000000;0.217092
9287.000000;0.216971
9286.000000;0.216746
9285.000000;0.216371
9284.000000;0.215900
9283.000000;0.215477
9282.000000;0.215168
9281.000000;0.214884
9280.000000;0.214515
9279.000000;0.214059
9278.000000;0.213610
9277.000000;0.213247
9276.000000;0.212982
9275.000000;0.212763
9274.000000;0.212529
9273.000000;0.212284
9272.000000;0.212082
9271.000000;0.211927
9270.000000;0.211722
9269.000000;0.211409
9268.000000;0.211070
9267.000000;0.210836
9266.000000;0.210722
9265.000000;0.210642
9264.000000;0.210533
9263.000000;0.210364
9262.000000;0.210071
9261.000000;0.209637
9260.000000;0.209190
9259.000000;0.208888
9258.000000;0.208728
9257.000000;0.208557
9256.000000;0.208288
9255.000000;0.207978
9254.000000;0.207685
9253.000000;0.207394
9252.000000;0.207077
9251.000000;0.206746
9250.000000;0.206416
9249.000000;0.206102
9248.000000;0.205840
9247.000000;0.205645
9246.000000;0.205441
9245.000000;0.205136
9244.000000;0.204753
9243.000000;0.204394
9242.000000;0.204107
9241.000000;0.203873
9240.000000;0.203703
9239.000000;0.203622
9238.000000;0.203550
9237.000000;0.203326
9236.000000;0.202879
9235.000000;0.202305
9234.000000;0.201754
9233.000000;0.201327
9232.000000;0.201072
9231.000000;0.200974
9230.000000;0.200932
9229.000000;0.200832
9228.000000;0.200677
9227.000000;0.200550
9226.000000;0.200470
9225.000000;0.200343
9224.000000;0.200089
9223.000000;0.199710
9222.000000;0.199252
9221.000000;0.198777
9220.000000;0.198388
9219.000000;0.198183
9218.000000;0.198149
9217.000000;0.198161
9216.000000;0.198105
9215.000000;0.197938
9214.000000;0.197655
9213.000000;0.197283
9212.000000;0.196905
9211.000000;0.196606
9210.000000;0.196367
9209.000000;0.196099
9208.000000;0.195781
9207.000000;0.195476
9206.000000;0.195229
9205.000000;0.195021
9204.000000;0.194832
9203.000000;0.194659
9202.000000;0.194475
9201.000000;0.194226
9200.000000;0.193909
9199.000000;0.193585
9198.000000;0.193304
9197.000000;0.193069
9196.000000;0.192882
9195.000000;0.192745
9194.000000;0.192627
9193.000000;0.192476
9192.000000;0.192276
9191.000000;0.192032
9190.000000;0.191740
9189.000000;0.191408
9188.000000;0.191089
9187.000000;0.190821
9186.000000;0.190567
9185.000000;0.190295
9184.000000;0.190072
9183.000000;0.189986
9182.000000;0.190006
9181.000000;0.190006
9180.000000;0.189904
9179.000000;0.189693
9178.000000;0.189367
9177.000000;0.188938
9176.000000;0.188513
9175.000000;0.188229
9174.000000;0.188072
9173.000000;0.187895
9172.000000;0.187629
9171.000000;0.187358
9170.000000;0.187164
9169.000000;0.186994
9168.000000;0.186763
9167.000000;0.186498
9166.000000;0.186296
9165.000000;0.186174
9164.000000;0.186024
9163.000000;0.185730
9162.000000;0.185289
9161.000000;0.184821
9160.000000;0.184447
9159.000000;0.184178
9158.000000;0.183955
9157.000000;0.183777
9156.000000;0.183717
9155.000000;0.183766
9154.000000;0.183758
9153.000000;0.183520
9152.000000;0.183059
9151.000000;0.182522
9150.000000;0.182025
9149.000000;0.181615
9148.000000;0.181347
9147.000000;0.181262
9146.000000;0.181294
9145.000000;0.181302
9144.000000;0.181202
9143.000000;0.181017
9142.000000;0.180804
9141.000000;0.180608
9140.000000;0.180473
9139.000000;0.180402
9138.000000;0.180313
9137.000000;0.180100
9136.000000;0.179751
9135.000000;0.179341
9134.000000;0.178949
9133.000000;0.178640
9132.000000;0.178481
9131.000000;0.178460
9130.000000;0.178424
9129.000000;0.178197
9128.000000;0.177776
9127.000000;0.177335
9126.000000;0.177022
9125.000000;0.176843
9124.000000;0.176728
9123.000000;0.176640
9122.000000;0.176566
9121.000000;0.176476
9120.000000;0.176319
9119.000000;0.176047
9118.000000;0.175650
9117.000000;0.175196
9116.000000;0.174795
9115.000000;0.174504
9114.000000;0.174280
9113.000000;0.174070
9112.000000;0.173893
9111.000000;0.173780
9110.000000;0.173694
9109.000000;0.173582
9108.000000;0.173441
9107.000000;0.173283
9106.000000;0.173078
9105.000000;0.172824
9104.000000;0.172587
9103.000000;0.172416
9102.000000;0.172253
9101.000000;0.172047
9100.000000;0.171856
9099.000000;0.171745
9098.000000;0.171643
9097.000000;0.171437
9096.000000;0.171160
9095.000000;0.170939
9094.000000;0.170784
9093.000000;0.170576
9092.000000;0.170257
9091.000000;0.169909
9090.000000;0.169629
9089.000000;0.169455
9088.000000;0.169409
9087.000000;0.169480
9086.000000;0.169547
9085.000000;0.169446
9084.000000;0.169150
9083.000000;0.168793
9082.000000;0.168501
9081.000000;0.168290
9080.000000;0.168149
9079.000000;0.168074
9078.000000;0.168000
9077.000000;0.167807
9076.000000;0.167476
9075.000000;0.167146
9074.000000;0.166968
9073.000000;0.166938
9072.000000;0.166918
9071.000000;0.166768
9070.000000;0.166443
9069.000000;0.166020
9068.000000;0.165652
9067.000000;0.165441
9066.000000;0.165334
9065.000000;0.165202
9064.000000;0.165006
9063.000000;0.164825
9062.000000;0.164708
9061.000000;0.164593
9060.000000;0.164392
9059.000000;0.164105
9058.000000;0.163792
9057.000000;0.163506
9056.000000;0.163267
9055.000000;0.163080
9054.000000;0.162929
9053.000000;0.162777
