Criado como novo conjunto de dados;"e2410_daniel_v2.spp","86946.3 Secs"
cm-1;Abs
10000.000000;0.109380
9999.000000;0.109365
9998.000000;0.109355
9997.000000;0.109333
9996.000000;0.109377
9995.000000;0.109538
9994.000000;0.109715
9993.000000;0.109761
9992.000000;0.109615
9991.000000;0.109372
9990.000000;0.109173
9989.000000;0.109087
9988.000000;0.109121
9987.000000;0.109274
9986.000000;0.109512
9985.000000;0.109709
9984.000000;0.109715
9983.000000;0.109499
9982.000000;0.109180
9981.000000;0.108900
9980.000000;0.108699
9979.000000;0.108540
9978.000000;0.108405
9977.000000;0.108325
9976.000000;0.108337
9975.000000;0.108411
9974.000000;0.108454
9973.000000;0.108376
9972.000000;0.108183
9971.000000;0.107983
9970.000000;0.107907
9969.000000;0.108022
9968.000000;0.108293
9967.000000;0.108610
9966.000000;0.108822
9965.000000;0.108810
9964.000000;0.108576
9963.000000;0.108258
9962.000000;0.108033
9961.000000;0.108004
9960.000000;0.108160
9959.000000;0.108422
9958.000000;0.108692
9957.000000;0.108878
9956.000000;0.108924
9955.000000;0.108813
9954.000000;0.108548
9953.000000;0.108182
9952.000000;0.107867
9951.000000;0.107791
9950.000000;0.107987
9949.000000;0.108250
9948.000000;0.108329
9947.000000;0.108183
9946.000000;0.107970
9945.000000;0.107809
9944.000000;0.107662
9943.000000;0.107483
9942.000000;0.107365
9941.000000;0.107444
9940.000000;0.107724
9939.000000;0.108061
9938.000000;0.108313
9937.000000;0.108416
9936.000000;0.108345
9935.000000;0.108094
9934.000000;0.107754
9933.000000;0.107532
9932.000000;0.107606
9931.000000;0.107941
9930.000000;0.108293
9929.000000;0.108418
9928.000000;0.108248
9927.000000;0.107881
9926.000000;0.107451
9925.000000;0.107053
9924.000000;0.106763
9923.000000;0.106652
9922.000000;0.106739
9921.000000;0.106951
9920.000000;0.107165
9919.000000;0.107278
9918.000000;0.107258
9917.000000;0.107152
9916.000000;0.107059
9915.000000;0.107047
9914.000000;0.107100
9913.000000;0.107147
9912.000000;0.107141
9911.000000;0.107068
9910.000000;0.106907
9909.000000;0.106649
9908.000000;0.106366
9907.000000;0.106207
9906.000000;0.106259
9905.000000;0.106455
9904.000000;0.106641
9903.000000;0.106711
9902.000000;0.106677
9901.000000;0.106645
9900.000000;0.106740
9899.000000;0.106991
9898.000000;0.107233
9897.000000;0.107204
9896.000000;0.106817
9895.000000;0.106281
9894.000000;0.105892
9893.000000;0.105742
9892.000000;0.105722
9891.000000;0.105741
9890.000000;0.105824
9889.000000;0.105963
9888.000000;0.106016
9887.000000;0.105830
9886.000000;0.105421
9885.000000;0.104989
9884.000000;0.104752
9883.000000;0.104783
9882.000000;0.104978
9881.000000;0.105164
9880.000000;0.105257
9879.000000;0.105325
9878.000000;0.105469
9877.000000;0.105688
9876.000000;0.105884
9875.000000;0.105978
9874.000000;0.105941
9873.000000;0.105735
9872.000000;0.105334
9871.000000;0.104823
9870.000000;0.104385
9869.000000;0.104140
9868.000000;0.104055
9867.000000;0.104058
9866.000000;0.104168
9865.000000;0.104445
9864.000000;0.104853
9863.000000;0.105242
9862.000000;0.105478
9861.000000;0.105530
9860.000000;0.105453
9859.000000;0.105334
9858.000000;0.105257
9857.000000;0.105257
9856.000000;0.105299
9855.000000;0.105325
9854.000000;0.105333
9853.000000;0.105375
9852.000000;0.105457
9851.000000;0.105486
9850.000000;0.105354
9849.000000;0.105080
9848.000000;0.104816
9847.000000;0.104705
9846.000000;0.104733
9845.000000;0.104742
9844.000000;0.104576
9843.000000;0.104239
9842.000000;0.103905
9841.000000;0.103793
9840.000000;0.103991
9839.000000;0.104371
9838.000000;0.104686
9837.000000;0.104750
9836.000000;0.104568
9835.000000;0.104268
9834.000000;0.103949
9833.000000;0.103631
9832.000000;0.103348
9831.000000;0.103203
9830.000000;0.103290
9829.000000;0.103585
9828.000000;0.103938
9827.000000;0.104184
9826.000000;0.104239
9825.000000;0.104131
9824.000000;0.103982
9823.000000;0.103942
9822.000000;0.104063
9821.000000;0.104237
9820.000000;0.104289
9819.000000;0.104145
9818.000000;0.103903
9817.000000;0.103725
9816.000000;0.103707
9815.000000;0.103826
9814.000000;0.103986
9813.000000;0.104088
9812.000000;0.104081
9811.000000;0.103988
9810.000000;0.103869
9809.000000;0.103770
9808.000000;0.103706
9807.000000;0.103678
9806.000000;0.103669
9805.000000;0.103633
9804.000000;0.103518
9803.000000;0.103330
9802.000000;0.103147
9801.000000;0.103055
9800.000000;0.103082
9799.000000;0.103185
9798.000000;0.103280
9797.000000;0.103281
9796.000000;0.103141
9795.000000;0.102909
9794.000000;0.102733
9793.000000;0.102765
9792.000000;0.103030
9791.000000;0.103383
9790.000000;0.103608
9789.000000;0.103586
9788.000000;0.103370
9787.000000;0.103103
9786.000000;0.102887
9785.000000;0.102725
9784.000000;0.102595
9783.000000;0.102524
9782.000000;0.102572
9781.000000;0.102740
9780.000000;0.102923
9779.000000;0.102979
9778.000000;0.102854
9777.000000;0.102647
9776.000000;0.102516
9775.000000;0.102523
9774.000000;0.102563
9773.000000;0.102493
9772.000000;0.102299
9771.000000;0.102108
9770.000000;0.102035
9769.000000;0.102063
9768.000000;0.102093
9767.000000;0.102047
9766.000000;0.101908
9765.000000;0.101706
9764.000000;0.101506
9763.000000;0.101394
9762.000000;0.101412
9761.000000;0.101533
9760.000000;0.101702
9759.000000;0.101888
9758.000000;0.102063
9757.000000;0.102178
9756.000000;0.102207
9755.000000;0.102185
9754.000000;0.102175
9753.000000;0.102199
9752.000000;0.102245
9751.000000;0.102304
9750.000000;0.102359
9749.000000;0.102373
9748.000000;0.102345
9747.000000;0.102345
9746.000000;0.102435
9745.000000;0.102552
9744.000000;0.102554
9743.000000;0.102380
9742.000000;0.102106
9741.000000;0.101847
9740.000000;0.101664
9739.000000;0.101595
9738.000000;0.101667
9737.000000;0.101832
9736.000000;0.101941
9735.000000;0.101866
9734.000000;0.101647
9733.000000;0.101446
9732.000000;0.101360
9731.000000;0.101306
9730.000000;0.101142
9729.000000;0.100871
9728.000000;0.100700
9727.000000;0.100843
9726.000000;0.101285
9725.000000;0.101752
9724.000000;0.101954
9723.000000;0.101832
9722.000000;0.101562
9721.000000;0.101350
9720.000000;0.101274
9719.000000;0.101304
9718.000000;0.101373
9717.000000;0.101410
9716.000000;0.101370
9715.000000;0.101288
9714.000000;0.101256
9713.000000;0.101312
9712.000000;0.101364
9711.000000;0.101294
9710.000000;0.101133
9709.000000;0.101057
9708.000000;0.101193
9707.000000;0.101429
9706.000000;0.101506
9705.000000;0.101288
9704.000000;0.100915
9703.000000;0.100649
9702.000000;0.100615
9701.000000;0.100720
9700.000000;0.100825
9699.000000;0.100901
9698.000000;0.100982
9697.000000;0.101053
9696.000000;0.101061
9695.000000;0.101014
9694.000000;0.101003
9693.000000;0.101086
9692.000000;0.101211
9691.000000;0.101253
9690.000000;0.101128
9689.000000;0.100854
9688.000000;0.100540
9687.000000;0.100306
9686.000000;0.100206
9685.000000;0.100237
9684.000000;0.100406
9683.000000;0.100720
9682.000000;0.101088
9681.000000;0.101313
9680.000000;0.101248
9679.000000;0.100959
9678.000000;0.100635
9677.000000;0.100393
9676.000000;0.100229
9675.000000;0.100131
9674.000000;0.100122
9673.000000;0.100171
9672.000000;0.100170
9671.000000;0.100053
9670.000000;0.099861
9669.000000;0.099674
9668.000000;0.099549
9667.000000;0.099535
9666.000000;0.099670
9665.000000;0.099900
9664.000000;0.100089
9663.000000;0.100168
9662.000000;0.100208
9661.000000;0.100282
9660.000000;0.100324
9659.000000;0.100230
9658.000000;0.100028
9657.000000;0.099861
9656.000000;0.099798
9655.000000;0.099777
9654.000000;0.099715
9653.000000;0.099610
9652.000000;0.099511
9651.000000;0.099483
9650.000000;0.099587
9649.000000;0.099828
9648.000000;0.100079
9647.000000;0.100138
9646.000000;0.099921
9645.000000;0.099562
9644.000000;0.099291
9643.000000;0.099236
9642.000000;0.099361
9641.000000;0.099565
9640.000000;0.099779
9639.000000;0.099966
9638.000000;0.100088
9637.000000;0.100089
9636.000000;0.099937
9635.000000;0.099688
9634.000000;0.099460
9633.000000;0.099350
9632.000000;0.099355
9631.000000;0.099427
9630.000000;0.099567
9629.000000;0.099803
9628.000000;0.100063
9627.000000;0.100151
9626.000000;0.099934
9625.000000;0.099518
9624.000000;0.099183
9623.000000;0.099121
9622.000000;0.099272
9621.000000;0.099427
9620.000000;0.099442
9619.000000;0.099334
9618.000000;0.099207
9617.000000;0.099144
9616.000000;0.099170
9615.000000;0.099258
9614.000000;0.099345
9613.000000;0.099366
9612.000000;0.099305
9611.000000;0.099224
9610.000000;0.099223
9609.000000;0.099353
9608.000000;0.099562
9607.000000;0.099699
9606.000000;0.099613
9605.000000;0.099306
9604.000000;0.098995
9603.000000;0.098971
9602.000000;0.099318
9601.000000;0.099794
9600.000000;0.100055
9599.000000;0.099980
9598.000000;0.099711
9597.000000;0.099415
9596.000000;0.099119
9595.000000;0.098815
9594.000000;0.098587
9593.000000;0.098525
9592.000000;0.098582
9591.000000;0.098640
9590.000000;0.098675
9589.000000;0.098770
9588.000000;0.098948
9587.000000;0.099113
9586.000000;0.099180
9585.000000;0.099163
9584.000000;0.099105
9583.000000;0.098989
9582.000000;0.098807
9581.000000;0.098646
9580.000000;0.098627
9579.000000;0.098765
9578.000000;0.098942
9577.000000;0.099028
9576.000000;0.098992
9575.000000;0.098895
9574.000000;0.098832
9573.000000;0.098873
9572.000000;0.099000
9571.000000;0.099116
9570.000000;0.099119
9569.000000;0.098996
9568.000000;0.098825
9567.000000;0.098699
9566.000000;0.098665
9565.000000;0.098730
9564.000000;0.098876
9563.000000;0.099034
9562.000000;0.099112
9561.000000;0.099059
9560.000000;0.098918
9559.000000;0.098786
9558.000000;0.098723
9557.000000;0.098717
9556.000000;0.098730
9555.000000;0.098753
9554.000000;0.098803
9553.000000;0.098861
9552.000000;0.098849
9551.000000;0.098715
9550.000000;0.098518
9549.000000;0.098402
9548.000000;0.098444
9547.000000;0.098583
9546.000000;0.098709
9545.000000;0.098795
9544.000000;0.098874
9543.000000;0.098912
9542.000000;0.098813
9541.000000;0.098582
9540.000000;0.098378
9539.000000;0.098363
9538.000000;0.098522
9537.000000;0.098699
9536.000000;0.098786
9535.000000;0.098818
9534.000000;0.098893
9533.000000;0.099054
9532.000000;0.099259
9531.000000;0.099431
9530.000000;0.099512
9529.000000;0.099506
9528.000000;0.099480
9527.000000;0.099505
9526.000000;0.099577
9525.000000;0.099618
9524.000000;0.099560
9523.000000;0.099420
9522.000000;0.099275
9521.000000;0.099174
9520.000000;0.099097
9519.000000;0.099004
9518.000000;0.098915
9517.000000;0.098909
9516.000000;0.099026
9515.000000;0.099197
9514.000000;0.099270
9513.000000;0.099144
9512.000000;0.098851
9511.000000;0.098533
9510.000000;0.098353
9509.000000;0.098416
9508.000000;0.098722
9507.000000;0.099134
9506.000000;0.099422
9505.000000;0.099401
9504.000000;0.099071
9503.000000;0.098613
9502.000000;0.098262
9501.000000;0.098142
9500.000000;0.098210
9499.000000;0.098317
9498.000000;0.098349
9497.000000;0.098330
9496.000000;0.098392
9495.000000;0.098621
9494.000000;0.098927
9493.000000;0.099109
9492.000000;0.099043
9491.000000;0.098810
9490.000000;0.098622
9489.000000;0.098641
9488.000000;0.098856
9487.000000;0.099108
9486.000000;0.099234
9485.000000;0.099189
9484.000000;0.099051
9483.000000;0.098911
9482.000000;0.098814
9481.000000;0.098771
9480.000000;0.098788
9479.000000;0.098824
9478.000000;0.098776
9477.000000;0.098577
9476.000000;0.098295
9475.000000;0.098088
9474.000000;0.098059
9473.000000;0.098204
9472.000000;0.098482
9471.000000;0.098857
9470.000000;0.099242
9469.000000;0.099494
9468.000000;0.099525
9467.000000;0.099401
9466.000000;0.099270
9465.000000;0.099203
9464.000000;0.099142
9463.000000;0.098982
9462.000000;0.098686
9461.000000;0.098329
9460.000000;0.098053
9459.000000;0.097979
9458.000000;0.098118
9457.000000;0.098354
9456.000000;0.098543
9455.000000;0.098626
9454.000000;0.098653
9453.000000;0.098687
9452.000000;0.098713
9451.000000;0.098655
9450.000000;0.098495
9449.000000;0.098349
9448.000000;0.098387
9447.000000;0.098657
9446.000000;0.099012
9445.000000;0.099269
9444.000000;0.099384
9443.000000;0.099435
9442.000000;0.099440
9441.000000;0.099315
9440.000000;0.099033
9439.000000;0.098733
9438.000000;0.098593
9437.000000;0.098633
9436.000000;0.098743
9435.000000;0.098856
9434.000000;0.098992
9433.000000;0.099152
9432.000000;0.099260
9431.000000;0.099271
9430.000000;0.099241
9429.000000;0.099251
9428.000000;0.099305
9427.000000;0.099354
9426.000000;0.099378
9425.000000;0.099377
9424.000000;0.099322
9423.000000;0.099176
9422.000000;0.098985
9421.000000;0.098872
9420.000000;0.098905
9419.000000;0.099000
9418.000000;0.099004
9417.000000;0.098853
9416.000000;0.098639
9415.000000;0.098535
9414.000000;0.098649
9413.000000;0.098957
9412.000000;0.099334
9411.000000;0.099635
9410.000000;0.099762
9409.000000;0.099671
9408.000000;0.099373
9407.000000;0.098962
9406.000000;0.098612
9405.000000;0.098502
9404.000000;0.098673
9403.000000;0.098989
9402.000000;0.099255
9401.000000;0.099377
9400.000000;0.099398
9399.000000;0.099388
9398.000000;0.099345
9397.000000;0.099218
9396.000000;0.099001
9395.000000;0.098772
9394.000000;0.098635
9393.000000;0.098631
9392.000000;0.098708
9391.000000;0.098759
9390.000000;0.098710
9389.000000;0.098576
9388.000000;0.098456
9387.000000;0.098464
9386.000000;0.098620
9385.000000;0.098810
9384.000000;0.098877
9383.000000;0.098803
9382.000000;0.098774
9381.000000;0.098997
9380.000000;0.099453
9379.000000;0.099898
9378.000000;0.100125
9377.000000;0.100156
9376.000000;0.100124
9375.000000;0.100069
9374.000000;0.099950
9373.000000;0.099802
9372.000000;0.099714
9371.000000;0.099663
9370.000000;0.099505
9369.000000;0.099197
9368.000000;0.098913
9367.000000;0.098848
9366.000000;0.098992
9365.000000;0.099171
9364.000000;0.099254
9363.000000;0.099240
9362.000000;0.099179
9361.000000;0.099121
9360.000000;0.099102
9359.000000;0.099099
9358.000000;0.099007
9357.000000;0.098744
9356.000000;0.098397
9355.000000;0.098186
9354.000000;0.098256
9353.000000;0.098548
9352.000000;0.098862
9351.000000;0.099026
9350.000000;0.098999
9349.000000;0.098870
9348.000000;0.098784
9347.000000;0.098836
9346.000000;0.099015
9345.000000;0.099240
9344.000000;0.099419
9343.000000;0.099475
9342.000000;0.099363
9341.000000;0.099132
9340.000000;0.098927
9339.000000;0.098875
9338.000000;0.098980
9337.000000;0.099153
9336.000000;0.099345
9335.000000;0.099579
9334.000000;0.099871
9333.000000;0.100168
9332.000000;0.100394
9331.000000;0.100504
9330.000000;0.100509
9329.000000;0.100488
9328.000000;0.100521
9327.000000;0.100589
9326.000000;0.100556
9325.000000;0.100331
9324.000000;0.100000
9323.000000;0.099733
9322.000000;0.099587
9321.000000;0.099505
9320.000000;0.099483
9319.000000;0.099600
9318.000000;0.099834
9317.000000;0.100012
9316.000000;0.100011
9315.000000;0.099915
9314.000000;0.099888
9313.000000;0.099964
9312.000000;0.100049
9311.000000;0.100086
9310.000000;0.100122
9309.000000;0.100219
9308.000000;0.100366
9307.000000;0.100483
9306.000000;0.100486
9305.000000;0.100354
9304.000000;0.100162
9303.000000;0.100024
9302.000000;0.099968
9301.000000;0.099927
9300.000000;0.099870
9299.000000;0.099889
9298.000000;0.100058
9297.000000;0.100262
9296.000000;0.100274
9295.000000;0.100030
9294.000000;0.099743
9293.000000;0.099683
9292.000000;0.099885
9291.000000;0.100111
9290.000000;0.100116
9289.000000;0.099902
9288.000000;0.099701
9287.000000;0.099721
9286.000000;0.099942
9285.000000;0.100181
9284.000000;0.100304
9283.000000;0.100330
9282.000000;0.100337
9281.000000;0.100354
9280.000000;0.100352
9279.000000;0.100302
9278.000000;0.100192
9277.000000;0.100046
9276.000000;0.099957
9275.000000;0.100053
9274.000000;0.100368
9273.000000;0.100770
9272.000000;0.101048
9271.000000;0.101082
9270.000000;0.100905
9269.000000;0.100627
9268.000000;0.100357
9267.000000;0.100177
9266.000000;0.100133
9265.000000;0.100215
9264.000000;0.100378
9263.000000;0.100581
9262.000000;0.100788
9261.000000;0.100937
9260.000000;0.100947
9259.000000;0.100794
9258.000000;0.100581
9257.000000;0.100475
9256.000000;0.100573
9255.000000;0.100810
9254.000000;0.101022
9253.000000;0.101081
9252.000000;0.100964
9251.000000;0.100733
9250.000000;0.100496
9249.000000;0.100386
9248.000000;0.100476
9247.000000;0.100691
9246.000000;0.100850
9245.000000;0.100860
9244.000000;0.100812
9243.000000;0.100813
9242.000000;0.100813
9241.000000;0.100709
9240.000000;0.100579
9239.000000;0.100657
9238.000000;0.101033
9237.000000;0.101492
9236.000000;0.101732
9235.000000;0.101654
9234.000000;0.101417
9233.000000;0.101259
9232.000000;0.101332
9231.000000;0.101590
9230.000000;0.101802
9229.000000;0.101724
9228.000000;0.101363
9227.000000;0.101021
9226.000000;0.100993
9225.000000;0.101261
9224.000000;0.101558
9223.000000;0.101683
9222.000000;0.101669
9221.000000;0.101656
9220.000000;0.101712
9219.000000;0.101796
9218.000000;0.101817
9217.000000;0.101720
9216.000000;0.101553
9215.000000;0.101451
9214.000000;0.101509
9213.000000;0.101669
9212.000000;0.101789
9211.000000;0.101800
9210.000000;0.101749
9209.000000;0.101677
9208.000000;0.101550
9207.000000;0.101352
9206.000000;0.101183
9205.000000;0.101196
9204.000000;0.101429
9203.000000;0.101722
9202.000000;0.101820
9201.000000;0.101590
9200.000000;0.101164
9199.000000;0.100846
9198.000000;0.100862
9197.000000;0.101171
9196.000000;0.101535
9195.000000;0.101745
9194.000000;0.101782
9193.000000;0.101758
9192.000000;0.101784
9191.000000;0.101904
9190.000000;0.102102
9189.000000;0.102316
9188.000000;0.102436
9187.000000;0.102352
9186.000000;0.102057
9185.000000;0.101697
9184.000000;0.101496
9183.000000;0.101580
9182.000000;0.101878
9181.000000;0.102213
9180.000000;0.102474
9179.000000;0.102679
9178.000000;0.102873
9177.000000;0.103027
9176.000000;0.103058
9175.000000;0.102932
9174.000000;0.102685
9173.000000;0.102370
9172.000000;0.102032
9171.000000;0.101741
9170.000000;0.101597
9169.000000;0.101671
9168.000000;0.101935
9167.000000;0.102256
9166.000000;0.102469
9165.000000;0.102501
9164.000000;0.102421
9163.000000;0.102384
9162.000000;0.102481
9161.000000;0.102658
9160.000000;0.102778
9159.000000;0.102767
9158.000000;0.102706
9157.000000;0.102757
9156.000000;0.103009
9155.000000;0.103380
9154.000000;0.103679
9153.000000;0.103773
9152.000000;0.103682
9151.000000;0.103500
9150.000000;0.103291
9149.000000;0.103091
9148.000000;0.102978
9147.000000;0.103046
9146.000000;0.103296
9145.000000;0.103606
9144.000000;0.103819
9143.000000;0.103821
9142.000000;0.103558
9141.000000;0.103082
9140.000000;0.102601
9139.000000;0.102385
9138.000000;0.102536
9137.000000;0.102891
9136.000000;0.103192
9135.000000;0.103323
9134.000000;0.103321
9133.000000;0.103257
9132.000000;0.103193
9131.000000;0.103218
9130.000000;0.103393
9129.000000;0.103650
9128.000000;0.103829
9127.000000;0.103845
9126.000000;0.103766
9125.000000;0.103715
9124.000000;0.103745
9123.000000;0.103830
9122.000000;0.103918
9121.000000;0.103965
9120.000000;0.103952
9119.000000;0.103911
9118.000000;0.103907
9117.000000;0.103985
9116.000000;0.104112
9115.000000;0.104206
9114.000000;0.104198
9113.000000;0.104084
9112.000000;0.103914
9111.000000;0.103748
9110.000000;0.103631
9109.000000;0.103593
9108.000000;0.103657
9107.000000;0.103812
9106.000000;0.103982
9105.000000;0.104081
9104.000000;0.104119
9103.000000;0.104225
9102.000000;0.104502
9101.000000;0.104884
9100.000000;0.105169
9099.000000;0.105201
9098.000000;0.105008
9097.000000;0.104777
9096.000000;0.104712
9095.000000;0.104881
9094.000000;0.105147
9093.000000;0.105268
9092.000000;0.105118
9091.000000;0.104814
9090.000000;0.104609
9089.000000;0.104653
9088.000000;0.104887
9087.000000;0.105151
9086.000000;0.105324
9085.000000;0.105366
9084.000000;0.105300
9083.000000;0.105208
9082.000000;0.105180
9081.000000;0.105233
9080.000000;0.105277
9079.000000;0.105227
9078.000000;0.105121
9077.000000;0.105089
9076.000000;0.105206
9075.000000;0.105401
9074.000000;0.105532
9073.000000;0.105502
9072.000000;0.105302
9071.000000;0.104982
9070.000000;0.104663
9069.000000;0.104531
9068.000000;0.104716
9067.000000;0.105144
9066.000000;0.105563
9065.000000;0.105777
9064.000000;0.105816
9063.000000;0.105823
9062.000000;0.105836
9061.000000;0.105781
9060.000000;0.105658
9059.000000;0.105613
9058.000000;0.105771
9057.000000;0.106093
9056.000000;0.106431
9055.000000;0.106660
9054.000000;0.106696
9053.000000;0.106491
