Criado como novo conjunto de dados;"e2410_daniel_v2.spp","68945.3 Secs"
cm-1;Abs
10000.000000;1.246751
9999.000000;1.247503
9998.000000;1.248257
9997.000000;1.249012
9996.000000;1.249768
9995.000000;1.250528
9994.000000;1.251284
9993.000000;1.252051
9992.000000;1.252802
9991.000000;1.253584
9990.000000;1.254310
9989.000000;1.255207
9988.000000;1.255700
9987.000000;1.254778
9986.000000;1.252894
9985.000000;1.251283
9984.000000;1.250306
9983.000000;1.249251
9982.000000;1.247933
9981.000000;1.246995
9980.000000;1.246628
9979.000000;1.246320
9978.000000;1.245979
9977.000000;1.245979
9976.000000;1.245991
9975.000000;1.245211
9974.000000;1.243873
9973.000000;1.243047
9972.000000;1.242840
9971.000000;1.242337
9970.000000;1.241433
9969.000000;1.241109
9968.000000;1.241615
9967.000000;1.241995
9966.000000;1.241705
9965.000000;1.241174
9964.000000;1.240475
9963.000000;1.239076
9962.000000;1.237260
9961.000000;1.236142
9960.000000;1.235922
9959.000000;1.235700
9958.000000;1.235344
9957.000000;1.235827
9956.000000;1.237177
9955.000000;1.237850
9954.000000;1.236901
9953.000000;1.235246
9952.000000;1.234032
9951.000000;1.233240
9950.000000;1.232570
9949.000000;1.232250
9948.000000;1.232180
9947.000000;1.231575
9946.000000;1.230220
9945.000000;1.229012
9944.000000;1.228616
9943.000000;1.228668
9942.000000;1.228766
9941.000000;1.229067
9940.000000;1.229422
9939.000000;1.229141
9938.000000;1.228166
9937.000000;1.227294
9936.000000;1.226802
9935.000000;1.226035
9934.000000;1.224746
9933.000000;1.223648
9932.000000;1.223169
9931.000000;1.222849
9930.000000;1.222393
9929.000000;1.222188
9928.000000;1.222321
9927.000000;1.222246
9926.000000;1.221818
9925.000000;1.221572
9924.000000;1.221607
9923.000000;1.221325
9922.000000;1.220586
9921.000000;1.219944
9920.000000;1.219429
9919.000000;1.218383
9918.000000;1.216880
9917.000000;1.216004
9916.000000;1.216229
9915.000000;1.216712
9914.000000;1.216644
9913.000000;1.216195
9912.000000;1.215647
9911.000000;1.214763
9910.000000;1.213519
9909.000000;1.212430
9908.000000;1.211688
9907.000000;1.210930
9906.000000;1.210172
9905.000000;1.209926
9904.000000;1.210121
9903.000000;1.209925
9902.000000;1.208970
9901.000000;1.207794
9900.000000;1.206842
9899.000000;1.206024
9898.000000;1.205416
9897.000000;1.205316
9896.000000;1.205438
9895.000000;1.205126
9894.000000;1.204501
9893.000000;1.204332
9892.000000;1.204705
9891.000000;1.204912
9890.000000;1.204749
9889.000000;1.204678
9888.000000;1.204637
9887.000000;1.203958
9886.000000;1.202664
9885.000000;1.201573
9884.000000;1.200928
9883.000000;1.200144
9882.000000;1.199054
9881.000000;1.198160
9880.000000;1.197485
9879.000000;1.196465
9878.000000;1.195137
9877.000000;1.194209
9876.000000;1.193769
9875.000000;1.193197
9874.000000;1.192486
9873.000000;1.192324
9872.000000;1.192713
9871.000000;1.192851
9870.000000;1.192574
9869.000000;1.192605
9868.000000;1.193096
9867.000000;1.193251
9866.000000;1.192686
9865.000000;1.191884
9864.000000;1.191067
9863.000000;1.189929
9862.000000;1.188736
9861.000000;1.188335
9860.000000;1.188755
9859.000000;1.189048
9858.000000;1.188756
9857.000000;1.188327
9856.000000;1.187854
9855.000000;1.186796
9854.000000;1.185252
9853.000000;1.184101
9852.000000;1.183546
9851.000000;1.182800
9850.000000;1.181579
9849.000000;1.180642
9848.000000;1.180474
9847.000000;1.180625
9846.000000;1.180713
9845.000000;1.180907
9844.000000;1.181122
9843.000000;1.180854
9842.000000;1.180120
9841.000000;1.179451
9840.000000;1.178761
9839.000000;1.177472
9838.000000;1.175862
9837.000000;1.174974
9836.000000;1.174967
9835.000000;1.174903
9834.000000;1.174435
9833.000000;1.174309
9832.000000;1.174843
9831.000000;1.175228
9830.000000;1.174785
9829.000000;1.173751
9828.000000;1.172462
9827.000000;1.170979
9826.000000;1.169826
9825.000000;1.169787
9824.000000;1.170536
9823.000000;1.170671
9822.000000;1.169545
9821.000000;1.167972
9820.000000;1.166784
9819.000000;1.165947
9818.000000;1.165399
9817.000000;1.165454
9816.000000;1.165899
9815.000000;1.165850
9814.000000;1.165053
9813.000000;1.164274
9812.000000;1.163977
9811.000000;1.163689
9810.000000;1.163004
9809.000000;1.162208
9808.000000;1.161555
9807.000000;1.160913
9806.000000;1.160392
9805.000000;1.160326
9804.000000;1.160380
9803.000000;1.159746
9802.000000;1.158457
9801.000000;1.157483
9800.000000;1.157333
9799.000000;1.157568
9798.000000;1.157814
9797.000000;1.158126
9796.000000;1.158241
9795.000000;1.157612
9794.000000;1.156364
9793.000000;1.155162
9792.000000;1.154087
9791.000000;1.152799
9790.000000;1.151709
9789.000000;1.151644
9788.000000;1.152277
9787.000000;1.152274
9786.000000;1.151225
9785.000000;1.150113
9784.000000;1.149648
9783.000000;1.149493
9782.000000;1.149316
9781.000000;1.149228
9780.000000;1.148918
9779.000000;1.147799
9778.000000;1.146312
9777.000000;1.145733
9776.000000;1.146331
9775.000000;1.146981
9774.000000;1.146900
9773.000000;1.146453
9772.000000;1.145924
9771.000000;1.144976
9770.000000;1.143770
9769.000000;1.143221
9768.000000;1.143566
9767.000000;1.143908
9766.000000;1.143672
9765.000000;1.143288
9764.000000;1.142964
9763.000000;1.142128
9762.000000;1.140670
9761.000000;1.139487
9760.000000;1.139138
9759.000000;1.139070
9758.000000;1.138724
9757.000000;1.138334
9756.000000;1.138119
9755.000000;1.137739
9754.000000;1.137079
9753.000000;1.136588
9752.000000;1.136357
9751.000000;1.135835
9750.000000;1.134885
9749.000000;1.134136
9748.000000;1.133871
9747.000000;1.133578
9746.000000;1.133010
9745.000000;1.132627
9744.000000;1.132620
9743.000000;1.132515
9742.000000;1.132113
9741.000000;1.131791
9740.000000;1.131507
9739.000000;1.130609
9738.000000;1.129060
9737.000000;1.127781
9736.000000;1.127329
9735.000000;1.127236
9734.000000;1.127055
9733.000000;1.127027
9732.000000;1.127255
9731.000000;1.127220
9730.000000;1.126629
9729.000000;1.125851
9728.000000;1.125067
9727.000000;1.123931
9726.000000;1.122491
9725.000000;1.121522
9724.000000;1.121464
9723.000000;1.121826
9722.000000;1.122021
9721.000000;1.122077
9720.000000;1.122152
9719.000000;1.122121
9718.000000;1.121947
9717.000000;1.121739
9716.000000;1.121225
9715.000000;1.119972
9714.000000;1.118280
9713.000000;1.117041
9712.000000;1.116583
9711.000000;1.116458
9710.000000;1.116369
9709.000000;1.116407
9708.000000;1.116307
9707.000000;1.115523
9706.000000;1.114239
9705.000000;1.113303
9704.000000;1.113002
9703.000000;1.112817
9702.000000;1.112487
9701.000000;1.112293
9700.000000;1.112151
9699.000000;1.111541
9698.000000;1.110563
9697.000000;1.109983
9696.000000;1.109965
9695.000000;1.109760
9694.000000;1.108966
9693.000000;1.108136
9692.000000;1.107793
9691.000000;1.107734
9690.000000;1.107612
9689.000000;1.107387
9688.000000;1.106976
9687.000000;1.106228
9686.000000;1.105403
9685.000000;1.104931
9684.000000;1.104665
9683.000000;1.104184
9682.000000;1.103745
9681.000000;1.103941
9680.000000;1.104492
9679.000000;1.104425
9678.000000;1.103491
9677.000000;1.102378
9676.000000;1.101461
9675.000000;1.100426
9674.000000;1.099206
9673.000000;1.098244
9672.000000;1.097679
9671.000000;1.097261
9670.000000;1.097074
9669.000000;1.097390
9668.000000;1.097784
9667.000000;1.097463
9666.000000;1.096466
9665.000000;1.095489
9664.000000;1.094642
9663.000000;1.093546
9662.000000;1.092575
9661.000000;1.092604
9660.000000;1.093431
9659.000000;1.093777
9658.000000;1.093124
9657.000000;1.092304
9656.000000;1.092027
9655.000000;1.092014
9654.000000;1.091882
9653.000000;1.091727
9652.000000;1.091510
9651.000000;1.090961
9650.000000;1.090332
9649.000000;1.090192
9648.000000;1.090264
9647.000000;1.089575
9646.000000;1.088012
9645.000000;1.086582
9644.000000;1.085890
9643.000000;1.085502
9642.000000;1.085020
9641.000000;1.084649
9640.000000;1.084411
9639.000000;1.083921
9638.000000;1.083239
9637.000000;1.082918
9636.000000;1.082948
9635.000000;1.082658
9634.000000;1.081868
9633.000000;1.081096
9632.000000;1.080493
9631.000000;1.079691
9630.000000;1.078868
9629.000000;1.078722
9628.000000;1.079170
9627.000000;1.079228
9626.000000;1.078519
9625.000000;1.077768
9624.000000;1.077471
9623.000000;1.077234
9622.000000;1.076768
9621.000000;1.076405
9620.000000;1.076272
9619.000000;1.075971
9618.000000;1.075431
9617.000000;1.075067
9616.000000;1.074826
9615.000000;1.074096
9614.000000;1.072857
9613.000000;1.071852
9612.000000;1.071386
9611.000000;1.070994
9610.000000;1.070558
9609.000000;1.070607
9608.000000;1.071179
9607.000000;1.071473
9606.000000;1.071020
9605.000000;1.070179
9604.000000;1.069159
9603.000000;1.067684
9602.000000;1.065999
9601.000000;1.065079
9600.000000;1.065315
9599.000000;1.065929
9598.000000;1.066132
9597.000000;1.065981
9596.000000;1.065695
9595.000000;1.065074
9594.000000;1.064091
9593.000000;1.063217
9592.000000;1.062719
9591.000000;1.062356
9590.000000;1.062064
9589.000000;1.062125
9588.000000;1.062392
9587.000000;1.062194
9586.000000;1.061345
9585.000000;1.060444
9584.000000;1.059897
9583.000000;1.059437
9582.000000;1.058850
9581.000000;1.058338
9580.000000;1.057909
9579.000000;1.057238
9578.000000;1.056385
9577.000000;1.055869
9576.000000;1.055812
9575.000000;1.055767
9574.000000;1.055541
9573.000000;1.055427
9572.000000;1.055482
9571.000000;1.055359
9570.000000;1.054972
9569.000000;1.054559
9568.000000;1.054008
9567.000000;1.052991
9566.000000;1.051800
9565.000000;1.051149
9564.000000;1.051079
9563.000000;1.050935
9562.000000;1.050499
9561.000000;1.050249
9560.000000;1.050391
9559.000000;1.050507
9558.000000;1.050280
9557.000000;1.049764
9556.000000;1.048917
9555.000000;1.047753
9554.000000;1.046884
9553.000000;1.046967
9552.000000;1.047630
9551.000000;1.047872
9550.000000;1.047471
9549.000000;1.046995
9548.000000;1.046522
9547.000000;1.045558
9546.000000;1.044213
9545.000000;1.043243
9544.000000;1.042814
9543.000000;1.042388
9542.000000;1.041938
9541.000000;1.042108
9540.000000;1.042949
9539.000000;1.043655
9538.000000;1.043807
9537.000000;1.043789
9536.000000;1.043749
9535.000000;1.043283
9534.000000;1.042387
9533.000000;1.041627
9532.000000;1.041079
9531.000000;1.040201
9530.000000;1.039001
9529.000000;1.038214
9528.000000;1.038040
9527.000000;1.037794
9526.000000;1.037116
9525.000000;1.036449
9524.000000;1.035953
9523.000000;1.035093
9522.000000;1.033732
9521.000000;1.032614
9520.000000;1.032223
9519.000000;1.032069
9518.000000;1.031564
9517.000000;1.030842
9516.000000;1.030283
9515.000000;1.029965
9514.000000;1.029959
9513.000000;1.030474
9512.000000;1.031370
9511.000000;1.032083
9510.000000;1.032247
9509.000000;1.031841
9508.000000;1.030812
9507.000000;1.029291
9506.000000;1.028055
9505.000000;1.027841
9504.000000;1.028270
9503.000000;1.028339
9502.000000;1.027900
9501.000000;1.027637
9500.000000;1.027674
9499.000000;1.027397
9498.000000;1.026719
9497.000000;1.026263
9496.000000;1.026076
9495.000000;1.025423
9494.000000;1.024176
9493.000000;1.023243
9492.000000;1.023175
9491.000000;1.023432
9490.000000;1.023405
9489.000000;1.023184
9488.000000;1.022859
9487.000000;1.022061
9486.000000;1.020744
9485.000000;1.019603
9484.000000;1.019203
9483.000000;1.019354
9482.000000;1.019660
9481.000000;1.019977
9480.000000;1.020063
9479.000000;1.019540
9478.000000;1.018518
9477.000000;1.017583
9476.000000;1.016933
9475.000000;1.016217
9474.000000;1.015342
9473.000000;1.014686
9472.000000;1.014367
9471.000000;1.014054
9470.000000;1.013669
9469.000000;1.013540
9468.000000;1.013704
9467.000000;1.013791
9466.000000;1.013695
9465.000000;1.013617
9464.000000;1.013392
9463.000000;1.012599
9462.000000;1.011411
9461.000000;1.010533
9460.000000;1.010227
9459.000000;1.010196
9458.000000;1.010361
9457.000000;1.010851
9456.000000;1.011215
9455.000000;1.010692
9454.000000;1.009396
9453.000000;1.008301
9452.000000;1.007881
9451.000000;1.007675
9450.000000;1.007302
9449.000000;1.006978
9448.000000;1.006851
9447.000000;1.006712
9446.000000;1.006572
9445.000000;1.006699
9444.000000;1.006902
9443.000000;1.006610
9442.000000;1.005796
9441.000000;1.005001
9440.000000;1.004373
9439.000000;1.003550
9438.000000;1.002525
9437.000000;1.001701
9436.000000;1.001067
9435.000000;1.000279
9434.000000;0.999601
9433.000000;0.999736
9432.000000;1.000565
9431.000000;1.001060
9430.000000;1.000706
9429.000000;1.000068
9428.000000;0.999695
9427.000000;0.999411
9426.000000;0.998956
9425.000000;0.998453
9424.000000;0.997944
9423.000000;0.997256
9422.000000;0.996574
9421.000000;0.996380
9420.000000;0.996633
9419.000000;0.996728
9418.000000;0.996397
9417.000000;0.995927
9416.000000;0.995448
9415.000000;0.994806
9414.000000;0.994174
9413.000000;0.993910
9412.000000;0.993765
9411.000000;0.993107
9410.000000;0.992003
9409.000000;0.991167
9408.000000;0.990826
9407.000000;0.990545
9406.000000;0.990213
9405.000000;0.990226
9404.000000;0.990589
9403.000000;0.990817
9402.000000;0.990864
9401.000000;0.991170
9400.000000;0.991666
9399.000000;0.991683
9398.000000;0.991029
9397.000000;0.990236
9396.000000;0.989586
9395.000000;0.988850
9394.000000;0.988133
9393.000000;0.987956
9392.000000;0.988248
9391.000000;0.988229
9390.000000;0.987560
9389.000000;0.986754
9388.000000;0.986224
9387.000000;0.985795
9386.000000;0.985342
9385.000000;0.985024
9384.000000;0.984670
9383.000000;0.983821
9382.000000;0.982617
9381.000000;0.981792
9380.000000;0.981603
9379.000000;0.981577
9378.000000;0.981423
9377.000000;0.981311
9376.000000;0.981124
9375.000000;0.980402
9374.000000;0.979231
9373.000000;0.978309
9372.000000;0.977898
9371.000000;0.977538
9370.000000;0.976997
9369.000000;0.976589
9368.000000;0.976412
9367.000000;0.976145
9366.000000;0.975807
9365.000000;0.975837
9364.000000;0.976223
9363.000000;0.976418
9362.000000;0.976303
9361.000000;0.976334
9360.000000;0.976536
9359.000000;0.976295
9358.000000;0.975428
9357.000000;0.974557
9356.000000;0.974140
9355.000000;0.973945
9354.000000;0.973726
9353.000000;0.973608
9352.000000;0.973553
9351.000000;0.973241
9350.000000;0.972724
9349.000000;0.972425
9348.000000;0.972319
9347.000000;0.971922
9346.000000;0.971251
9345.000000;0.970910
9344.000000;0.971055
9343.000000;0.971132
9342.000000;0.970855
9341.000000;0.970582
9340.000000;0.970507
9339.000000;0.970301
9338.000000;0.969817
9337.000000;0.969311
9336.000000;0.968764
9335.000000;0.967782
9334.000000;0.966404
9333.000000;0.965254
9332.000000;0.964674
9331.000000;0.964445
9330.000000;0.964462
9329.000000;0.964861
9328.000000;0.965350
9327.000000;0.965304
9326.000000;0.964737
9325.000000;0.964349
9324.000000;0.964392
9323.000000;0.964366
9322.000000;0.964007
9321.000000;0.963700
9320.000000;0.963648
9319.000000;0.963496
9318.000000;0.963082
9317.000000;0.962759
9316.000000;0.962675
9315.000000;0.962471
9314.000000;0.961958
9313.000000;0.961382
9312.000000;0.960845
9311.000000;0.960215
9310.000000;0.959716
9309.000000;0.959753
9308.000000;0.960022
9307.000000;0.959648
9306.000000;0.958445
9305.000000;0.957196
9304.000000;0.956479
9303.000000;0.956054
9302.000000;0.955612
9301.000000;0.955261
9300.000000;0.955015
9299.000000;0.954648
9298.000000;0.954321
9297.000000;0.954565
9296.000000;0.955342
9295.000000;0.955880
9294.000000;0.955726
9293.000000;0.955209
9292.000000;0.954633
9291.000000;0.953847
9290.000000;0.952897
9289.000000;0.952291
9288.000000;0.952262
9287.000000;0.952439
9286.000000;0.952515
9285.000000;0.952580
9284.000000;0.952594
9283.000000;0.952259
9282.000000;0.951635
9281.000000;0.951160
9280.000000;0.950857
9279.000000;0.950265
9278.000000;0.949335
9277.000000;0.948622
9276.000000;0.948373
9275.000000;0.948223
9274.000000;0.947986
9273.000000;0.947946
9272.000000;0.948104
9271.000000;0.947949
9270.000000;0.947311
9269.000000;0.946701
9268.000000;0.946471
9267.000000;0.946326
9266.000000;0.945975
9265.000000;0.945595
9264.000000;0.945353
9263.000000;0.945073
9262.000000;0.944660
9261.000000;0.944276
9260.000000;0.943917
9259.000000;0.943406
9258.000000;0.942941
9257.000000;0.942970
9256.000000;0.943385
9255.000000;0.943541
9254.000000;0.943203
9253.000000;0.942795
9252.000000;0.942551
9251.000000;0.942170
9250.000000;0.941515
9249.000000;0.940878
9248.000000;0.940341
9247.000000;0.939614
9246.000000;0.938754
9245.000000;0.938307
9244.000000;0.938487
9243.000000;0.938831
9242.000000;0.938901
9241.000000;0.938706
9240.000000;0.938265
9239.000000;0.937477
9238.000000;0.936627
9237.000000;0.936277
9236.000000;0.936434
9235.000000;0.936497
9234.000000;0.936240
9233.000000;0.936121
9232.000000;0.936395
9231.000000;0.936644
9230.000000;0.936492
9229.000000;0.936088
9228.000000;0.935616
9227.000000;0.934988
9226.000000;0.934330
9225.000000;0.934078
9224.000000;0.934253
9223.000000;0.934242
9222.000000;0.933662
9221.000000;0.932882
9220.000000;0.932393
9219.000000;0.932198
9218.000000;0.932107
9217.000000;0.932117
9216.000000;0.932163
9215.000000;0.931976
9214.000000;0.931461
9213.000000;0.930846
9212.000000;0.930279
9211.000000;0.929699
9210.000000;0.929207
9209.000000;0.929106
9208.000000;0.929425
9207.000000;0.929834
9206.000000;0.930119
9205.000000;0.930300
9204.000000;0.930263
9203.000000;0.929795
9202.000000;0.929020
9201.000000;0.928275
9200.000000;0.927535
9199.000000;0.926506
9198.000000;0.925355
9197.000000;0.924733
9196.000000;0.924947
9195.000000;0.925573
9194.000000;0.926008
9193.000000;0.926008
9192.000000;0.925679
9191.000000;0.925324
9190.000000;0.925266
9189.000000;0.925414
9188.000000;0.925166
9187.000000;0.924199
9186.000000;0.923106
9185.000000;0.922670
9184.000000;0.922777
9183.000000;0.922724
9182.000000;0.922382
9181.000000;0.922218
9180.000000;0.922336
9179.000000;0.922337
9178.000000;0.922137
9177.000000;0.922079
9176.000000;0.922163
9175.000000;0.921939
9174.000000;0.921282
9173.000000;0.920624
9172.000000;0.920305
9171.000000;0.920267
9170.000000;0.920385
9169.000000;0.920511
9168.000000;0.920258
9167.000000;0.919371
9166.000000;0.918261
9165.000000;0.917574
9164.000000;0.917345
9163.000000;0.917217
9162.000000;0.917237
9161.000000;0.917642
9160.000000;0.918040
9159.000000;0.917754
9158.000000;0.916926
9157.000000;0.916361
9156.000000;0.916279
9155.000000;0.916131
9154.000000;0.915688
9153.000000;0.915390
9152.000000;0.915483
9151.000000;0.915646
9150.000000;0.915632
9149.000000;0.915536
9148.000000;0.915305
9147.000000;0.914761
9146.000000;0.914194
9145.000000;0.914123
9144.000000;0.914386
9143.000000;0.914246
9142.000000;0.913523
9141.000000;0.912855
9140.000000;0.912697
9139.000000;0.912813
9138.000000;0.912852
9137.000000;0.912691
9136.000000;0.912140
9135.000000;0.911075
9134.000000;0.909981
9133.000000;0.909583
9132.000000;0.909827
9131.000000;0.909967
9130.000000;0.909732
9129.000000;0.909618
9128.000000;0.909894
9127.000000;0.910157
9126.000000;0.910062
9125.000000;0.909747
9124.000000;0.909333
9123.000000;0.908734
9122.000000;0.908151
9121.000000;0.908033
9120.000000;0.908333
9119.000000;0.908468
9118.000000;0.908159
9117.000000;0.907715
9116.000000;0.907385
9115.000000;0.907102
9114.000000;0.906913
9113.000000;0.906941
9112.000000;0.906868
9111.000000;0.906218
9110.000000;0.905263
9109.000000;0.904858
9108.000000;0.905245
9107.000000;0.905747
9106.000000;0.905813
9105.000000;0.905580
9104.000000;0.905266
9103.000000;0.904782
9102.000000;0.904225
9101.000000;0.903987
9100.000000;0.904103
9099.000000;0.904092
9098.000000;0.903692
9097.000000;0.903159
9096.000000;0.902692
9095.000000;0.902177
9094.000000;0.901633
9093.000000;0.901293
9092.000000;0.901090
9091.000000;0.900671
9090.000000;0.900050
9089.000000;0.899643
9088.000000;0.899562
9087.000000;0.899469
9086.000000;0.899230
9085.000000;0.899104
9084.000000;0.899172
9083.000000;0.899204
9082.000000;0.899160
9081.000000;0.899225
9080.000000;0.899304
9079.000000;0.899126
9078.000000;0.898848
9077.000000;0.898898
9076.000000;0.899185
9075.000000;0.899169
9074.000000;0.898735
9073.000000;0.898290
9072.000000;0.897952
9071.000000;0.897400
9070.000000;0.896596
9069.000000;0.895925
9068.000000;0.895532
9067.000000;0.895239
9066.000000;0.895129
9065.000000;0.895448
9064.000000;0.895888
9063.000000;0.895778
9062.000000;0.895111
9061.000000;0.894552
9060.000000;0.894321
9059.000000;0.893926
9058.000000;0.893221
9057.000000;0.892822
9056.000000;0.893117
9055.000000;0.893631
9054.000000;0.893760
9053.000000;0.893514
