Criado como novo conjunto de dados;"e2410_daniel_v2.spp","16202.5 Secs"
cm-1;Abs
10000.000000;0.415499
9999.000000;0.415139
9998.000000;0.414828
9997.000000;0.414512
9996.000000;0.414121
9995.000000;0.413537
9994.000000;0.412751
9993.000000;0.412022
9992.000000;0.411589
9991.000000;0.411340
9990.000000;0.410910
9989.000000;0.410144
9988.000000;0.409250
9987.000000;0.408538
9986.000000;0.408117
9985.000000;0.407876
9984.000000;0.407616
9983.000000;0.407210
9982.000000;0.406697
9981.000000;0.406241
9980.000000;0.405949
9979.000000;0.405757
9978.000000;0.405545
9977.000000;0.405265
9976.000000;0.404913
9975.000000;0.404457
9974.000000;0.403915
9973.000000;0.403394
9972.000000;0.402955
9971.000000;0.402512
9970.000000;0.401972
9969.000000;0.401393
9968.000000;0.400876
9967.000000;0.400382
9966.000000;0.399804
9965.000000;0.399142
9964.000000;0.398484
9963.000000;0.397858
9962.000000;0.397260
9961.000000;0.396757
9960.000000;0.396415
9959.000000;0.396154
9958.000000;0.395803
9957.000000;0.395297
9956.000000;0.394714
9955.000000;0.394132
9954.000000;0.393565
9953.000000;0.393009
9952.000000;0.392462
9951.000000;0.391913
9950.000000;0.391387
9949.000000;0.390932
9948.000000;0.390513
9947.000000;0.389994
9946.000000;0.389347
9945.000000;0.388762
9944.000000;0.388412
9943.000000;0.388197
9942.000000;0.387863
9941.000000;0.387336
9940.000000;0.386763
9939.000000;0.386271
9938.000000;0.385838
9937.000000;0.385406
9936.000000;0.384953
9935.000000;0.384455
9934.000000;0.383907
9933.000000;0.383385
9932.000000;0.382972
9931.000000;0.382625
9930.000000;0.382238
9929.000000;0.381818
9928.000000;0.381462
9927.000000;0.381162
9926.000000;0.380775
9925.000000;0.380218
9924.000000;0.379547
9923.000000;0.378821
9922.000000;0.378032
9921.000000;0.377201
9920.000000;0.376446
9919.000000;0.375839
9918.000000;0.375318
9917.000000;0.374810
9916.000000;0.374379
9915.000000;0.374133
9914.000000;0.374023
9913.000000;0.373853
9912.000000;0.373474
9911.000000;0.372928
9910.000000;0.372356
9909.000000;0.371851
9908.000000;0.371439
9907.000000;0.371123
9906.000000;0.370865
9905.000000;0.370525
9904.000000;0.369950
9903.000000;0.369155
9902.000000;0.368354
9901.000000;0.367743
9900.000000;0.367328
9899.000000;0.366996
9898.000000;0.366677
9897.000000;0.366326
9896.000000;0.365872
9895.000000;0.365300
9894.000000;0.364742
9893.000000;0.364339
9892.000000;0.364030
9891.000000;0.363633
9890.000000;0.363104
9889.000000;0.362565
9888.000000;0.362098
9887.000000;0.361668
9886.000000;0.361272
9885.000000;0.360943
9884.000000;0.360583
9883.000000;0.359986
9882.000000;0.359127
9881.000000;0.358249
9880.000000;0.357588
9879.000000;0.357133
9878.000000;0.356759
9877.000000;0.356419
9876.000000;0.356115
9875.000000;0.355783
9874.000000;0.355366
9873.000000;0.354919
9872.000000;0.354529
9871.000000;0.354191
9870.000000;0.353823
9869.000000;0.353366
9868.000000;0.352803
9867.000000;0.352175
9866.000000;0.351589
9865.000000;0.351138
9864.000000;0.350768
9863.000000;0.350342
9862.000000;0.349854
9861.000000;0.349455
9860.000000;0.349212
9859.000000;0.348972
9858.000000;0.348565
9857.000000;0.348023
9856.000000;0.347496
9855.000000;0.347041
9854.000000;0.346565
9853.000000;0.345938
9852.000000;0.345130
9851.000000;0.344304
9850.000000;0.343753
9849.000000;0.343618
9848.000000;0.343650
9847.000000;0.343420
9846.000000;0.342785
9845.000000;0.341982
9844.000000;0.341244
9843.000000;0.340548
9842.000000;0.339818
9841.000000;0.339148
9840.000000;0.338664
9839.000000;0.338331
9838.000000;0.338058
9837.000000;0.337846
9836.000000;0.337691
9835.000000;0.337490
9834.000000;0.337178
9833.000000;0.336834
9832.000000;0.336491
9831.000000;0.335991
9830.000000;0.335183
9829.000000;0.334196
9828.000000;0.333324
9827.000000;0.332718
9826.000000;0.332321
9825.000000;0.332027
9824.000000;0.331776
9823.000000;0.331523
9822.000000;0.331239
9821.000000;0.330915
9820.000000;0.330523
9819.000000;0.330024
9818.000000;0.329457
9817.000000;0.328914
9816.000000;0.328394
9815.000000;0.327809
9814.000000;0.327190
9813.000000;0.326709
9812.000000;0.326412
9811.000000;0.326103
9810.000000;0.325628
9809.000000;0.325116
9808.000000;0.324766
9807.000000;0.324539
9806.000000;0.324240
9805.000000;0.323788
9804.000000;0.323229
9803.000000;0.322573
9802.000000;0.321828
9801.000000;0.321113
9800.000000;0.320585
9799.000000;0.320260
9798.000000;0.320026
9797.000000;0.319760
9796.000000;0.319370
9795.000000;0.318784
9794.000000;0.318063
9793.000000;0.317436
9792.000000;0.317083
9791.000000;0.316920
9790.000000;0.316700
9789.000000;0.316282
9788.000000;0.315698
9787.000000;0.315062
9786.000000;0.314499
9785.000000;0.314107
9784.000000;0.313840
9783.000000;0.313514
9782.000000;0.313011
9781.000000;0.312433
9780.000000;0.311952
9779.000000;0.311599
9778.000000;0.311284
9777.000000;0.310936
9776.000000;0.310508
9775.000000;0.309951
9774.000000;0.309309
9773.000000;0.308764
9772.000000;0.308445
9771.000000;0.308262
9770.000000;0.308023
9769.000000;0.307667
9768.000000;0.307259
9767.000000;0.306829
9766.000000;0.306332
9765.000000;0.305748
9764.000000;0.305117
9763.000000;0.304512
9762.000000;0.304009
9761.000000;0.303627
9760.000000;0.303259
9759.000000;0.302773
9758.000000;0.302228
9757.000000;0.301828
9756.000000;0.301622
9755.000000;0.301394
9754.000000;0.300949
9753.000000;0.300340
9752.000000;0.299701
9751.000000;0.299045
9750.000000;0.298382
9749.000000;0.297857
9748.000000;0.297590
9747.000000;0.297477
9746.000000;0.297315
9745.000000;0.297019
9744.000000;0.296570
9743.000000;0.295897
9742.000000;0.295035
9741.000000;0.294257
9740.000000;0.293814
9739.000000;0.293603
9738.000000;0.293289
9737.000000;0.292714
9736.000000;0.291989
9735.000000;0.291264
9734.000000;0.290621
9733.000000;0.290160
9732.000000;0.289958
9731.000000;0.289901
9730.000000;0.289747
9729.000000;0.289382
9728.000000;0.288912
9727.000000;0.288500
9726.000000;0.288198
9725.000000;0.287940
9724.000000;0.287598
9723.000000;0.287073
9722.000000;0.286435
9721.000000;0.285896
9720.000000;0.285551
9719.000000;0.285226
9718.000000;0.284707
9717.000000;0.284049
9716.000000;0.283485
9715.000000;0.283118
9714.000000;0.282846
9713.000000;0.282556
9712.000000;0.282221
9711.000000;0.281834
9710.000000;0.281401
9709.000000;0.280976
9708.000000;0.280589
9707.000000;0.280163
9706.000000;0.279630
9705.000000;0.279071
9704.000000;0.278617
9703.000000;0.278246
9702.000000;0.277841
9701.000000;0.277384
9700.000000;0.276953
9699.000000;0.276570
9698.000000;0.276194
9697.000000;0.275834
9696.000000;0.275508
9695.000000;0.275123
9694.000000;0.274572
9693.000000;0.273931
9692.000000;0.273407
9691.000000;0.273059
9690.000000;0.272730
9689.000000;0.272269
9688.000000;0.271700
9687.000000;0.271129
9686.000000;0.270617
9685.000000;0.270174
9684.000000;0.269787
9683.000000;0.269417
9682.000000;0.269040
9681.000000;0.268697
9680.000000;0.268425
9679.000000;0.268166
9678.000000;0.267821
9677.000000;0.267375
9676.000000;0.266893
9675.000000;0.266406
9674.000000;0.265901
9673.000000;0.265407
9672.000000;0.264989
9671.000000;0.264652
9670.000000;0.264322
9669.000000;0.263943
9668.000000;0.263514
9667.000000;0.263069
9666.000000;0.262652
9665.000000;0.262299
9664.000000;0.261994
9663.000000;0.261656
9662.000000;0.261245
9661.000000;0.260815
9660.000000;0.260427
9659.000000;0.260051
9658.000000;0.259629
9657.000000;0.259163
9656.000000;0.258675
9655.000000;0.258147
9654.000000;0.257587
9653.000000;0.257083
9652.000000;0.256707
9651.000000;0.256398
9650.000000;0.256048
9649.000000;0.255625
9648.000000;0.255160
9647.000000;0.254662
9646.000000;0.254167
9645.000000;0.253774
9644.000000;0.253523
9643.000000;0.253282
9642.000000;0.252886
9641.000000;0.252338
9640.000000;0.251768
9639.000000;0.251246
9638.000000;0.250754
9637.000000;0.250304
9636.000000;0.249950
9635.000000;0.249680
9634.000000;0.249389
9633.000000;0.248968
9632.000000;0.248380
9631.000000;0.247685
9630.000000;0.247058
9629.000000;0.246695
9628.000000;0.246625
9627.000000;0.246632
9626.000000;0.246473
9625.000000;0.246110
9624.000000;0.245654
9623.000000;0.245184
9622.000000;0.244723
9621.000000;0.244319
9620.000000;0.244008
9619.000000;0.243715
9618.000000;0.243338
9617.000000;0.242887
9616.000000;0.242437
9615.000000;0.241985
9614.000000;0.241479
9613.000000;0.240950
9612.000000;0.240495
9611.000000;0.240141
9610.000000;0.239831
9609.000000;0.239528
9608.000000;0.239242
9607.000000;0.238955
9606.000000;0.238625
9605.000000;0.238238
9604.000000;0.237790
9603.000000;0.237250
9602.000000;0.236628
9601.000000;0.236049
9600.000000;0.235634
9599.000000;0.235357
9598.000000;0.235083
9597.000000;0.234725
9596.000000;0.234279
9595.000000;0.233775
9594.000000;0.233304
9593.000000;0.233017
9592.000000;0.232946
9591.000000;0.232862
9590.000000;0.232470
9589.000000;0.231751
9588.000000;0.230985
9587.000000;0.230428
9586.000000;0.230094
9585.000000;0.229852
9584.000000;0.229610
9583.000000;0.229335
9582.000000;0.229006
9581.000000;0.228607
9580.000000;0.228152
9579.000000;0.227693
9578.000000;0.227292
9577.000000;0.226970
9576.000000;0.226639
9575.000000;0.226150
9574.000000;0.225479
9573.000000;0.224809
9572.000000;0.224365
9571.000000;0.224182
9570.000000;0.224096
9569.000000;0.223932
9568.000000;0.223604
9567.000000;0.223103
9566.000000;0.222483
9565.000000;0.221850
9564.000000;0.221310
9563.000000;0.220904
9562.000000;0.220623
9561.000000;0.220432
9560.000000;0.220254
9559.000000;0.219993
9558.000000;0.219646
9557.000000;0.219315
9556.000000;0.219047
9555.000000;0.218739
9554.000000;0.218297
9553.000000;0.217797
9552.000000;0.217373
9551.000000;0.217016
9550.000000;0.216597
9549.000000;0.216060
9548.000000;0.215464
9547.000000;0.214885
9546.000000;0.214379
9545.000000;0.214024
9544.000000;0.213851
9543.000000;0.213753
9542.000000;0.213564
9541.000000;0.213219
9540.000000;0.212779
9539.000000;0.212320
9538.000000;0.211896
9537.000000;0.211557
9536.000000;0.211298
9535.000000;0.211012
9534.000000;0.210602
9533.000000;0.210115
9532.000000;0.209685
9531.000000;0.209349
9530.000000;0.209033
9529.000000;0.208687
9528.000000;0.208334
9527.000000;0.207973
9526.000000;0.207556
9525.000000;0.207067
9524.000000;0.206558
9523.000000;0.206092
9522.000000;0.205710
9521.000000;0.205440
9520.000000;0.205267
9519.000000;0.205095
9518.000000;0.204805
9517.000000;0.204354
9516.000000;0.203807
9515.000000;0.203277
9514.000000;0.202861
9513.000000;0.202586
9512.000000;0.202371
9511.000000;0.202086
9510.000000;0.201690
9509.000000;0.201260
9508.000000;0.200858
9507.000000;0.200454
9506.000000;0.200044
9505.000000;0.199715
9504.000000;0.199499
9503.000000;0.199257
9502.000000;0.198835
9501.000000;0.198263
9500.000000;0.197691
9499.000000;0.197200
9498.000000;0.196783
9497.000000;0.196470
9496.000000;0.196294
9495.000000;0.196179
9494.000000;0.195986
9493.000000;0.195670
9492.000000;0.195278
9491.000000;0.194823
9490.000000;0.194285
9489.000000;0.193733
9488.000000;0.193298
9487.000000;0.193017
9486.000000;0.192800
9485.000000;0.192561
9484.000000;0.192306
9483.000000;0.192054
9482.000000;0.191765
9481.000000;0.191354
9480.000000;0.190764
9479.000000;0.190031
9478.000000;0.189339
9477.000000;0.188926
9476.000000;0.188854
9475.000000;0.188899
9474.000000;0.188765
9473.000000;0.188368
9472.000000;0.187851
9471.000000;0.187375
9470.000000;0.187016
9469.000000;0.186793
9468.000000;0.186669
9467.000000;0.186518
9466.000000;0.186235
9465.000000;0.185874
9464.000000;0.185557
9463.000000;0.185264
9462.000000;0.184859
9461.000000;0.184315
9460.000000;0.183792
9459.000000;0.183438
9458.000000;0.183230
9457.000000;0.183043
9456.000000;0.182789
9455.000000;0.182450
9454.000000;0.182044
9453.000000;0.181628
9452.000000;0.181264
9451.000000;0.180955
9450.000000;0.180633
9449.000000;0.180233
9448.000000;0.179751
9447.000000;0.179242
9446.000000;0.178797
9445.000000;0.178503
9444.000000;0.178350
9443.000000;0.178213
9442.000000;0.177984
9441.000000;0.177693
9440.000000;0.177427
9439.000000;0.177163
9438.000000;0.176789
9437.000000;0.176292
9436.000000;0.175806
9435.000000;0.175454
9434.000000;0.175214
9433.000000;0.174976
9432.000000;0.174660
9431.000000;0.174260
9430.000000;0.173830
9429.000000;0.173443
9428.000000;0.173120
9427.000000;0.172791
9426.000000;0.172383
9425.000000;0.171939
9424.000000;0.171593
9423.000000;0.171390
9422.000000;0.171219
9421.000000;0.170959
9420.000000;0.170636
9419.000000;0.170350
9418.000000;0.170098
9417.000000;0.169730
9416.000000;0.169125
9415.000000;0.168368
9414.000000;0.167708
9413.000000;0.167334
9412.000000;0.167212
9411.000000;0.167151
9410.000000;0.167000
9409.000000;0.166743
9408.000000;0.166421
9407.000000;0.166065
9406.000000;0.165707
9405.000000;0.165385
9404.000000;0.165106
9403.000000;0.164831
9402.000000;0.164543
9401.000000;0.164260
9400.000000;0.163985
9399.000000;0.163687
9398.000000;0.163370
9397.000000;0.163091
9396.000000;0.162874
9395.000000;0.162659
9394.000000;0.162390
9393.000000;0.162083
9392.000000;0.161779
9391.000000;0.161476
9390.000000;0.161166
9389.000000;0.160867
9388.000000;0.160570
9387.000000;0.160226
9386.000000;0.159835
9385.000000;0.159473
9384.000000;0.159179
9383.000000;0.158885
9382.000000;0.158536
9381.000000;0.158192
9380.000000;0.157920
9379.000000;0.157657
9378.000000;0.157293
9377.000000;0.156848
9376.000000;0.156442
9375.000000;0.156125
9374.000000;0.155838
9373.000000;0.155528
9372.000000;0.155202
9371.000000;0.154866
9370.000000;0.154506
9369.000000;0.154144
9368.000000;0.153844
9367.000000;0.153645
9366.000000;0.153533
9365.000000;0.153470
9364.000000;0.153391
9363.000000;0.153208
9362.000000;0.152875
9361.000000;0.152438
9360.000000;0.151987
9359.000000;0.151558
9358.000000;0.151140
9357.000000;0.150750
9356.000000;0.150435
9355.000000;0.150200
9354.000000;0.149999
9353.000000;0.149781
9352.000000;0.149521
9351.000000;0.149222
9350.000000;0.148904
9349.000000;0.148585
9348.000000;0.148253
9347.000000;0.147877
9346.000000;0.147481
9345.000000;0.147144
9344.000000;0.146893
9343.000000;0.146655
9342.000000;0.146350
9341.000000;0.145994
9340.000000;0.145646
9339.000000;0.145318
9338.000000;0.144995
9337.000000;0.144689
9336.000000;0.144413
9335.000000;0.144136
9334.000000;0.143832
9333.000000;0.143534
9332.000000;0.143279
9331.000000;0.143041
9330.000000;0.142789
9329.000000;0.142572
9328.000000;0.142454
9327.000000;0.142379
9326.000000;0.142192
9325.000000;0.141806
9324.000000;0.141295
9323.000000;0.140807
9322.000000;0.140439
9321.000000;0.140179
9320.000000;0.139931
9319.000000;0.139601
9318.000000;0.139186
9317.000000;0.138772
9316.000000;0.138453
9315.000000;0.138244
9314.000000;0.138095
9313.000000;0.137939
9312.000000;0.137699
9311.000000;0.137332
9310.000000;0.136898
9309.000000;0.136533
9308.000000;0.136317
9307.000000;0.136198
9306.000000;0.136064
9305.000000;0.135837
9304.000000;0.135484
9303.000000;0.135011
9302.000000;0.134515
9301.000000;0.134157
9300.000000;0.134009
9299.000000;0.133971
9298.000000;0.133895
9297.000000;0.133735
9296.000000;0.133526
9295.000000;0.133269
9294.000000;0.132947
9293.000000;0.132583
9292.000000;0.132222
9291.000000;0.131865
9290.000000;0.131502
9289.000000;0.131167
9288.000000;0.130902
9287.000000;0.130691
9286.000000;0.130497
9285.000000;0.130323
9284.000000;0.130173
9283.000000;0.129981
9282.000000;0.129660
9281.000000;0.129204
9280.000000;0.128694
9279.000000;0.128231
9278.000000;0.127913
9277.000000;0.127804
9276.000000;0.127831
9275.000000;0.127777
9274.000000;0.127465
9273.000000;0.126942
9272.000000;0.126433
9271.000000;0.126111
9270.000000;0.125984
9269.000000;0.125950
9268.000000;0.125883
9267.000000;0.125667
9266.000000;0.125260
9265.000000;0.124745
9264.000000;0.124268
9263.000000;0.123915
9262.000000;0.123670
9261.000000;0.123490
9260.000000;0.123348
9259.000000;0.123229
9258.000000;0.123101
9257.000000;0.122926
9256.000000;0.122669
9255.000000;0.122316
9254.000000;0.121910
9253.000000;0.121532
9252.000000;0.121234
9251.000000;0.121002
9250.000000;0.120809
9249.000000;0.120659
9248.000000;0.120544
9247.000000;0.120400
9246.000000;0.120163
9245.000000;0.119852
9244.000000;0.119549
9243.000000;0.119319
9242.000000;0.119164
9241.000000;0.119028
9240.000000;0.118823
9239.000000;0.118488
9238.000000;0.118050
9237.000000;0.117605
9236.000000;0.117223
9235.000000;0.116917
9234.000000;0.116686
9233.000000;0.116532
9232.000000;0.116407
9231.000000;0.116223
9230.000000;0.115960
9229.000000;0.115677
9228.000000;0.115405
9227.000000;0.115099
9226.000000;0.114760
9225.000000;0.114498
9224.000000;0.114385
9223.000000;0.114320
9222.000000;0.114127
9221.000000;0.113755
9220.000000;0.113304
9219.000000;0.112885
9218.000000;0.112539
9217.000000;0.112263
9216.000000;0.112046
9215.000000;0.111868
9214.000000;0.111706
9213.000000;0.111556
9212.000000;0.111404
9211.000000;0.111225
9210.000000;0.111025
9209.000000;0.110844
9208.000000;0.110695
9207.000000;0.110535
9206.000000;0.110337
9205.000000;0.110135
9204.000000;0.109952
9203.000000;0.109733
9202.000000;0.109402
9201.000000;0.108961
9200.000000;0.108486
9199.000000;0.108069
9198.000000;0.107796
9197.000000;0.107704
9196.000000;0.107712
9195.000000;0.107634
9194.000000;0.107351
9193.000000;0.106930
9192.000000;0.106535
9191.000000;0.106252
9190.000000;0.106063
9189.000000;0.105932
9188.000000;0.105838
9187.000000;0.105741
9186.000000;0.105587
9185.000000;0.105358
9184.000000;0.105087
9183.000000;0.104829
9182.000000;0.104624
9181.000000;0.104463
9180.000000;0.104281
9179.000000;0.104022
9178.000000;0.103716
9177.000000;0.103445
9176.000000;0.103240
9175.000000;0.103053
9174.000000;0.102857
9173.000000;0.102673
9172.000000;0.102492
9171.000000;0.102251
9170.000000;0.101936
9169.000000;0.101625
9168.000000;0.101380
9167.000000;0.101170
9166.000000;0.100957
9165.000000;0.100760
9164.000000;0.100590
9163.000000;0.100396
9162.000000;0.100139
9161.000000;0.099861
9160.000000;0.099607
9159.000000;0.099338
9158.000000;0.099002
9157.000000;0.098631
9156.000000;0.098306
9155.000000;0.098051
9154.000000;0.097832
9153.000000;0.097626
9152.000000;0.097442
9151.000000;0.097310
9150.000000;0.097269
9149.000000;0.097313
9148.000000;0.097333
9147.000000;0.097187
9146.000000;0.096874
9145.000000;0.096545
9144.000000;0.096319
9143.000000;0.096160
9142.000000;0.095972
9141.000000;0.095729
9140.000000;0.095430
9139.000000;0.095061
9138.000000;0.094673
9137.000000;0.094409
9136.000000;0.094348
9135.000000;0.094371
9134.000000;0.094292
9133.000000;0.094064
9132.000000;0.093773
9131.000000;0.093498
9130.000000;0.093264
9129.000000;0.093096
9128.000000;0.092983
9127.000000;0.092840
9126.000000;0.092582
9125.000000;0.092239
9124.000000;0.091911
9123.000000;0.091660
9122.000000;0.091487
9121.000000;0.091386
9120.000000;0.091321
9119.000000;0.091200
9118.000000;0.090955
9117.000000;0.090632
9116.000000;0.090337
9115.000000;0.090108
9114.000000;0.089891
9113.000000;0.089633
9112.000000;0.089347
9111.000000;0.089102
9110.000000;0.088971
9109.000000;0.088951
9108.000000;0.088911
9107.000000;0.088704
9106.000000;0.088344
9105.000000;0.088008
9104.000000;0.087813
9103.000000;0.087690
9102.000000;0.087527
9101.000000;0.087333
9100.000000;0.087181
9099.000000;0.087067
9098.000000;0.086943
9097.000000;0.086819
9096.000000;0.086720
9095.000000;0.086593
9094.000000;0.086368
9093.000000;0.086072
9092.000000;0.085794
9091.000000;0.085580
9090.000000;0.085416
9089.000000;0.085293
9088.000000;0.085201
9087.000000;0.085101
9086.000000;0.084968
9085.000000;0.084839
9084.000000;0.084734
9083.000000;0.084586
9082.000000;0.084328
9081.000000;0.083986
9080.000000;0.083631
9079.000000;0.083295
9078.000000;0.083008
9077.000000;0.082842
9076.000000;0.082804
9075.000000;0.082754
9074.000000;0.082536
9073.000000;0.082175
9072.000000;0.081834
9071.000000;0.081600
9070.000000;0.081431
9069.000000;0.081279
9068.000000;0.081157
9067.000000;0.081061
9066.000000;0.080933
9065.000000;0.080744
9064.000000;0.080544
9063.000000;0.080397
9062.000000;0.080312
9061.000000;0.080237
9060.000000;0.080097
9059.000000;0.079855
9058.000000;0.079572
9057.000000;0.079366
9056.000000;0.079278
9055.000000;0.079212
9054.000000;0.079046
9053.000000;0.078768
