Criado como novo conjunto de dados;"e2410_daniel_v2.spp","54904.6 Secs"
cm-1;Abs
10000.000000;1.156460
9999.000000;1.155562
9998.000000;1.154666
9997.000000;1.153772
9996.000000;1.152879
9995.000000;1.151989
9994.000000;1.151098
9993.000000;1.150213
9992.000000;1.149324
9991.000000;1.148447
9990.000000;1.147553
9989.000000;1.146702
9988.000000;1.145686
9987.000000;1.144487
9986.000000;1.143728
9985.000000;1.143790
9984.000000;1.144216
9983.000000;1.144221
9982.000000;1.143688
9981.000000;1.143086
9980.000000;1.142639
9979.000000;1.142184
9978.000000;1.141758
9977.000000;1.141656
9976.000000;1.141834
9975.000000;1.141833
9974.000000;1.141367
9973.000000;1.140482
9972.000000;1.139163
9971.000000;1.137398
9970.000000;1.135660
9969.000000;1.134666
9968.000000;1.134489
9967.000000;1.134434
9966.000000;1.133962
9965.000000;1.133270
9964.000000;1.132825
9963.000000;1.132814
9962.000000;1.133180
9961.000000;1.133708
9960.000000;1.133891
9959.000000;1.133217
9958.000000;1.131854
9957.000000;1.130652
9956.000000;1.130209
9955.000000;1.130246
9954.000000;1.130093
9953.000000;1.129496
9952.000000;1.128746
9951.000000;1.128220
9950.000000;1.127963
9949.000000;1.127631
9948.000000;1.126862
9947.000000;1.125804
9946.000000;1.125084
9945.000000;1.125023
9944.000000;1.125095
9943.000000;1.124545
9942.000000;1.123388
9941.000000;1.122321
9940.000000;1.121744
9939.000000;1.121406
9938.000000;1.120969
9937.000000;1.120419
9936.000000;1.119873
9935.000000;1.119417
9934.000000;1.119238
9933.000000;1.119500
9932.000000;1.119998
9931.000000;1.120274
9930.000000;1.120104
9929.000000;1.119626
9928.000000;1.118982
9927.000000;1.118158
9926.000000;1.117127
9925.000000;1.115884
9924.000000;1.114429
9923.000000;1.112997
9922.000000;1.112110
9921.000000;1.112014
9920.000000;1.112261
9919.000000;1.112252
9918.000000;1.111975
9917.000000;1.111745
9916.000000;1.111445
9915.000000;1.110713
9914.000000;1.109736
9913.000000;1.109131
9912.000000;1.109024
9911.000000;1.108882
9910.000000;1.108336
9909.000000;1.107579
9908.000000;1.106833
9907.000000;1.106030
9906.000000;1.105186
9905.000000;1.104564
9904.000000;1.104236
9903.000000;1.103927
9902.000000;1.103496
9901.000000;1.103146
9900.000000;1.102965
9899.000000;1.102647
9898.000000;1.101901
9897.000000;1.100867
9896.000000;1.099952
9895.000000;1.099400
9894.000000;1.099128
9893.000000;1.098806
9892.000000;1.098142
9891.000000;1.097222
9890.000000;1.096477
9889.000000;1.096158
9888.000000;1.096045
9887.000000;1.095885
9886.000000;1.095817
9885.000000;1.095972
9884.000000;1.095968
9883.000000;1.095352
9882.000000;1.094312
9881.000000;1.093399
9880.000000;1.092703
9879.000000;1.091917
9878.000000;1.091062
9877.000000;1.090493
9876.000000;1.090222
9875.000000;1.089900
9874.000000;1.089515
9873.000000;1.089479
9872.000000;1.089896
9871.000000;1.090274
9870.000000;1.090138
9869.000000;1.089507
9868.000000;1.088654
9867.000000;1.087789
9866.000000;1.087070
9865.000000;1.086544
9864.000000;1.086002
9863.000000;1.085239
9862.000000;1.084413
9861.000000;1.083767
9860.000000;1.083124
9859.000000;1.082149
9858.000000;1.081016
9857.000000;1.080241
9856.000000;1.079867
9855.000000;1.079423
9854.000000;1.078758
9853.000000;1.078352
9852.000000;1.078577
9851.000000;1.079138
9850.000000;1.079410
9849.000000;1.079015
9848.000000;1.077986
9847.000000;1.076710
9846.000000;1.075752
9845.000000;1.075352
9844.000000;1.075057
9843.000000;1.074247
9842.000000;1.073040
9841.000000;1.072253
9840.000000;1.072421
9839.000000;1.073243
9838.000000;1.073993
9837.000000;1.074082
9836.000000;1.073306
9835.000000;1.071973
9834.000000;1.070812
9833.000000;1.070312
9832.000000;1.070164
9831.000000;1.069739
9830.000000;1.069034
9829.000000;1.068586
9828.000000;1.068516
9827.000000;1.068291
9826.000000;1.067569
9825.000000;1.066679
9824.000000;1.066079
9823.000000;1.065820
9822.000000;1.065733
9821.000000;1.065684
9820.000000;1.065475
9819.000000;1.064909
9818.000000;1.064114
9817.000000;1.063470
9816.000000;1.063081
9815.000000;1.062671
9814.000000;1.062054
9813.000000;1.061333
9812.000000;1.060582
9811.000000;1.059754
9810.000000;1.058996
9809.000000;1.058619
9808.000000;1.058623
9807.000000;1.058646
9806.000000;1.058489
9805.000000;1.058294
9804.000000;1.058097
9803.000000;1.057619
9802.000000;1.056690
9801.000000;1.055526
9800.000000;1.054432
9799.000000;1.053521
9798.000000;1.052832
9797.000000;1.052427
9796.000000;1.052249
9795.000000;1.052095
9794.000000;1.051850
9793.000000;1.051531
9792.000000;1.051121
9791.000000;1.050551
9790.000000;1.049845
9789.000000;1.049068
9788.000000;1.048214
9787.000000;1.047357
9786.000000;1.046744
9785.000000;1.046477
9784.000000;1.046287
9783.000000;1.045980
9782.000000;1.045853
9781.000000;1.046182
9780.000000;1.046535
9779.000000;1.046193
9778.000000;1.045133
9777.000000;1.043964
9776.000000;1.042974
9775.000000;1.041944
9774.000000;1.040877
9773.000000;1.040188
9772.000000;1.040018
9771.000000;1.039991
9770.000000;1.039865
9769.000000;1.039837
9768.000000;1.039956
9767.000000;1.039798
9766.000000;1.039051
9765.000000;1.037996
9764.000000;1.037077
9763.000000;1.036363
9762.000000;1.035742
9761.000000;1.035309
9760.000000;1.035240
9759.000000;1.035442
9758.000000;1.035568
9757.000000;1.035290
9756.000000;1.034520
9755.000000;1.033502
9754.000000;1.032668
9753.000000;1.032188
9752.000000;1.031765
9751.000000;1.031106
9750.000000;1.030435
9749.000000;1.030151
9748.000000;1.030122
9747.000000;1.029829
9746.000000;1.029178
9745.000000;1.028638
9744.000000;1.028517
9743.000000;1.028581
9742.000000;1.028503
9741.000000;1.028202
9740.000000;1.027625
9739.000000;1.026681
9738.000000;1.025592
9737.000000;1.024871
9736.000000;1.024733
9735.000000;1.024844
9734.000000;1.024815
9733.000000;1.024590
9732.000000;1.024177
9731.000000;1.023377
9730.000000;1.022086
9729.000000;1.020638
9728.000000;1.019571
9727.000000;1.019163
9726.000000;1.019267
9725.000000;1.019462
9724.000000;1.019361
9723.000000;1.018935
9722.000000;1.018529
9721.000000;1.018408
9720.000000;1.018406
9719.000000;1.018217
9718.000000;1.017844
9717.000000;1.017430
9716.000000;1.016846
9715.000000;1.015907
9714.000000;1.014902
9713.000000;1.014356
9712.000000;1.014273
9711.000000;1.014106
9710.000000;1.013524
9709.000000;1.012717
9708.000000;1.011858
9707.000000;1.010823
9706.000000;1.009619
9705.000000;1.008607
9704.000000;1.008082
9703.000000;1.007975
9702.000000;1.008119
9701.000000;1.008445
9700.000000;1.008752
9699.000000;1.008685
9698.000000;1.008144
9697.000000;1.007373
9696.000000;1.006554
9695.000000;1.005705
9694.000000;1.005088
9693.000000;1.005200
9692.000000;1.006029
9691.000000;1.006720
9690.000000;1.006395
9689.000000;1.005097
9688.000000;1.003620
9687.000000;1.002603
9686.000000;1.002098
9685.000000;1.001834
9684.000000;1.001521
9683.000000;1.000969
9682.000000;1.000172
9681.000000;0.999354
9680.000000;0.998794
9679.000000;0.998597
9678.000000;0.998639
9677.000000;0.998716
9676.000000;0.998724
9675.000000;0.998717
9674.000000;0.998771
9673.000000;0.998753
9672.000000;0.998364
9671.000000;0.997531
9670.000000;0.996568
9669.000000;0.995802
9668.000000;0.995156
9667.000000;0.994376
9666.000000;0.993538
9665.000000;0.992981
9664.000000;0.992775
9663.000000;0.992580
9662.000000;0.992102
9661.000000;0.991417
9660.000000;0.990776
9659.000000;0.990309
9658.000000;0.989990
9657.000000;0.989716
9656.000000;0.989353
9655.000000;0.988818
9654.000000;0.988156
9653.000000;0.987474
9652.000000;0.986843
9651.000000;0.986336
9650.000000;0.986023
9649.000000;0.985807
9648.000000;0.985444
9647.000000;0.984890
9646.000000;0.984422
9645.000000;0.984238
9644.000000;0.984174
9643.000000;0.984034
9642.000000;0.983944
9641.000000;0.984004
9640.000000;0.983855
9639.000000;0.983043
9638.000000;0.981707
9637.000000;0.980462
9636.000000;0.979684
9635.000000;0.979278
9634.000000;0.979105
9633.000000;0.979189
9632.000000;0.979445
9631.000000;0.979559
9630.000000;0.979245
9629.000000;0.978486
9628.000000;0.977527
9627.000000;0.976793
9626.000000;0.976652
9625.000000;0.976986
9624.000000;0.977130
9623.000000;0.976544
9622.000000;0.975433
9621.000000;0.974416
9620.000000;0.973786
9619.000000;0.973424
9618.000000;0.973204
9617.000000;0.973033
9616.000000;0.972643
9615.000000;0.971856
9614.000000;0.970984
9613.000000;0.970482
9612.000000;0.970239
9611.000000;0.969677
9610.000000;0.968597
9609.000000;0.967455
9608.000000;0.966717
9607.000000;0.966340
9606.000000;0.966036
9605.000000;0.965682
9604.000000;0.965328
9603.000000;0.965022
9602.000000;0.964761
9601.000000;0.964467
9600.000000;0.964041
9599.000000;0.963576
9598.000000;0.963371
9597.000000;0.963488
9596.000000;0.963490
9595.000000;0.962977
9594.000000;0.962249
9593.000000;0.961992
9592.000000;0.962355
9591.000000;0.962748
9590.000000;0.962570
9589.000000;0.961768
9588.000000;0.960697
9587.000000;0.959784
9586.000000;0.959361
9585.000000;0.959418
9584.000000;0.959486
9583.000000;0.959097
9582.000000;0.958382
9581.000000;0.957880
9580.000000;0.957744
9579.000000;0.957577
9578.000000;0.957082
9577.000000;0.956488
9576.000000;0.956150
9575.000000;0.956051
9574.000000;0.955862
9573.000000;0.955313
9572.000000;0.954401
9571.000000;0.953386
9570.000000;0.952612
9569.000000;0.952207
9568.000000;0.951971
9567.000000;0.951675
9566.000000;0.951334
9565.000000;0.951026
9564.000000;0.950626
9563.000000;0.949997
9562.000000;0.949309
9561.000000;0.948835
9560.000000;0.948540
9559.000000;0.948151
9558.000000;0.947512
9557.000000;0.946622
9556.000000;0.945490
9555.000000;0.944326
9554.000000;0.943656
9553.000000;0.943825
9552.000000;0.944463
9551.000000;0.944870
9550.000000;0.944855
9549.000000;0.944775
9548.000000;0.944836
9547.000000;0.944804
9546.000000;0.944407
9545.000000;0.943615
9544.000000;0.942516
9543.000000;0.941312
9542.000000;0.940425
9541.000000;0.940188
9540.000000;0.940384
9539.000000;0.940439
9538.000000;0.940086
9537.000000;0.939501
9536.000000;0.938853
9535.000000;0.938121
9534.000000;0.937389
9533.000000;0.936873
9532.000000;0.936600
9531.000000;0.936407
9530.000000;0.936277
9529.000000;0.936305
9528.000000;0.936335
9527.000000;0.936046
9526.000000;0.935494
9525.000000;0.935146
9524.000000;0.935269
9523.000000;0.935587
9522.000000;0.935639
9521.000000;0.935213
9520.000000;0.934390
9519.000000;0.933443
9518.000000;0.932731
9517.000000;0.932409
9516.000000;0.932212
9515.000000;0.931748
9514.000000;0.930974
9513.000000;0.930136
9512.000000;0.929357
9511.000000;0.928623
9510.000000;0.928078
9509.000000;0.927887
9508.000000;0.927826
9507.000000;0.927455
9506.000000;0.926743
9505.000000;0.926121
9504.000000;0.925859
9503.000000;0.925764
9502.000000;0.925536
9501.000000;0.925070
9500.000000;0.924347
9499.000000;0.923427
9498.000000;0.922648
9497.000000;0.922432
9496.000000;0.922737
9495.000000;0.923016
9494.000000;0.922861
9493.000000;0.922424
9492.000000;0.922102
9491.000000;0.922038
9490.000000;0.922086
9489.000000;0.922037
9488.000000;0.921775
9487.000000;0.921357
9486.000000;0.920982
9485.000000;0.920734
9484.000000;0.920408
9483.000000;0.919798
9482.000000;0.919068
9481.000000;0.918567
9480.000000;0.918334
9479.000000;0.918080
9478.000000;0.917635
9477.000000;0.917082
9476.000000;0.916484
9475.000000;0.915787
9474.000000;0.915021
9473.000000;0.914309
9472.000000;0.913703
9471.000000;0.913236
9470.000000;0.913058
9469.000000;0.913205
9468.000000;0.913332
9467.000000;0.913038
9466.000000;0.912428
9465.000000;0.911938
9464.000000;0.911653
9463.000000;0.911246
9462.000000;0.910608
9461.000000;0.910052
9460.000000;0.909787
9459.000000;0.909619
9458.000000;0.909373
9457.000000;0.909195
9456.000000;0.909207
9455.000000;0.909167
9454.000000;0.908770
9453.000000;0.908080
9452.000000;0.907450
9451.000000;0.907134
9450.000000;0.907135
9449.000000;0.907290
9448.000000;0.907367
9447.000000;0.907175
9446.000000;0.906685
9445.000000;0.906040
9444.000000;0.905453
9443.000000;0.905130
9442.000000;0.905150
9441.000000;0.905265
9440.000000;0.904953
9439.000000;0.903904
9438.000000;0.902412
9437.000000;0.901094
9436.000000;0.900319
9435.000000;0.900061
9434.000000;0.900129
9433.000000;0.900273
9432.000000;0.900206
9431.000000;0.899862
9430.000000;0.899558
9429.000000;0.899592
9428.000000;0.899767
9427.000000;0.899609
9426.000000;0.898999
9425.000000;0.898266
9424.000000;0.897709
9423.000000;0.897382
9422.000000;0.897309
9421.000000;0.897506
9420.000000;0.897732
9419.000000;0.897567
9418.000000;0.896828
9417.000000;0.895711
9416.000000;0.894509
9415.000000;0.893456
9414.000000;0.892787
9413.000000;0.892626
9412.000000;0.892754
9411.000000;0.892766
9410.000000;0.892517
9409.000000;0.892198
9408.000000;0.891985
9407.000000;0.891843
9406.000000;0.891676
9405.000000;0.891404
9404.000000;0.890908
9403.000000;0.890133
9402.000000;0.889301
9401.000000;0.888799
9400.000000;0.888839
9399.000000;0.889331
9398.000000;0.889984
9397.000000;0.890378
9396.000000;0.890091
9395.000000;0.889053
9394.000000;0.887720
9393.000000;0.886650
9392.000000;0.885985
9391.000000;0.885531
9390.000000;0.885196
9389.000000;0.885032
9388.000000;0.884974
9387.000000;0.884883
9386.000000;0.884776
9385.000000;0.884730
9384.000000;0.884630
9383.000000;0.884321
9382.000000;0.883902
9381.000000;0.883539
9380.000000;0.883092
9379.000000;0.882323
9378.000000;0.881391
9377.000000;0.880754
9376.000000;0.880601
9375.000000;0.880706
9374.000000;0.880793
9373.000000;0.880721
9372.000000;0.880369
9371.000000;0.879741
9370.000000;0.879158
9369.000000;0.878942
9368.000000;0.878922
9367.000000;0.878590
9366.000000;0.877776
9365.000000;0.876814
9364.000000;0.876055
9363.000000;0.875591
9362.000000;0.875441
9361.000000;0.875605
9360.000000;0.875847
9359.000000;0.875797
9358.000000;0.875377
9357.000000;0.874890
9356.000000;0.874617
9355.000000;0.874575
9354.000000;0.874647
9353.000000;0.874667
9352.000000;0.874440
9351.000000;0.873970
9350.000000;0.873593
9349.000000;0.873549
9348.000000;0.873500
9347.000000;0.872906
9346.000000;0.871851
9345.000000;0.871026
9344.000000;0.870846
9343.000000;0.871012
9342.000000;0.871049
9341.000000;0.870850
9340.000000;0.870515
9339.000000;0.870066
9338.000000;0.869515
9337.000000;0.868962
9336.000000;0.868439
9335.000000;0.867888
9334.000000;0.867377
9333.000000;0.867076
9332.000000;0.866948
9331.000000;0.866721
9330.000000;0.866273
9329.000000;0.865804
9328.000000;0.865524
9327.000000;0.865420
9326.000000;0.865369
9325.000000;0.865257
9324.000000;0.864928
9323.000000;0.864287
9322.000000;0.863529
9321.000000;0.863028
9320.000000;0.862913
9319.000000;0.862982
9318.000000;0.863009
9317.000000;0.862928
9316.000000;0.862709
9315.000000;0.862363
9314.000000;0.862092
9313.000000;0.862122
9312.000000;0.862318
9311.000000;0.862236
9310.000000;0.861662
9309.000000;0.860838
9308.000000;0.860111
9307.000000;0.859617
9306.000000;0.859349
9305.000000;0.859231
9304.000000;0.859053
9303.000000;0.858602
9302.000000;0.857963
9301.000000;0.857453
9300.000000;0.857192
9299.000000;0.856980
9298.000000;0.856648
9297.000000;0.856256
9296.000000;0.855878
9295.000000;0.855456
9294.000000;0.854978
9293.000000;0.854531
9292.000000;0.854114
9291.000000;0.853635
9290.000000;0.853161
9289.000000;0.852922
9288.000000;0.852955
9287.000000;0.853013
9286.000000;0.852928
9285.000000;0.852835
9284.000000;0.852872
9283.000000;0.852876
9282.000000;0.852552
9281.000000;0.851825
9280.000000;0.850911
9279.000000;0.850161
9278.000000;0.849867
9277.000000;0.850056
9276.000000;0.850395
9275.000000;0.850447
9274.000000;0.850074
9273.000000;0.849459
9272.000000;0.848778
9271.000000;0.848050
9270.000000;0.847324
9269.000000;0.846747
9268.000000;0.846397
9267.000000;0.846219
9266.000000;0.846176
9265.000000;0.846289
9264.000000;0.846465
9263.000000;0.846524
9262.000000;0.846464
9261.000000;0.846491
9260.000000;0.846663
9259.000000;0.846691
9258.000000;0.846269
9257.000000;0.845520
9256.000000;0.844931
9255.000000;0.844851
9254.000000;0.845114
9253.000000;0.845187
9252.000000;0.844697
9251.000000;0.843802
9250.000000;0.842971
9249.000000;0.842446
9248.000000;0.842086
9247.000000;0.841757
9246.000000;0.841612
9245.000000;0.841786
9244.000000;0.842032
9243.000000;0.841941
9242.000000;0.841440
9241.000000;0.840805
9240.000000;0.840270
9239.000000;0.839838
9238.000000;0.839424
9237.000000;0.838972
9236.000000;0.838439
9235.000000;0.837884
9234.000000;0.837491
9233.000000;0.837352
9232.000000;0.837293
9231.000000;0.837092
9230.000000;0.836773
9229.000000;0.836490
9228.000000;0.836240
9227.000000;0.835926
9226.000000;0.835606
9225.000000;0.835415
9224.000000;0.835330
9223.000000;0.835246
9222.000000;0.835196
9221.000000;0.835217
9220.000000;0.835116
9219.000000;0.834681
9218.000000;0.834057
9217.000000;0.833625
9216.000000;0.833523
9215.000000;0.833574
9214.000000;0.833612
9213.000000;0.833578
9212.000000;0.833351
9211.000000;0.832828
9210.000000;0.832181
9209.000000;0.831731
9208.000000;0.831524
9207.000000;0.831311
9206.000000;0.830961
9205.000000;0.830587
9204.000000;0.830257
9203.000000;0.829888
9202.000000;0.829497
9201.000000;0.829287
9200.000000;0.829360
9199.000000;0.829542
9198.000000;0.829596
9197.000000;0.829417
9196.000000;0.829007
9195.000000;0.828448
9194.000000;0.827949
9193.000000;0.827723
9192.000000;0.827765
9191.000000;0.827894
9190.000000;0.827989
9189.000000;0.828023
9188.000000;0.827902
9187.000000;0.827485
9186.000000;0.826801
9185.000000;0.826040
9184.000000;0.825323
9183.000000;0.824639
9182.000000;0.824012
9181.000000;0.823567
9180.000000;0.823422
9179.000000;0.823598
9178.000000;0.823978
9177.000000;0.824239
9176.000000;0.824007
9175.000000;0.823270
9174.000000;0.822517
9173.000000;0.822230
9172.000000;0.822356
9171.000000;0.822481
9170.000000;0.822370
9169.000000;0.822083
9168.000000;0.821693
9167.000000;0.821249
9166.000000;0.820931
9165.000000;0.820907
9164.000000;0.821060
9163.000000;0.821140
9162.000000;0.821135
9161.000000;0.821196
9160.000000;0.821256
9159.000000;0.821064
9158.000000;0.820579
9157.000000;0.820000
9156.000000;0.819398
9155.000000;0.818667
9154.000000;0.817866
9153.000000;0.817252
9152.000000;0.816915
9151.000000;0.816674
9150.000000;0.816424
9149.000000;0.816288
9148.000000;0.816349
9147.000000;0.816495
9146.000000;0.816590
9145.000000;0.816585
9144.000000;0.816390
9143.000000;0.815902
9142.000000;0.815211
9141.000000;0.814574
9140.000000;0.814104
9139.000000;0.813737
9138.000000;0.813521
9137.000000;0.813663
9136.000000;0.814168
9135.000000;0.814681
9134.000000;0.814808
9133.000000;0.814471
9132.000000;0.813848
9131.000000;0.813179
9130.000000;0.812696
9129.000000;0.812558
9128.000000;0.812686
9127.000000;0.812764
9126.000000;0.812495
9125.000000;0.811842
9124.000000;0.810996
9123.000000;0.810210
9122.000000;0.809648
9121.000000;0.809305
9120.000000;0.809069
9119.000000;0.808894
9118.000000;0.808856
9117.000000;0.808977
9116.000000;0.809121
9115.000000;0.809161
9114.000000;0.809110
9113.000000;0.808946
9112.000000;0.808497
9111.000000;0.807716
9110.000000;0.806916
9109.000000;0.806489
9108.000000;0.806469
9107.000000;0.806578
9106.000000;0.806575
9105.000000;0.806358
9104.000000;0.805896
9103.000000;0.805344
9102.000000;0.805089
9101.000000;0.805336
9100.000000;0.805744
9099.000000;0.805789
9098.000000;0.805443
9097.000000;0.805137
9096.000000;0.805100
9095.000000;0.805089
9094.000000;0.804792
9093.000000;0.804197
9092.000000;0.803495
9091.000000;0.802919
9090.000000;0.802705
9089.000000;0.802963
9088.000000;0.803488
9087.000000;0.803910
9086.000000;0.804042
9085.000000;0.803926
9084.000000;0.803617
9083.000000;0.803208
9082.000000;0.802981
9081.000000;0.803160
9080.000000;0.803485
9079.000000;0.803367
9078.000000;0.802595
9077.000000;0.801620
9076.000000;0.801027
9075.000000;0.800941
9074.000000;0.801053
9073.000000;0.801014
9072.000000;0.800706
9071.000000;0.800252
9070.000000;0.799846
9069.000000;0.799526
9068.000000;0.799162
9067.000000;0.798748
9066.000000;0.798558
9065.000000;0.798801
9064.000000;0.799235
9063.000000;0.799412
9062.000000;0.799214
9061.000000;0.798896
9060.000000;0.798645
9059.000000;0.798424
9058.000000;0.798194
9057.000000;0.797978
9056.000000;0.797688
9055.000000;0.797167
9054.000000;0.796468
9053.000000;0.795827
