Criado como novo conjunto de dados;"e2410_daniel_v2.spp","90366.6 Secs"
cm-1;Abs
10000.000000;0.087874
9999.000000;0.088320
9998.000000;0.088636
9997.000000;0.088818
9996.000000;0.089043
9995.000000;0.089523
9994.000000;0.090303
9993.000000;0.091183
9992.000000;0.091928
9991.000000;0.092459
9990.000000;0.092836
9989.000000;0.093132
9988.000000;0.093402
9987.000000;0.093736
9986.000000;0.094228
9985.000000;0.094876
9984.000000;0.095563
9983.000000;0.096154
9982.000000;0.096616
9981.000000;0.097040
9980.000000;0.097582
9979.000000;0.098350
9978.000000;0.099309
9977.000000;0.100291
9976.000000;0.101111
9975.000000;0.101689
9974.000000;0.102061
9973.000000;0.102327
9972.000000;0.102610
9971.000000;0.103014
9970.000000;0.103574
9969.000000;0.104245
9968.000000;0.104944
9967.000000;0.105597
9966.000000;0.106162
9965.000000;0.106648
9964.000000;0.107138
9963.000000;0.107704
9962.000000;0.108294
9961.000000;0.108758
9960.000000;0.109048
9959.000000;0.109331
9958.000000;0.109808
9957.000000;0.110469
9956.000000;0.111102
9955.000000;0.111538
9954.000000;0.111819
9953.000000;0.112125
9952.000000;0.112616
9951.000000;0.113316
9950.000000;0.114107
9949.000000;0.114821
9948.000000;0.115393
9947.000000;0.115916
9946.000000;0.116525
9945.000000;0.117235
9944.000000;0.117951
9943.000000;0.118603
9942.000000;0.119226
9941.000000;0.119909
9940.000000;0.120697
9939.000000;0.121554
9938.000000;0.122370
9937.000000;0.123029
9936.000000;0.123500
9935.000000;0.123878
9934.000000;0.124308
9933.000000;0.124880
9932.000000;0.125599
9931.000000;0.126410
9930.000000;0.127203
9929.000000;0.127839
9928.000000;0.128253
9927.000000;0.128543
9926.000000;0.128916
9925.000000;0.129533
9924.000000;0.130389
9923.000000;0.131301
9922.000000;0.131988
9921.000000;0.132268
9920.000000;0.132267
9919.000000;0.132380
9918.000000;0.132934
9917.000000;0.133893
9916.000000;0.134929
9915.000000;0.135784
9914.000000;0.136462
9913.000000;0.137111
9912.000000;0.137805
9911.000000;0.138489
9910.000000;0.139061
9909.000000;0.139465
9908.000000;0.139745
9907.000000;0.140023
9906.000000;0.140432
9905.000000;0.141044
9904.000000;0.141856
9903.000000;0.142791
9902.000000;0.143706
9901.000000;0.144446
9900.000000;0.144956
9899.000000;0.145320
9898.000000;0.145662
9897.000000;0.146049
9896.000000;0.146508
9895.000000;0.147071
9894.000000;0.147714
9893.000000;0.148324
9892.000000;0.148821
9891.000000;0.149300
9890.000000;0.149947
9889.000000;0.150828
9888.000000;0.151826
9887.000000;0.152768
9886.000000;0.153563
9885.000000;0.154199
9884.000000;0.154714
9883.000000;0.155154
9882.000000;0.155541
9881.000000;0.155874
9880.000000;0.156224
9879.000000;0.156759
9878.000000;0.157581
9877.000000;0.158571
9876.000000;0.159465
9875.000000;0.160099
9874.000000;0.160506
9873.000000;0.160814
9872.000000;0.161155
9871.000000;0.161644
9870.000000;0.162328
9869.000000;0.163128
9868.000000;0.163916
9867.000000;0.164664
9866.000000;0.165445
9865.000000;0.166290
9864.000000;0.167151
9863.000000;0.167987
9862.000000;0.168797
9861.000000;0.169543
9860.000000;0.170142
9859.000000;0.170569
9858.000000;0.170887
9857.000000;0.171159
9856.000000;0.171423
9855.000000;0.171757
9854.000000;0.172262
9853.000000;0.172932
9852.000000;0.173635
9851.000000;0.174266
9850.000000;0.174863
9849.000000;0.175548
9848.000000;0.176418
9847.000000;0.177487
9846.000000;0.178655
9845.000000;0.179715
9844.000000;0.180471
9843.000000;0.180919
9842.000000;0.181236
9841.000000;0.181595
9840.000000;0.182071
9839.000000;0.182719
9838.000000;0.183603
9837.000000;0.184684
9836.000000;0.185789
9835.000000;0.186762
9834.000000;0.187583
9833.000000;0.188299
9832.000000;0.188929
9831.000000;0.189508
9830.000000;0.190123
9829.000000;0.190803
9828.000000;0.191445
9827.000000;0.191951
9826.000000;0.192385
9825.000000;0.192903
9824.000000;0.193569
9823.000000;0.194308
9822.000000;0.195020
9821.000000;0.195668
9820.000000;0.196261
9819.000000;0.196824
9818.000000;0.197368
9817.000000;0.197860
9816.000000;0.198266
9815.000000;0.198663
9814.000000;0.199229
9813.000000;0.200054
9812.000000;0.201005
9811.000000;0.201876
9810.000000;0.202622
9809.000000;0.203343
9808.000000;0.204063
9807.000000;0.204669
9806.000000;0.205102
9805.000000;0.205495
9804.000000;0.206035
9803.000000;0.206779
9802.000000;0.207642
9801.000000;0.208517
9800.000000;0.209324
9799.000000;0.209995
9798.000000;0.210517
9797.000000;0.211000
9796.000000;0.211615
9795.000000;0.212415
9794.000000;0.213273
9793.000000;0.214024
9792.000000;0.214626
9791.000000;0.215138
9790.000000;0.215609
9789.000000;0.216089
9788.000000;0.216694
9787.000000;0.217535
9786.000000;0.218560
9785.000000;0.219579
9784.000000;0.220442
9783.000000;0.221145
9782.000000;0.221732
9781.000000;0.222217
9780.000000;0.222660
9779.000000;0.223194
9778.000000;0.223886
9777.000000;0.224646
9776.000000;0.225367
9775.000000;0.226073
9774.000000;0.226848
9773.000000;0.227676
9772.000000;0.228480
9771.000000;0.229256
9770.000000;0.230063
9769.000000;0.230909
9768.000000;0.231744
9767.000000;0.232507
9766.000000;0.233122
9765.000000;0.233518
9764.000000;0.233776
9763.000000;0.234164
9762.000000;0.234884
9761.000000;0.235817
9760.000000;0.236665
9759.000000;0.237316
9758.000000;0.237909
9757.000000;0.238583
9756.000000;0.239325
9755.000000;0.240099
9754.000000;0.240937
9753.000000;0.241847
9752.000000;0.242773
9751.000000;0.243651
9750.000000;0.244432
9749.000000;0.245039
9748.000000;0.245467
9747.000000;0.245914
9746.000000;0.246636
9745.000000;0.247610
9744.000000;0.248524
9743.000000;0.249166
9742.000000;0.249679
9741.000000;0.250343
9740.000000;0.251234
9739.000000;0.252184
9738.000000;0.252987
9737.000000;0.253553
9736.000000;0.253956
9735.000000;0.254387
9734.000000;0.254978
9733.000000;0.255664
9732.000000;0.256305
9731.000000;0.256925
9730.000000;0.257669
9729.000000;0.258520
9728.000000;0.259276
9727.000000;0.259888
9726.000000;0.260584
9725.000000;0.261518
9724.000000;0.262475
9723.000000;0.263115
9722.000000;0.263387
9721.000000;0.263566
9720.000000;0.263945
9719.000000;0.264665
9718.000000;0.265718
9717.000000;0.266953
9716.000000;0.268116
9715.000000;0.269015
9714.000000;0.269624
9713.000000;0.269989
9712.000000;0.270173
9711.000000;0.270360
9710.000000;0.270860
9709.000000;0.271800
9708.000000;0.272928
9707.000000;0.273883
9706.000000;0.274587
9705.000000;0.275206
9704.000000;0.275849
9703.000000;0.276539
9702.000000;0.277384
9701.000000;0.278497
9700.000000;0.279700
9699.000000;0.280590
9698.000000;0.280996
9697.000000;0.281203
9696.000000;0.281628
9695.000000;0.282418
9694.000000;0.283422
9693.000000;0.284438
9692.000000;0.285349
9691.000000;0.286112
9690.000000;0.286734
9689.000000;0.287266
9688.000000;0.287783
9687.000000;0.288349
9686.000000;0.288989
9685.000000;0.289667
9684.000000;0.290338
9683.000000;0.291061
9682.000000;0.292009
9681.000000;0.293232
9680.000000;0.294456
9679.000000;0.295259
9678.000000;0.295509
9677.000000;0.295509
9676.000000;0.295688
9675.000000;0.296221
9674.000000;0.296998
9673.000000;0.297823
9672.000000;0.298568
9671.000000;0.299203
9670.000000;0.299794
9669.000000;0.300446
9668.000000;0.301178
9667.000000;0.301871
9666.000000;0.302398
9665.000000;0.302825
9664.000000;0.303391
9663.000000;0.304275
9662.000000;0.305383
9661.000000;0.306424
9660.000000;0.307227
9659.000000;0.307926
9658.000000;0.308805
9657.000000;0.309935
9656.000000;0.311049
9655.000000;0.311785
9654.000000;0.312037
9653.000000;0.312025
9652.000000;0.312092
9651.000000;0.312474
9650.000000;0.313199
9649.000000;0.314119
9648.000000;0.315036
9647.000000;0.315836
9646.000000;0.316526
9645.000000;0.317125
9644.000000;0.317618
9643.000000;0.318054
9642.000000;0.318588
9641.000000;0.319311
9640.000000;0.320065
9639.000000;0.320570
9638.000000;0.320771
9637.000000;0.320935
9636.000000;0.321375
9635.000000;0.322133
9634.000000;0.322998
9633.000000;0.323765
9632.000000;0.324412
9631.000000;0.325061
9630.000000;0.325807
9629.000000;0.326615
9628.000000;0.327349
9627.000000;0.327921
9626.000000;0.328392
9625.000000;0.328921
9624.000000;0.329602
9623.000000;0.330383
9622.000000;0.331163
9621.000000;0.331907
9620.000000;0.332638
9619.000000;0.333325
9618.000000;0.333837
9617.000000;0.334098
9616.000000;0.334292
9615.000000;0.334839
9614.000000;0.336051
9613.000000;0.337775
9612.000000;0.339447
9611.000000;0.340564
9610.000000;0.341075
9609.000000;0.341314
9608.000000;0.341602
9607.000000;0.342008
9606.000000;0.342414
9605.000000;0.342715
9604.000000;0.342930
9603.000000;0.343172
9602.000000;0.343540
9601.000000;0.344034
9600.000000;0.344598
9599.000000;0.345223
9598.000000;0.345936
9597.000000;0.346654
9596.000000;0.347147
9595.000000;0.347252
9594.000000;0.347106
9593.000000;0.347058
9592.000000;0.347351
9591.000000;0.347966
9590.000000;0.348766
9589.000000;0.349678
9588.000000;0.350690
9587.000000;0.351759
9586.000000;0.352807
9585.000000;0.353777
9584.000000;0.354635
9583.000000;0.355351
9582.000000;0.355938
9581.000000;0.356504
9580.000000;0.357158
9579.000000;0.357840
9578.000000;0.358303
9577.000000;0.358361
9576.000000;0.358120
9575.000000;0.357934
9574.000000;0.358098
9573.000000;0.358660
9572.000000;0.359502
9571.000000;0.360477
9570.000000;0.361410
9569.000000;0.362105
9568.000000;0.362532
9567.000000;0.362956
9566.000000;0.363651
9565.000000;0.364492
9564.000000;0.365042
9563.000000;0.365132
9562.000000;0.365150
9561.000000;0.365569
9560.000000;0.366349
9559.000000;0.367030
9558.000000;0.367340
9557.000000;0.367457
9556.000000;0.367677
9555.000000;0.368052
9554.000000;0.368474
9553.000000;0.368925
9552.000000;0.369515
9551.000000;0.370304
9550.000000;0.371198
9549.000000;0.371994
9548.000000;0.372528
9547.000000;0.372833
9546.000000;0.373172
9545.000000;0.373804
9544.000000;0.374705
9543.000000;0.375591
9542.000000;0.376249
9541.000000;0.376690
9540.000000;0.376946
9539.000000;0.376894
9538.000000;0.376465
9537.000000;0.375902
9536.000000;0.375609
9535.000000;0.375769
9534.000000;0.376267
9533.000000;0.376939
9532.000000;0.377712
9531.000000;0.378512
9530.000000;0.379244
9529.000000;0.379905
9528.000000;0.380570
9527.000000;0.381190
9526.000000;0.381590
9525.000000;0.381733
9524.000000;0.381828
9523.000000;0.382055
9522.000000;0.382361
9521.000000;0.382654
9520.000000;0.383020
9519.000000;0.383553
9518.000000;0.384084
9517.000000;0.384363
9516.000000;0.384450
9515.000000;0.384680
9514.000000;0.385243
9513.000000;0.386022
9512.000000;0.386842
9511.000000;0.387648
9510.000000;0.388368
9509.000000;0.388869
9508.000000;0.389158
9507.000000;0.389418
9506.000000;0.389693
9505.000000;0.389781
9504.000000;0.389609
9503.000000;0.389489
9502.000000;0.389733
9501.000000;0.390153
9500.000000;0.390271
9499.000000;0.389968
9498.000000;0.389640
9497.000000;0.389673
9496.000000;0.390009
9495.000000;0.390328
9494.000000;0.390438
9493.000000;0.390428
9492.000000;0.390549
9491.000000;0.391049
9490.000000;0.391969
9489.000000;0.393033
9488.000000;0.393814
9487.000000;0.394128
9486.000000;0.394203
9485.000000;0.394423
9484.000000;0.394940
9483.000000;0.395587
9482.000000;0.396062
9481.000000;0.396156
9480.000000;0.395894
9479.000000;0.395545
9478.000000;0.395446
9477.000000;0.395723
9476.000000;0.396157
9475.000000;0.396376
9474.000000;0.396201
9473.000000;0.395818
9472.000000;0.395619
9471.000000;0.395862
9470.000000;0.396461
9469.000000;0.397108
9468.000000;0.397582
9467.000000;0.397885
9466.000000;0.398081
9465.000000;0.398167
9464.000000;0.398201
9463.000000;0.398376
9462.000000;0.398760
9461.000000;0.399035
9460.000000;0.398771
9459.000000;0.398003
9458.000000;0.397313
9457.000000;0.397225
9456.000000;0.397711
9455.000000;0.398407
9454.000000;0.399096
9453.000000;0.399809
9452.000000;0.400560
9451.000000;0.401231
9450.000000;0.401710
9449.000000;0.401983
9448.000000;0.402050
9447.000000;0.401882
9446.000000;0.401522
9445.000000;0.401122
9444.000000;0.400812
9443.000000;0.400561
9442.000000;0.400251
9441.000000;0.399890
9440.000000;0.399702
9439.000000;0.399890
9438.000000;0.400321
9437.000000;0.400554
9436.000000;0.400309
9435.000000;0.399831
9434.000000;0.399644
9433.000000;0.399949
9432.000000;0.400426
9431.000000;0.400635
9430.000000;0.400448
9429.000000;0.400034
9428.000000;0.399611
9427.000000;0.399328
9426.000000;0.399259
9425.000000;0.399317
9424.000000;0.399278
9423.000000;0.399032
9422.000000;0.398748
9421.000000;0.398651
9420.000000;0.398705
9419.000000;0.398673
9418.000000;0.398472
9417.000000;0.398285
9416.000000;0.398329
9415.000000;0.398667
9414.000000;0.399281
9413.000000;0.400141
9412.000000;0.401080
9411.000000;0.401729
9410.000000;0.401752
9409.000000;0.401173
9408.000000;0.400410
9407.000000;0.399943
9406.000000;0.399939
9405.000000;0.400164
9404.000000;0.400227
9403.000000;0.399897
9402.000000;0.399252
9401.000000;0.398585
9400.000000;0.398208
9399.000000;0.398279
9398.000000;0.398681
9397.000000;0.399054
9396.000000;0.399071
9395.000000;0.398778
9394.000000;0.398590
9393.000000;0.398840
9392.000000;0.399359
9391.000000;0.399614
9390.000000;0.399243
9389.000000;0.398373
9388.000000;0.397438
9387.000000;0.396816
9386.000000;0.396633
9385.000000;0.396775
9384.000000;0.397020
9383.000000;0.397215
9382.000000;0.397366
9381.000000;0.397499
9380.000000;0.397487
9379.000000;0.397175
9378.000000;0.396678
9377.000000;0.396374
9376.000000;0.396461
9375.000000;0.396666
9374.000000;0.396556
9373.000000;0.396026
9372.000000;0.395341
9371.000000;0.394766
9370.000000;0.394378
9369.000000;0.394207
9368.000000;0.394293
9367.000000;0.394513
9366.000000;0.394550
9365.000000;0.394206
9364.000000;0.393628
9363.000000;0.393094
9362.000000;0.392676
9361.000000;0.392261
9360.000000;0.391852
9359.000000;0.391616
9358.000000;0.391622
9357.000000;0.391708
9356.000000;0.391712
9355.000000;0.391721
9354.000000;0.391917
9353.000000;0.392249
9352.000000;0.392403
9351.000000;0.392151
9350.000000;0.391635
9349.000000;0.391203
9348.000000;0.390988
9347.000000;0.390757
9346.000000;0.390219
9345.000000;0.389438
9344.000000;0.388818
9343.000000;0.388671
9342.000000;0.388869
9341.000000;0.389007
9340.000000;0.388855
9339.000000;0.388565
9338.000000;0.388405
9337.000000;0.388383
9336.000000;0.388243
9335.000000;0.387787
9334.000000;0.387114
9333.000000;0.386495
9332.000000;0.386097
9331.000000;0.385880
9330.000000;0.385721
9329.000000;0.385529
9328.000000;0.385240
9327.000000;0.384794
9326.000000;0.384244
9325.000000;0.383783
9324.000000;0.383562
9323.000000;0.383496
9322.000000;0.383389
9321.000000;0.383218
9320.000000;0.383136
9319.000000;0.383142
9318.000000;0.382953
9317.000000;0.382345
9316.000000;0.381484
9315.000000;0.380762
9314.000000;0.380378
9313.000000;0.380238
9312.000000;0.380162
9311.000000;0.379993
9310.000000;0.379575
9309.000000;0.378880
9308.000000;0.378214
9307.000000;0.378031
9306.000000;0.378421
9305.000000;0.378913
9304.000000;0.378920
9303.000000;0.378289
9302.000000;0.377353
9301.000000;0.376562
9300.000000;0.376177
9299.000000;0.376185
9298.000000;0.376324
9297.000000;0.376226
9296.000000;0.375706
9295.000000;0.374932
9294.000000;0.374233
9293.000000;0.373745
9292.000000;0.373302
9291.000000;0.372650
9290.000000;0.371723
9289.000000;0.370731
9288.000000;0.370015
9287.000000;0.369782
9286.000000;0.369938
9285.000000;0.370186
9284.000000;0.370284
9283.000000;0.370176
9282.000000;0.369862
9281.000000;0.369309
9280.000000;0.368560
9279.000000;0.367820
9278.000000;0.367328
9277.000000;0.367150
9276.000000;0.367170
9275.000000;0.367196
9274.000000;0.366997
9273.000000;0.366367
9272.000000;0.365319
9271.000000;0.364191
9270.000000;0.363403
9269.000000;0.363083
9268.000000;0.363044
9267.000000;0.363080
9266.000000;0.363120
9265.000000;0.363082
9264.000000;0.362771
9263.000000;0.362052
9262.000000;0.361043
9261.000000;0.360013
9260.000000;0.359157
9259.000000;0.358536
9258.000000;0.358195
9257.000000;0.358171
9256.000000;0.358369
9255.000000;0.358535
9254.000000;0.358449
9253.000000;0.358140
9252.000000;0.357802
9251.000000;0.357515
9250.000000;0.357128
9249.000000;0.356485
9248.000000;0.355653
9247.000000;0.354856
9246.000000;0.354255
9245.000000;0.353914
9244.000000;0.353861
9243.000000;0.353984
9242.000000;0.353898
9241.000000;0.353201
9240.000000;0.351958
9239.000000;0.350720
9238.000000;0.349944
9237.000000;0.349577
9236.000000;0.349338
9235.000000;0.349153
9234.000000;0.349043
9233.000000;0.348798
9232.000000;0.348134
9231.000000;0.347174
9230.000000;0.346400
9229.000000;0.346056
9228.000000;0.345885
9227.000000;0.345553
9226.000000;0.345081
9225.000000;0.344692
9224.000000;0.344464
9223.000000;0.344352
9222.000000;0.344393
9221.000000;0.344593
9220.000000;0.344683
9219.000000;0.344271
9218.000000;0.343320
9217.000000;0.342299
9216.000000;0.341739
9215.000000;0.341701
9214.000000;0.341752
9213.000000;0.341447
9212.000000;0.340763
9211.000000;0.340075
9210.000000;0.339717
9209.000000;0.339601
9208.000000;0.339310
9207.000000;0.338568
9206.000000;0.337558
9205.000000;0.336719
9204.000000;0.336282
9203.000000;0.336128
9202.000000;0.336039
9201.000000;0.335961
9200.000000;0.335942
9199.000000;0.335921
9198.000000;0.335739
9197.000000;0.335347
9196.000000;0.334898
9195.000000;0.334561
9194.000000;0.334317
9193.000000;0.333998
9192.000000;0.333468
9191.000000;0.332712
9190.000000;0.331793
9189.000000;0.330834
9188.000000;0.330037
9187.000000;0.329563
9186.000000;0.329332
9185.000000;0.329031
9184.000000;0.328427
9183.000000;0.327620
9182.000000;0.326909
9181.000000;0.326448
9180.000000;0.326154
9179.000000;0.325897
9178.000000;0.325667
9177.000000;0.325516
9176.000000;0.325408
9175.000000;0.325203
9174.000000;0.324744
9173.000000;0.323957
9172.000000;0.322926
9171.000000;0.321883
9170.000000;0.321079
9169.000000;0.320602
9168.000000;0.320351
9167.000000;0.320170
9166.000000;0.319970
9165.000000;0.319700
9164.000000;0.319301
9163.000000;0.318758
9162.000000;0.318143
9161.000000;0.317537
9160.000000;0.316934
9159.000000;0.316322
9158.000000;0.315831
9157.000000;0.315669
9156.000000;0.315844
9155.000000;0.316032
9154.000000;0.315829
9153.000000;0.315118
9152.000000;0.314130
9151.000000;0.313189
9150.000000;0.312492
9149.000000;0.312102
9148.000000;0.311982
9147.000000;0.311973
9146.000000;0.311858
9145.000000;0.311524
9144.000000;0.311035
9143.000000;0.310479
9142.000000;0.309863
9141.000000;0.309204
9140.000000;0.308612
9139.000000;0.308157
9138.000000;0.307733
9137.000000;0.307222
9136.000000;0.306741
9135.000000;0.306538
9134.000000;0.306624
9133.000000;0.306674
9132.000000;0.306364
9131.000000;0.305690
9130.000000;0.304892
9129.000000;0.304192
9128.000000;0.303696
9127.000000;0.303443
9126.000000;0.303415
9125.000000;0.303514
9124.000000;0.303572
9123.000000;0.303411
9122.000000;0.302913
9121.000000;0.302122
9120.000000;0.301252
9119.000000;0.300479
9118.000000;0.299773
9117.000000;0.299029
9116.000000;0.298337
9115.000000;0.297919
9114.000000;0.297782
9113.000000;0.297659
9112.000000;0.297377
9111.000000;0.297066
9110.000000;0.296889
9109.000000;0.296746
9108.000000;0.296442
9107.000000;0.295985
9106.000000;0.295517
9105.000000;0.295069
9104.000000;0.294582
9103.000000;0.294065
9102.000000;0.293553
9101.000000;0.292981
9100.000000;0.292305
9099.000000;0.291678
9098.000000;0.291288
9097.000000;0.291082
9096.000000;0.290857
9095.000000;0.290588
9094.000000;0.290441
9093.000000;0.290458
9092.000000;0.290461
9091.000000;0.290284
9090.000000;0.289941
9089.000000;0.289510
9088.000000;0.289028
9087.000000;0.288524
9086.000000;0.288010
9085.000000;0.287400
9084.000000;0.286628
9083.000000;0.285840
9082.000000;0.285286
9081.000000;0.284963
9080.000000;0.284583
9079.000000;0.283996
9078.000000;0.283441
9077.000000;0.283252
9076.000000;0.283426
9075.000000;0.283644
9074.000000;0.283616
9073.000000;0.283272
9072.000000;0.282678
9071.000000;0.281932
9070.000000;0.281156
9069.000000;0.280508
9068.000000;0.280135
9067.000000;0.280069
9066.000000;0.280115
9065.000000;0.279934
9064.000000;0.279354
9063.000000;0.278604
9062.000000;0.278087
9061.000000;0.277911
9060.000000;0.277784
9059.000000;0.277420
9058.000000;0.276853
9057.000000;0.276271
9056.000000;0.275711
9055.000000;0.275084
9054.000000;0.274395
9053.000000;0.273776
