Criado como novo conjunto de dados;"e2410_daniel_v2.spp","63905.3 Secs"
cm-1;Abs
10000.000000;1.210761
9999.000000;1.209745
9998.000000;1.208732
9997.000000;1.207721
9996.000000;1.206714
9995.000000;1.205705
9994.000000;1.204706
9993.000000;1.203695
9992.000000;1.202712
9991.000000;1.201686
9990.000000;1.200754
9989.000000;1.199440
9988.000000;1.197730
9987.000000;1.196377
9986.000000;1.195918
9985.000000;1.196498
9984.000000;1.197309
9983.000000;1.197290
9982.000000;1.196273
9981.000000;1.195145
9980.000000;1.194665
9979.000000;1.194667
9978.000000;1.194578
9977.000000;1.194126
9976.000000;1.193230
9975.000000;1.191728
9974.000000;1.189705
9973.000000;1.187786
9972.000000;1.186717
9971.000000;1.186791
9970.000000;1.187763
9969.000000;1.189034
9968.000000;1.189805
9967.000000;1.189494
9966.000000;1.188288
9965.000000;1.186999
9964.000000;1.186156
9963.000000;1.185569
9962.000000;1.184929
9961.000000;1.184348
9960.000000;1.184045
9959.000000;1.183899
9958.000000;1.183715
9957.000000;1.183580
9956.000000;1.183585
9955.000000;1.183403
9954.000000;1.182551
9953.000000;1.181005
9952.000000;1.179299
9951.000000;1.178089
9950.000000;1.177707
9949.000000;1.177979
9948.000000;1.178357
9947.000000;1.178336
9946.000000;1.177815
9945.000000;1.176943
9944.000000;1.175804
9943.000000;1.174546
9942.000000;1.173616
9941.000000;1.173332
9940.000000;1.173286
9939.000000;1.172756
9938.000000;1.171782
9937.000000;1.171199
9936.000000;1.171423
9935.000000;1.171835
9934.000000;1.171677
9933.000000;1.171002
9932.000000;1.170313
9931.000000;1.169737
9930.000000;1.169002
9929.000000;1.167950
9928.000000;1.166710
9927.000000;1.165579
9926.000000;1.164947
9925.000000;1.165057
9924.000000;1.165613
9923.000000;1.165917
9922.000000;1.165623
9921.000000;1.165044
9920.000000;1.164622
9919.000000;1.164460
9918.000000;1.164510
9917.000000;1.164745
9916.000000;1.164902
9915.000000;1.164467
9914.000000;1.163208
9913.000000;1.161433
9912.000000;1.159592
9911.000000;1.157992
9910.000000;1.157020
9909.000000;1.157059
9908.000000;1.157900
9907.000000;1.158694
9906.000000;1.158846
9905.000000;1.158561
9904.000000;1.158251
9903.000000;1.157868
9902.000000;1.157200
9901.000000;1.156361
9900.000000;1.155588
9899.000000;1.154868
9898.000000;1.154136
9897.000000;1.153518
9896.000000;1.153063
9895.000000;1.152563
9894.000000;1.151931
9893.000000;1.151440
9892.000000;1.151285
9891.000000;1.151255
9890.000000;1.151093
9889.000000;1.150819
9888.000000;1.150402
9887.000000;1.149543
9886.000000;1.148161
9885.000000;1.146686
9884.000000;1.145562
9883.000000;1.144812
9882.000000;1.144379
9881.000000;1.144394
9880.000000;1.144700
9879.000000;1.144617
9878.000000;1.143710
9877.000000;1.142439
9876.000000;1.141508
9875.000000;1.140949
9874.000000;1.140408
9873.000000;1.139974
9872.000000;1.140040
9871.000000;1.140508
9870.000000;1.140763
9869.000000;1.140422
9868.000000;1.139639
9867.000000;1.138724
9866.000000;1.137898
9865.000000;1.137330
9864.000000;1.137001
9863.000000;1.136587
9862.000000;1.135871
9861.000000;1.135166
9860.000000;1.134953
9859.000000;1.135200
9858.000000;1.135377
9857.000000;1.135053
9856.000000;1.134147
9855.000000;1.132756
9854.000000;1.131142
9853.000000;1.129814
9852.000000;1.129155
9851.000000;1.128941
9850.000000;1.128606
9849.000000;1.127989
9848.000000;1.127496
9847.000000;1.127460
9846.000000;1.127702
9845.000000;1.127816
9844.000000;1.127632
9843.000000;1.127283
9842.000000;1.126987
9841.000000;1.126858
9840.000000;1.126822
9839.000000;1.126705
9838.000000;1.126436
9837.000000;1.126066
9836.000000;1.125536
9835.000000;1.124617
9834.000000;1.123270
9833.000000;1.121897
9832.000000;1.120952
9831.000000;1.120373
9830.000000;1.119671
9829.000000;1.118597
9828.000000;1.117539
9827.000000;1.117146
9826.000000;1.117643
9825.000000;1.118526
9824.000000;1.118950
9823.000000;1.118466
9822.000000;1.117405
9821.000000;1.116475
9820.000000;1.116066
9819.000000;1.116047
9818.000000;1.116091
9817.000000;1.115918
9816.000000;1.115291
9815.000000;1.114125
9814.000000;1.112719
9813.000000;1.111617
9812.000000;1.111076
9811.000000;1.110871
9810.000000;1.110653
9809.000000;1.110267
9808.000000;1.109688
9807.000000;1.108954
9806.000000;1.108282
9805.000000;1.107945
9804.000000;1.107884
9803.000000;1.107682
9802.000000;1.107051
9801.000000;1.106128
9800.000000;1.105211
9799.000000;1.104473
9798.000000;1.104015
9797.000000;1.103873
9796.000000;1.103839
9795.000000;1.103537
9794.000000;1.102875
9793.000000;1.102173
9792.000000;1.101752
9791.000000;1.101603
9790.000000;1.101557
9789.000000;1.101483
9788.000000;1.101241
9787.000000;1.100733
9786.000000;1.100127
9785.000000;1.099723
9784.000000;1.099526
9783.000000;1.099243
9782.000000;1.098762
9781.000000;1.098257
9780.000000;1.097731
9779.000000;1.096905
9778.000000;1.095764
9777.000000;1.094712
9776.000000;1.093947
9775.000000;1.093155
9774.000000;1.092144
9773.000000;1.091373
9772.000000;1.091402
9771.000000;1.092100
9770.000000;1.092758
9769.000000;1.092783
9768.000000;1.092018
9767.000000;1.090651
9766.000000;1.089182
9765.000000;1.088242
9764.000000;1.088062
9763.000000;1.088172
9762.000000;1.087908
9761.000000;1.087100
9760.000000;1.086071
9759.000000;1.085185
9758.000000;1.084669
9757.000000;1.084677
9756.000000;1.085153
9755.000000;1.085676
9754.000000;1.085743
9753.000000;1.085227
9752.000000;1.084450
9751.000000;1.083864
9750.000000;1.083711
9749.000000;1.083808
9748.000000;1.083564
9747.000000;1.082466
9746.000000;1.080708
9745.000000;1.079134
9744.000000;1.078413
9743.000000;1.078451
9742.000000;1.078687
9741.000000;1.078707
9740.000000;1.078420
9739.000000;1.077946
9738.000000;1.077528
9737.000000;1.077357
9736.000000;1.077258
9735.000000;1.076784
9734.000000;1.075773
9733.000000;1.074587
9732.000000;1.073654
9731.000000;1.073047
9730.000000;1.072682
9729.000000;1.072588
9728.000000;1.072731
9727.000000;1.072813
9726.000000;1.072546
9725.000000;1.071934
9724.000000;1.071110
9723.000000;1.070142
9722.000000;1.069184
9721.000000;1.068521
9720.000000;1.068201
9719.000000;1.067891
9718.000000;1.067372
9717.000000;1.066928
9716.000000;1.066926
9715.000000;1.067198
9714.000000;1.067171
9713.000000;1.066509
9712.000000;1.065392
9711.000000;1.064282
9710.000000;1.063607
9709.000000;1.063526
9708.000000;1.063768
9707.000000;1.063814
9706.000000;1.063387
9705.000000;1.062635
9704.000000;1.061783
9703.000000;1.060884
9702.000000;1.060068
9701.000000;1.059692
9700.000000;1.059948
9699.000000;1.060500
9698.000000;1.060777
9697.000000;1.060491
9696.000000;1.059712
9695.000000;1.058672
9694.000000;1.057711
9693.000000;1.057143
9692.000000;1.056875
9691.000000;1.056375
9690.000000;1.055323
9689.000000;1.054159
9688.000000;1.053658
9687.000000;1.054084
9686.000000;1.054960
9685.000000;1.055548
9684.000000;1.055361
9683.000000;1.054384
9682.000000;1.053052
9681.000000;1.051912
9680.000000;1.051149
9679.000000;1.050532
9678.000000;1.049899
9677.000000;1.049423
9676.000000;1.049235
9675.000000;1.049071
9674.000000;1.048591
9673.000000;1.047868
9672.000000;1.047263
9671.000000;1.046954
9670.000000;1.046829
9669.000000;1.046704
9668.000000;1.046401
9667.000000;1.045754
9666.000000;1.044797
9665.000000;1.043845
9664.000000;1.043145
9663.000000;1.042556
9662.000000;1.041804
9661.000000;1.040934
9660.000000;1.040268
9659.000000;1.039977
9658.000000;1.039941
9657.000000;1.039955
9656.000000;1.039888
9655.000000;1.039676
9654.000000;1.039345
9653.000000;1.039041
9652.000000;1.038889
9651.000000;1.038826
9650.000000;1.038642
9649.000000;1.038135
9648.000000;1.037220
9647.000000;1.036046
9646.000000;1.035039
9645.000000;1.034633
9644.000000;1.034820
9643.000000;1.035116
9642.000000;1.035071
9641.000000;1.034660
9640.000000;1.034095
9639.000000;1.033477
9638.000000;1.032837
9637.000000;1.032296
9636.000000;1.031955
9635.000000;1.031721
9634.000000;1.031427
9633.000000;1.031042
9632.000000;1.030646
9631.000000;1.030284
9630.000000;1.029939
9629.000000;1.029513
9628.000000;1.028816
9627.000000;1.027736
9626.000000;1.026521
9625.000000;1.025648
9624.000000;1.025318
9623.000000;1.025251
9622.000000;1.025086
9621.000000;1.024738
9620.000000;1.024258
9619.000000;1.023634
9618.000000;1.022954
9617.000000;1.022492
9616.000000;1.022349
9615.000000;1.022184
9614.000000;1.021583
9613.000000;1.020597
9612.000000;1.019678
9611.000000;1.019169
9610.000000;1.019063
9609.000000;1.019146
9608.000000;1.019208
9607.000000;1.019142
9606.000000;1.018999
9605.000000;1.018916
9604.000000;1.018881
9603.000000;1.018655
9602.000000;1.017997
9601.000000;1.016913
9600.000000;1.015649
9599.000000;1.014575
9598.000000;1.014067
9597.000000;1.014287
9596.000000;1.014940
9595.000000;1.015402
9594.000000;1.015230
9593.000000;1.014461
9592.000000;1.013391
9591.000000;1.012278
9590.000000;1.011305
9589.000000;1.010581
9588.000000;1.010048
9587.000000;1.009543
9586.000000;1.009057
9585.000000;1.008696
9584.000000;1.008372
9583.000000;1.007804
9582.000000;1.006954
9581.000000;1.006188
9580.000000;1.005821
9579.000000;1.005759
9578.000000;1.005741
9577.000000;1.005695
9576.000000;1.005621
9575.000000;1.005391
9574.000000;1.004974
9573.000000;1.004662
9572.000000;1.004744
9571.000000;1.005051
9570.000000;1.005112
9569.000000;1.004742
9568.000000;1.004196
9567.000000;1.003754
9566.000000;1.003365
9565.000000;1.002797
9564.000000;1.001989
9563.000000;1.001130
9562.000000;1.000434
9561.000000;0.999891
9560.000000;0.999296
9559.000000;0.998529
9558.000000;0.997758
9557.000000;0.997282
9556.000000;0.997221
9555.000000;0.997465
9554.000000;0.997842
9553.000000;0.998186
9552.000000;0.998296
9551.000000;0.998046
9550.000000;0.997554
9549.000000;0.997052
9548.000000;0.996595
9547.000000;0.996079
9546.000000;0.995534
9545.000000;0.995156
9544.000000;0.995013
9543.000000;0.994888
9542.000000;0.994499
9541.000000;0.993758
9540.000000;0.992840
9539.000000;0.992098
9538.000000;0.991837
9537.000000;0.991949
9536.000000;0.991893
9535.000000;0.991241
9534.000000;0.990194
9533.000000;0.989282
9532.000000;0.988698
9531.000000;0.988225
9530.000000;0.987728
9529.000000;0.987309
9528.000000;0.986989
9527.000000;0.986652
9526.000000;0.986331
9525.000000;0.986147
9524.000000;0.985945
9523.000000;0.985410
9522.000000;0.984624
9521.000000;0.984086
9520.000000;0.984012
9519.000000;0.984035
9518.000000;0.983753
9517.000000;0.983202
9516.000000;0.982590
9515.000000;0.981947
9514.000000;0.981293
9513.000000;0.980829
9512.000000;0.980667
9511.000000;0.980604
9510.000000;0.980399
9509.000000;0.980056
9508.000000;0.979638
9507.000000;0.979055
9506.000000;0.978279
9505.000000;0.977570
9504.000000;0.977240
9503.000000;0.977302
9502.000000;0.977482
9501.000000;0.977481
9500.000000;0.977141
9499.000000;0.976526
9498.000000;0.975935
9497.000000;0.975638
9496.000000;0.975547
9495.000000;0.975315
9494.000000;0.974794
9493.000000;0.974161
9492.000000;0.973586
9491.000000;0.973076
9490.000000;0.972698
9489.000000;0.972579
9488.000000;0.972566
9487.000000;0.972229
9486.000000;0.971412
9485.000000;0.970482
9484.000000;0.969862
9483.000000;0.969577
9482.000000;0.969413
9481.000000;0.969236
9480.000000;0.968971
9479.000000;0.968562
9478.000000;0.968151
9477.000000;0.968066
9476.000000;0.968411
9475.000000;0.968852
9474.000000;0.968977
9473.000000;0.968679
9472.000000;0.968057
9471.000000;0.967195
9470.000000;0.966228
9469.000000;0.965412
9468.000000;0.964938
9467.000000;0.964810
9466.000000;0.964957
9465.000000;0.965260
9464.000000;0.965427
9463.000000;0.965138
9462.000000;0.964432
9461.000000;0.963657
9460.000000;0.962970
9459.000000;0.962198
9458.000000;0.961293
9457.000000;0.960542
9456.000000;0.960111
9455.000000;0.959743
9454.000000;0.959163
9453.000000;0.958484
9452.000000;0.957978
9451.000000;0.957671
9450.000000;0.957437
9449.000000;0.957254
9448.000000;0.957137
9447.000000;0.957007
9446.000000;0.956801
9445.000000;0.956544
9444.000000;0.956215
9443.000000;0.955754
9442.000000;0.955311
9441.000000;0.955160
9440.000000;0.955216
9439.000000;0.954989
9438.000000;0.954227
9437.000000;0.953296
9436.000000;0.952698
9435.000000;0.952498
9434.000000;0.952466
9433.000000;0.952488
9432.000000;0.952521
9431.000000;0.952365
9430.000000;0.951805
9429.000000;0.950849
9428.000000;0.949680
9427.000000;0.948530
9426.000000;0.947702
9425.000000;0.947436
9424.000000;0.947575
9423.000000;0.947638
9422.000000;0.947395
9421.000000;0.947078
9420.000000;0.946875
9419.000000;0.946611
9418.000000;0.946189
9417.000000;0.945932
9416.000000;0.946100
9415.000000;0.946392
9414.000000;0.946312
9413.000000;0.945795
9412.000000;0.945114
9411.000000;0.944387
9410.000000;0.943613
9409.000000;0.942979
9408.000000;0.942686
9407.000000;0.942582
9406.000000;0.942350
9405.000000;0.941977
9404.000000;0.941683
9403.000000;0.941492
9402.000000;0.941225
9401.000000;0.940842
9400.000000;0.940474
9399.000000;0.940134
9398.000000;0.939727
9397.000000;0.939286
9396.000000;0.938912
9395.000000;0.938527
9394.000000;0.937999
9393.000000;0.937470
9392.000000;0.937245
9391.000000;0.937351
9390.000000;0.937482
9389.000000;0.937402
9388.000000;0.937141
9387.000000;0.936754
9386.000000;0.936166
9385.000000;0.935350
9384.000000;0.934495
9383.000000;0.933851
9382.000000;0.933508
9381.000000;0.933376
9380.000000;0.933319
9379.000000;0.933302
9378.000000;0.933417
9377.000000;0.933714
9376.000000;0.934000
9375.000000;0.933947
9374.000000;0.933473
9373.000000;0.932851
9372.000000;0.932318
9371.000000;0.931736
9370.000000;0.930819
9369.000000;0.929603
9368.000000;0.928486
9367.000000;0.927866
9366.000000;0.927859
9365.000000;0.928269
9364.000000;0.928686
9363.000000;0.928696
9362.000000;0.928168
9361.000000;0.927333
9360.000000;0.926494
9359.000000;0.925758
9358.000000;0.925105
9357.000000;0.924589
9356.000000;0.924291
9355.000000;0.924201
9354.000000;0.924255
9353.000000;0.924409
9352.000000;0.924521
9351.000000;0.924304
9350.000000;0.923582
9349.000000;0.922542
9348.000000;0.921601
9347.000000;0.921088
9346.000000;0.921122
9345.000000;0.921635
9344.000000;0.922290
9343.000000;0.922508
9342.000000;0.921872
9341.000000;0.920567
9340.000000;0.919273
9339.000000;0.918580
9338.000000;0.918548
9337.000000;0.918768
9336.000000;0.918745
9335.000000;0.918264
9334.000000;0.917520
9333.000000;0.916932
9332.000000;0.916781
9331.000000;0.917001
9330.000000;0.917292
9329.000000;0.917378
9328.000000;0.917181
9327.000000;0.916841
9326.000000;0.916604
9325.000000;0.916576
9324.000000;0.916550
9323.000000;0.916178
9322.000000;0.915378
9321.000000;0.914471
9320.000000;0.913861
9319.000000;0.913645
9318.000000;0.913571
9317.000000;0.913292
9316.000000;0.912684
9315.000000;0.912010
9314.000000;0.911727
9313.000000;0.912008
9312.000000;0.912472
9311.000000;0.912560
9310.000000;0.912137
9309.000000;0.911522
9308.000000;0.910974
9307.000000;0.910419
9306.000000;0.909749
9305.000000;0.909078
9304.000000;0.908562
9303.000000;0.908194
9302.000000;0.907928
9301.000000;0.907806
9300.000000;0.907831
9299.000000;0.907862
9298.000000;0.907772
9297.000000;0.907567
9296.000000;0.907254
9295.000000;0.906785
9294.000000;0.906254
9293.000000;0.905961
9292.000000;0.906109
9291.000000;0.906537
9290.000000;0.906890
9289.000000;0.906946
9288.000000;0.906687
9287.000000;0.906189
9286.000000;0.905592
9285.000000;0.905050
9284.000000;0.904567
9283.000000;0.903957
9282.000000;0.903078
9281.000000;0.902064
9280.000000;0.901227
9279.000000;0.900792
9278.000000;0.900771
9277.000000;0.900990
9276.000000;0.901196
9275.000000;0.901249
9274.000000;0.901237
9273.000000;0.901290
9272.000000;0.901299
9271.000000;0.901005
9270.000000;0.900419
9269.000000;0.899926
9268.000000;0.899842
9267.000000;0.900001
9266.000000;0.899917
9265.000000;0.899258
9264.000000;0.898130
9263.000000;0.896995
9262.000000;0.896344
9261.000000;0.896289
9260.000000;0.896451
9259.000000;0.896361
9258.000000;0.895971
9257.000000;0.895571
9256.000000;0.895273
9255.000000;0.894896
9254.000000;0.894409
9253.000000;0.894106
9252.000000;0.894155
9251.000000;0.894275
9250.000000;0.894103
9249.000000;0.893671
9248.000000;0.893284
9247.000000;0.893107
9246.000000;0.893094
9245.000000;0.893167
9244.000000;0.893211
9243.000000;0.893003
9242.000000;0.892436
9241.000000;0.891778
9240.000000;0.891453
9239.000000;0.891560
9238.000000;0.891763
9237.000000;0.891669
9236.000000;0.891186
9235.000000;0.890515
9234.000000;0.889908
9233.000000;0.889485
9232.000000;0.889191
9231.000000;0.888871
9230.000000;0.888420
9229.000000;0.887856
9228.000000;0.887296
9227.000000;0.886851
9226.000000;0.886550
9225.000000;0.886294
9224.000000;0.885946
9223.000000;0.885501
9222.000000;0.885152
9221.000000;0.885087
9220.000000;0.885291
9219.000000;0.885617
9218.000000;0.885975
9217.000000;0.886311
9216.000000;0.886445
9215.000000;0.886162
9214.000000;0.885472
9213.000000;0.884647
9212.000000;0.883943
9211.000000;0.883407
9210.000000;0.882935
9209.000000;0.882412
9208.000000;0.881799
9207.000000;0.881178
9206.000000;0.880700
9205.000000;0.880410
9204.000000;0.880214
9203.000000;0.880093
9202.000000;0.880202
9201.000000;0.880568
9200.000000;0.880867
9199.000000;0.880738
9198.000000;0.880217
9197.000000;0.879607
9196.000000;0.879031
9195.000000;0.878421
9194.000000;0.877843
9193.000000;0.877469
9192.000000;0.877267
9191.000000;0.877074
9190.000000;0.876960
9189.000000;0.877151
9188.000000;0.877547
9187.000000;0.877705
9186.000000;0.877405
9185.000000;0.876931
9184.000000;0.876654
9183.000000;0.876612
9182.000000;0.876604
9181.000000;0.876440
9180.000000;0.876015
9179.000000;0.875404
9178.000000;0.874930
9177.000000;0.874872
9176.000000;0.875029
9175.000000;0.874878
9174.000000;0.874237
9173.000000;0.873467
9172.000000;0.872932
9171.000000;0.872583
9170.000000;0.872215
9169.000000;0.871793
9168.000000;0.871352
9167.000000;0.870832
9166.000000;0.870239
9165.000000;0.869743
9164.000000;0.869492
9163.000000;0.869487
9162.000000;0.869720
9161.000000;0.870178
9160.000000;0.870634
9159.000000;0.870769
9158.000000;0.870600
9157.000000;0.870488
9156.000000;0.870548
9155.000000;0.870402
9154.000000;0.869749
9153.000000;0.868888
9152.000000;0.868401
9151.000000;0.868502
9150.000000;0.868913
9149.000000;0.869200
9148.000000;0.869027
9147.000000;0.868288
9146.000000;0.867231
9145.000000;0.866335
9144.000000;0.865919
9143.000000;0.865940
9142.000000;0.866195
9141.000000;0.866509
9140.000000;0.866671
9139.000000;0.866452
9138.000000;0.865857
9137.000000;0.865167
9136.000000;0.864587
9135.000000;0.864064
9134.000000;0.863548
9133.000000;0.863165
9132.000000;0.862999
9131.000000;0.862946
9130.000000;0.862955
9129.000000;0.863136
9128.000000;0.863473
9127.000000;0.863653
9126.000000;0.863420
9125.000000;0.862902
9124.000000;0.862424
9123.000000;0.862168
9122.000000;0.862146
9121.000000;0.862274
9120.000000;0.862329
9119.000000;0.862074
9118.000000;0.861599
9117.000000;0.861274
9116.000000;0.861204
9115.000000;0.861048
9114.000000;0.860551
9113.000000;0.859937
9112.000000;0.859526
9111.000000;0.859275
9110.000000;0.859009
9109.000000;0.858801
9108.000000;0.858784
9107.000000;0.858825
9106.000000;0.858736
9105.000000;0.858643
9104.000000;0.858734
9103.000000;0.858822
9102.000000;0.858547
9101.000000;0.857930
9100.000000;0.857328
9099.000000;0.856907
9098.000000;0.856530
9097.000000;0.856151
9096.000000;0.855959
9095.000000;0.856047
9094.000000;0.856257
9093.000000;0.856410
9092.000000;0.856470
9091.000000;0.856404
9090.000000;0.856109
9089.000000;0.855552
9088.000000;0.854839
9087.000000;0.854113
9086.000000;0.853502
9085.000000;0.853180
9084.000000;0.853260
9083.000000;0.853602
9082.000000;0.853864
9081.000000;0.853804
9080.000000;0.853455
9079.000000;0.853025
9078.000000;0.852722
9077.000000;0.852680
9076.000000;0.852874
9075.000000;0.853076
9074.000000;0.853011
9073.000000;0.852627
9072.000000;0.852151
9071.000000;0.851830
9070.000000;0.851682
9069.000000;0.851501
9068.000000;0.851083
9067.000000;0.850423
9066.000000;0.849736
9065.000000;0.849271
9064.000000;0.849124
9063.000000;0.849189
9062.000000;0.849272
9061.000000;0.849191
9060.000000;0.848857
9059.000000;0.848333
9058.000000;0.847819
9057.000000;0.847486
9056.000000;0.847324
9055.000000;0.847217
9054.000000;0.847131
9053.000000;0.847085
