Criado como novo conjunto de dados;"e2410_daniel_v2.spp","57245.0 Secs"
cm-1;Abs
10000.000000;1.189686
9999.000000;1.189274
9998.000000;1.188998
9997.000000;1.188920
9996.000000;1.188789
9995.000000;1.188289
9994.000000;1.187642
9993.000000;1.187454
9992.000000;1.187858
9991.000000;1.188237
9990.000000;1.187978
9989.000000;1.187120
9988.000000;1.186074
9987.000000;1.185054
9986.000000;1.184030
9985.000000;1.182975
9984.000000;1.181955
9983.000000;1.181093
9982.000000;1.180527
9981.000000;1.180282
9980.000000;1.180203
9979.000000;1.180160
9978.000000;1.180178
9977.000000;1.180113
9976.000000;1.179454
9975.000000;1.177903
9974.000000;1.176018
9973.000000;1.174759
9972.000000;1.174443
9971.000000;1.174575
9970.000000;1.174651
9969.000000;1.174606
9968.000000;1.174499
9967.000000;1.174361
9966.000000;1.174425
9965.000000;1.174896
9964.000000;1.175386
9963.000000;1.175148
9962.000000;1.174028
9961.000000;1.172603
9960.000000;1.171230
9959.000000;1.169656
9958.000000;1.167816
9957.000000;1.166360
9956.000000;1.165920
9955.000000;1.166319
9954.000000;1.166910
9953.000000;1.167346
9952.000000;1.167604
9951.000000;1.167576
9950.000000;1.167127
9949.000000;1.166433
9948.000000;1.165841
9947.000000;1.165386
9946.000000;1.164682
9945.000000;1.163325
9944.000000;1.161395
9943.000000;1.159638
9942.000000;1.158996
9941.000000;1.159702
9940.000000;1.160880
9939.000000;1.161378
9938.000000;1.160973
9937.000000;1.160373
9936.000000;1.160059
9935.000000;1.159731
9934.000000;1.159017
9933.000000;1.158123
9932.000000;1.157442
9931.000000;1.156892
9930.000000;1.156043
9929.000000;1.154732
9928.000000;1.153290
9927.000000;1.152267
9926.000000;1.152018
9925.000000;1.152378
9924.000000;1.152709
9923.000000;1.152462
9922.000000;1.151715
9921.000000;1.150936
9920.000000;1.150329
9919.000000;1.149754
9918.000000;1.149191
9917.000000;1.148830
9916.000000;1.148671
9915.000000;1.148428
9914.000000;1.147909
9913.000000;1.147177
9912.000000;1.146346
9911.000000;1.145607
9910.000000;1.145390
9909.000000;1.145987
9908.000000;1.146962
9907.000000;1.147400
9906.000000;1.146863
9905.000000;1.145682
9904.000000;1.144326
9903.000000;1.143003
9902.000000;1.141929
9901.000000;1.141306
9900.000000;1.140859
9899.000000;1.140003
9898.000000;1.138721
9897.000000;1.137723
9896.000000;1.137462
9895.000000;1.137545
9894.000000;1.137422
9893.000000;1.137149
9892.000000;1.137063
9891.000000;1.137140
9890.000000;1.137120
9889.000000;1.136964
9888.000000;1.136736
9887.000000;1.136299
9886.000000;1.135506
9885.000000;1.134532
9884.000000;1.133705
9883.000000;1.133151
9882.000000;1.132810
9881.000000;1.132585
9880.000000;1.132264
9879.000000;1.131519
9878.000000;1.130251
9877.000000;1.128801
9876.000000;1.127652
9875.000000;1.127069
9874.000000;1.127112
9873.000000;1.127695
9872.000000;1.128445
9871.000000;1.128737
9870.000000;1.128167
9869.000000;1.126872
9868.000000;1.125283
9867.000000;1.123736
9866.000000;1.122469
9865.000000;1.121739
9864.000000;1.121658
9863.000000;1.122003
9862.000000;1.122338
9861.000000;1.122293
9860.000000;1.121724
9859.000000;1.120764
9858.000000;1.119754
9857.000000;1.118967
9856.000000;1.118350
9855.000000;1.117685
9854.000000;1.116982
9853.000000;1.116485
9852.000000;1.116285
9851.000000;1.116149
9850.000000;1.115805
9849.000000;1.115237
9848.000000;1.114647
9847.000000;1.114305
9846.000000;1.114408
9845.000000;1.114850
9844.000000;1.115156
9843.000000;1.114836
9842.000000;1.113869
9841.000000;1.112670
9840.000000;1.111646
9839.000000;1.110996
9838.000000;1.110757
9837.000000;1.110743
9836.000000;1.110546
9835.000000;1.109945
9834.000000;1.109236
9833.000000;1.108805
9832.000000;1.108494
9831.000000;1.107799
9830.000000;1.106665
9829.000000;1.105630
9828.000000;1.105129
9827.000000;1.105055
9826.000000;1.105061
9825.000000;1.104917
9824.000000;1.104492
9823.000000;1.103763
9822.000000;1.102951
9821.000000;1.102352
9820.000000;1.101928
9819.000000;1.101369
9818.000000;1.100610
9817.000000;1.100002
9816.000000;1.099878
9815.000000;1.100195
9814.000000;1.100688
9813.000000;1.101082
9812.000000;1.101093
9811.000000;1.100486
9810.000000;1.099261
9809.000000;1.097651
9808.000000;1.095965
9807.000000;1.094557
9806.000000;1.093789
9805.000000;1.093703
9804.000000;1.093835
9803.000000;1.093669
9802.000000;1.093232
9801.000000;1.092937
9800.000000;1.092946
9799.000000;1.093015
9798.000000;1.092843
9797.000000;1.092242
9796.000000;1.091126
9795.000000;1.089715
9794.000000;1.088596
9793.000000;1.088157
9792.000000;1.088091
9791.000000;1.087894
9790.000000;1.087677
9789.000000;1.087883
9788.000000;1.088310
9787.000000;1.088147
9786.000000;1.087086
9785.000000;1.085759
9784.000000;1.084831
9783.000000;1.084232
9782.000000;1.083555
9781.000000;1.082791
9780.000000;1.082366
9779.000000;1.082638
9778.000000;1.083528
9777.000000;1.084447
9776.000000;1.084553
9775.000000;1.083379
9774.000000;1.081306
9773.000000;1.079194
9772.000000;1.077632
9771.000000;1.076738
9770.000000;1.076478
9769.000000;1.076728
9768.000000;1.077117
9767.000000;1.077262
9766.000000;1.077205
9765.000000;1.077236
9764.000000;1.077353
9763.000000;1.077303
9762.000000;1.077068
9761.000000;1.076833
9760.000000;1.076531
9759.000000;1.075876
9758.000000;1.074861
9757.000000;1.073738
9756.000000;1.072555
9755.000000;1.071232
9754.000000;1.070039
9753.000000;1.069411
9752.000000;1.069252
9751.000000;1.068988
9750.000000;1.068376
9749.000000;1.067712
9748.000000;1.067152
9747.000000;1.066448
9746.000000;1.065503
9745.000000;1.064640
9744.000000;1.064078
9743.000000;1.063652
9742.000000;1.063241
9741.000000;1.063023
9740.000000;1.063074
9739.000000;1.063142
9738.000000;1.062994
9737.000000;1.062619
9736.000000;1.061972
9735.000000;1.060963
9734.000000;1.059880
9733.000000;1.059318
9732.000000;1.059443
9731.000000;1.059710
9730.000000;1.059526
9729.000000;1.058876
9728.000000;1.058121
9727.000000;1.057558
9726.000000;1.057324
9725.000000;1.057363
9724.000000;1.057322
9723.000000;1.056817
9722.000000;1.055960
9721.000000;1.055268
9720.000000;1.054937
9719.000000;1.054612
9718.000000;1.053974
9717.000000;1.053144
9716.000000;1.052336
9715.000000;1.051575
9714.000000;1.050929
9713.000000;1.050592
9712.000000;1.050511
9711.000000;1.050338
9710.000000;1.049945
9709.000000;1.049620
9708.000000;1.049562
9707.000000;1.049534
9706.000000;1.049273
9705.000000;1.048871
9704.000000;1.048551
9703.000000;1.048377
9702.000000;1.048361
9701.000000;1.048478
9700.000000;1.048390
9699.000000;1.047554
9698.000000;1.045903
9697.000000;1.044118
9696.000000;1.042954
9695.000000;1.042539
9694.000000;1.042478
9693.000000;1.042380
9692.000000;1.042067
9691.000000;1.041511
9690.000000;1.040804
9689.000000;1.040049
9688.000000;1.039239
9687.000000;1.038433
9686.000000;1.038001
9685.000000;1.038319
9684.000000;1.039180
9683.000000;1.039871
9682.000000;1.039948
9681.000000;1.039564
9680.000000;1.038965
9679.000000;1.038138
9678.000000;1.037146
9677.000000;1.036341
9676.000000;1.035932
9675.000000;1.035665
9674.000000;1.035169
9673.000000;1.034379
9672.000000;1.033443
9671.000000;1.032521
9670.000000;1.031838
9669.000000;1.031595
9668.000000;1.031620
9667.000000;1.031408
9666.000000;1.030735
9665.000000;1.029921
9664.000000;1.029322
9663.000000;1.028890
9662.000000;1.028457
9661.000000;1.028123
9660.000000;1.028049
9659.000000;1.028093
9658.000000;1.027921
9657.000000;1.027366
9656.000000;1.026528
9655.000000;1.025696
9654.000000;1.025254
9653.000000;1.025384
9652.000000;1.025709
9651.000000;1.025524
9650.000000;1.024568
9649.000000;1.023324
9648.000000;1.022392
9647.000000;1.021831
9646.000000;1.021309
9645.000000;1.020674
9644.000000;1.020152
9643.000000;1.020087
9642.000000;1.020590
9641.000000;1.021331
9640.000000;1.021663
9639.000000;1.021201
9638.000000;1.020276
9637.000000;1.019566
9636.000000;1.019249
9635.000000;1.018861
9634.000000;1.018038
9633.000000;1.016973
9632.000000;1.016020
9631.000000;1.015223
9630.000000;1.014473
9629.000000;1.013833
9628.000000;1.013439
9627.000000;1.013261
9626.000000;1.013149
9625.000000;1.012960
9624.000000;1.012550
9623.000000;1.011888
9622.000000;1.011238
9621.000000;1.010973
9620.000000;1.011050
9619.000000;1.010958
9618.000000;1.010350
9617.000000;1.009494
9616.000000;1.008900
9615.000000;1.008703
9614.000000;1.008602
9613.000000;1.008237
9612.000000;1.007497
9611.000000;1.006569
9610.000000;1.005808
9609.000000;1.005416
9608.000000;1.005245
9607.000000;1.005065
9606.000000;1.004947
9605.000000;1.005111
9604.000000;1.005400
9603.000000;1.005296
9602.000000;1.004558
9601.000000;1.003501
9600.000000;1.002505
9599.000000;1.001575
9598.000000;1.000594
9597.000000;0.999674
9596.000000;0.999010
9595.000000;0.998560
9594.000000;0.998148
9593.000000;0.997757
9592.000000;0.997537
9591.000000;0.997579
9590.000000;0.997743
9589.000000;0.997681
9588.000000;0.997069
9587.000000;0.995980
9586.000000;0.994987
9585.000000;0.994669
9584.000000;0.995005
9583.000000;0.995452
9582.000000;0.995606
9581.000000;0.995523
9580.000000;0.995365
9579.000000;0.995058
9578.000000;0.994465
9577.000000;0.993669
9576.000000;0.992882
9575.000000;0.992199
9574.000000;0.991542
9573.000000;0.990789
9572.000000;0.989968
9571.000000;0.989382
9570.000000;0.989399
9569.000000;0.989944
9568.000000;0.990315
9567.000000;0.989816
9566.000000;0.988520
9565.000000;0.987151
9564.000000;0.986272
9563.000000;0.985889
9562.000000;0.985759
9561.000000;0.985706
9560.000000;0.985626
9559.000000;0.985525
9558.000000;0.985576
9557.000000;0.985850
9556.000000;0.985991
9555.000000;0.985501
9554.000000;0.984366
9553.000000;0.983060
9552.000000;0.981933
9551.000000;0.980978
9550.000000;0.980207
9549.000000;0.979829
9548.000000;0.979912
9547.000000;0.980179
9546.000000;0.980299
9545.000000;0.980154
9544.000000;0.979773
9543.000000;0.979246
9542.000000;0.978757
9541.000000;0.978391
9540.000000;0.977932
9539.000000;0.977168
9538.000000;0.976378
9537.000000;0.976108
9536.000000;0.976439
9535.000000;0.976880
9534.000000;0.977031
9533.000000;0.976949
9532.000000;0.976750
9531.000000;0.976322
9530.000000;0.975644
9529.000000;0.974979
9528.000000;0.974478
9527.000000;0.973945
9526.000000;0.973231
9525.000000;0.972538
9524.000000;0.972084
9523.000000;0.971733
9522.000000;0.971281
9521.000000;0.970858
9520.000000;0.970743
9519.000000;0.970908
9518.000000;0.970991
9517.000000;0.970663
9516.000000;0.969864
9515.000000;0.968740
9514.000000;0.967511
9513.000000;0.966372
9512.000000;0.965444
9511.000000;0.964819
9510.000000;0.964576
9509.000000;0.964651
9508.000000;0.964748
9507.000000;0.964572
9506.000000;0.964127
9505.000000;0.963648
9504.000000;0.963294
9503.000000;0.963081
9502.000000;0.962974
9501.000000;0.962809
9500.000000;0.962281
9499.000000;0.961341
9498.000000;0.960484
9497.000000;0.960256
9496.000000;0.960524
9495.000000;0.960621
9494.000000;0.960174
9493.000000;0.959378
9492.000000;0.958485
9491.000000;0.957586
9490.000000;0.956955
9489.000000;0.957042
9488.000000;0.957830
9487.000000;0.958608
9486.000000;0.958667
9485.000000;0.957956
9484.000000;0.956865
9483.000000;0.955723
9482.000000;0.954754
9481.000000;0.954200
9480.000000;0.954126
9479.000000;0.954242
9478.000000;0.954173
9477.000000;0.953787
9476.000000;0.953168
9475.000000;0.952451
9474.000000;0.951830
9473.000000;0.951492
9472.000000;0.951368
9471.000000;0.951139
9470.000000;0.950640
9469.000000;0.950087
9468.000000;0.949761
9467.000000;0.949651
9466.000000;0.949555
9465.000000;0.949374
9464.000000;0.949157
9463.000000;0.948970
9462.000000;0.948862
9461.000000;0.948832
9460.000000;0.948750
9459.000000;0.948419
9458.000000;0.947809
9457.000000;0.947111
9456.000000;0.946509
9455.000000;0.946027
9454.000000;0.945634
9453.000000;0.945348
9452.000000;0.945181
9451.000000;0.945071
9450.000000;0.944901
9449.000000;0.944504
9448.000000;0.943730
9447.000000;0.942637
9446.000000;0.941546
9445.000000;0.940723
9444.000000;0.940116
9443.000000;0.939607
9442.000000;0.939368
9441.000000;0.939620
9440.000000;0.940133
9439.000000;0.940371
9438.000000;0.940179
9437.000000;0.939938
9436.000000;0.939904
9435.000000;0.939757
9434.000000;0.939046
9433.000000;0.937841
9432.000000;0.936734
9431.000000;0.936281
9430.000000;0.936541
9429.000000;0.937067
9428.000000;0.937321
9427.000000;0.937170
9426.000000;0.936953
9425.000000;0.936938
9424.000000;0.936861
9423.000000;0.936249
9422.000000;0.935092
9421.000000;0.933874
9420.000000;0.932967
9419.000000;0.932294
9418.000000;0.931627
9417.000000;0.930904
9416.000000;0.930234
9415.000000;0.929786
9414.000000;0.929726
9413.000000;0.930022
9412.000000;0.930322
9411.000000;0.930247
9410.000000;0.929800
9409.000000;0.929280
9408.000000;0.928845
9407.000000;0.928437
9406.000000;0.928041
9405.000000;0.927699
9404.000000;0.927301
9403.000000;0.926705
9402.000000;0.926048
9401.000000;0.925594
9400.000000;0.925300
9399.000000;0.924907
9398.000000;0.924426
9397.000000;0.924126
9396.000000;0.924031
9395.000000;0.923859
9394.000000;0.923528
9393.000000;0.923302
9392.000000;0.923291
9391.000000;0.923238
9390.000000;0.922979
9389.000000;0.922748
9388.000000;0.922792
9387.000000;0.922986
9386.000000;0.923013
9385.000000;0.922674
9384.000000;0.921877
9383.000000;0.920652
9382.000000;0.919373
9381.000000;0.918657
9380.000000;0.918762
9379.000000;0.919267
9378.000000;0.919526
9377.000000;0.919278
9376.000000;0.918696
9375.000000;0.918069
9374.000000;0.917620
9373.000000;0.917403
9372.000000;0.917186
9371.000000;0.916610
9370.000000;0.915647
9369.000000;0.914748
9368.000000;0.914302
9367.000000;0.914132
9366.000000;0.913728
9365.000000;0.912912
9364.000000;0.912071
9363.000000;0.911716
9362.000000;0.911951
9361.000000;0.912409
9360.000000;0.912632
9359.000000;0.912477
9358.000000;0.912109
9357.000000;0.911681
9356.000000;0.911177
9355.000000;0.910608
9354.000000;0.910144
9353.000000;0.909869
9352.000000;0.909614
9351.000000;0.909234
9350.000000;0.908912
9349.000000;0.908916
9348.000000;0.909159
9347.000000;0.909289
9346.000000;0.909128
9345.000000;0.908759
9344.000000;0.908258
9343.000000;0.907649
9342.000000;0.907003
9341.000000;0.906301
9340.000000;0.905303
9339.000000;0.903948
9338.000000;0.902788
9337.000000;0.902555
9336.000000;0.903265
9335.000000;0.904142
9334.000000;0.904509
9333.000000;0.904384
9332.000000;0.904138
9331.000000;0.903990
9330.000000;0.903990
9329.000000;0.904100
9328.000000;0.904072
9327.000000;0.903545
9326.000000;0.902495
9325.000000;0.901368
9324.000000;0.900635
9323.000000;0.900392
9322.000000;0.900472
9321.000000;0.900651
9320.000000;0.900639
9319.000000;0.900160
9318.000000;0.899280
9317.000000;0.898458
9316.000000;0.898073
9315.000000;0.898041
9314.000000;0.898004
9313.000000;0.897763
9312.000000;0.897389
9311.000000;0.897029
9310.000000;0.896727
9309.000000;0.896395
9308.000000;0.895914
9307.000000;0.895325
9306.000000;0.894875
9305.000000;0.894779
9304.000000;0.894949
9303.000000;0.895099
9302.000000;0.895056
9301.000000;0.894827
9300.000000;0.894477
9299.000000;0.894117
9298.000000;0.893906
9297.000000;0.893832
9296.000000;0.893589
9295.000000;0.892931
9294.000000;0.892048
9293.000000;0.891327
9292.000000;0.890837
9291.000000;0.890375
9290.000000;0.889931
9289.000000;0.889737
9288.000000;0.889841
9287.000000;0.889980
9286.000000;0.889912
9285.000000;0.889610
9284.000000;0.889147
9283.000000;0.888682
9282.000000;0.888488
9281.000000;0.888644
9280.000000;0.888731
9279.000000;0.888225
9278.000000;0.887202
9277.000000;0.886275
9276.000000;0.885817
9275.000000;0.885667
9274.000000;0.885600
9273.000000;0.885602
9272.000000;0.885562
9271.000000;0.885144
9270.000000;0.884243
9269.000000;0.883223
9268.000000;0.882518
9267.000000;0.882245
9266.000000;0.882332
9265.000000;0.882698
9264.000000;0.883137
9263.000000;0.883347
9262.000000;0.883278
9261.000000;0.883198
9260.000000;0.883262
9259.000000;0.883269
9258.000000;0.883002
9257.000000;0.882558
9256.000000;0.882139
9255.000000;0.881758
9254.000000;0.881341
9253.000000;0.880943
9252.000000;0.880652
9251.000000;0.880433
9250.000000;0.880167
9249.000000;0.879759
9248.000000;0.879152
9247.000000;0.878413
9246.000000;0.877789
9245.000000;0.877483
9244.000000;0.877344
9243.000000;0.877048
9242.000000;0.876583
9241.000000;0.876287
9240.000000;0.876332
9239.000000;0.876488
9238.000000;0.876482
9237.000000;0.876299
9236.000000;0.876033
9235.000000;0.875741
9234.000000;0.875571
9233.000000;0.875693
9232.000000;0.875960
9231.000000;0.875948
9230.000000;0.875538
9229.000000;0.875122
9228.000000;0.875017
9227.000000;0.874970
9226.000000;0.874554
9225.000000;0.873803
9224.000000;0.873131
9223.000000;0.872775
9222.000000;0.872631
9221.000000;0.872549
9220.000000;0.872493
9219.000000;0.872399
9218.000000;0.872125
9217.000000;0.871616
9216.000000;0.871001
9215.000000;0.870497
9214.000000;0.870232
9213.000000;0.870161
9212.000000;0.870099
9211.000000;0.869869
9210.000000;0.869468
9209.000000;0.869071
9208.000000;0.868853
9207.000000;0.868836
9206.000000;0.868891
9205.000000;0.868831
9204.000000;0.868551
9203.000000;0.868131
9202.000000;0.867751
9201.000000;0.867483
9200.000000;0.867251
9199.000000;0.867040
9198.000000;0.866985
9197.000000;0.867084
9196.000000;0.867024
9195.000000;0.866503
9194.000000;0.865616
9193.000000;0.864716
9192.000000;0.864022
9191.000000;0.863593
9190.000000;0.863507
9189.000000;0.863703
9188.000000;0.863768
9187.000000;0.863287
9186.000000;0.862420
9185.000000;0.861768
9184.000000;0.861633
9183.000000;0.861745
9182.000000;0.861745
9181.000000;0.861581
9180.000000;0.861344
9179.000000;0.861058
9178.000000;0.860778
9177.000000;0.860629
9176.000000;0.860596
9175.000000;0.860491
9174.000000;0.860238
9173.000000;0.859983
9172.000000;0.859822
9171.000000;0.859623
9170.000000;0.859250
9169.000000;0.858788
9168.000000;0.858424
9167.000000;0.858240
9166.000000;0.858168
9165.000000;0.858037
9164.000000;0.857639
9163.000000;0.856927
9162.000000;0.856161
9161.000000;0.855701
9160.000000;0.855659
9159.000000;0.855885
9158.000000;0.856223
9157.000000;0.856571
9156.000000;0.856712
9155.000000;0.856404
9154.000000;0.855680
9153.000000;0.854835
9152.000000;0.854077
9151.000000;0.853406
9150.000000;0.852850
9149.000000;0.852557
9148.000000;0.852567
9147.000000;0.852709
9146.000000;0.852796
9145.000000;0.852769
9144.000000;0.852643
9143.000000;0.852470
9142.000000;0.852350
9141.000000;0.852301
9140.000000;0.852137
9139.000000;0.851692
9138.000000;0.851102
9137.000000;0.850640
9136.000000;0.850322
9135.000000;0.849959
9134.000000;0.849552
9133.000000;0.849311
9132.000000;0.849294
9131.000000;0.849329
9130.000000;0.849299
9129.000000;0.849211
9128.000000;0.848985
9127.000000;0.848516
9126.000000;0.847987
9125.000000;0.847752
9124.000000;0.847807
9123.000000;0.847758
9122.000000;0.847411
9121.000000;0.847048
9120.000000;0.846935
9119.000000;0.846922
9118.000000;0.846729
9117.000000;0.846363
9116.000000;0.845999
9115.000000;0.845703
9114.000000;0.845515
9113.000000;0.845603
9112.000000;0.846037
9111.000000;0.846501
9110.000000;0.846463
9109.000000;0.845664
9108.000000;0.844355
9107.000000;0.843106
9106.000000;0.842434
9105.000000;0.842470
9104.000000;0.842909
9103.000000;0.843299
9102.000000;0.843400
9101.000000;0.843218
9100.000000;0.842807
9099.000000;0.842255
9098.000000;0.841808
9097.000000;0.841736
9096.000000;0.841998
9095.000000;0.842241
9094.000000;0.842171
9093.000000;0.841764
9092.000000;0.841125
9091.000000;0.840356
9090.000000;0.839629
9089.000000;0.839152
9088.000000;0.838985
9087.000000;0.839026
9086.000000;0.839205
9085.000000;0.839494
9084.000000;0.839740
9083.000000;0.839695
9082.000000;0.839289
9081.000000;0.838663
9080.000000;0.837945
9079.000000;0.837189
9078.000000;0.836549
9077.000000;0.836246
9076.000000;0.836284
9075.000000;0.836427
9074.000000;0.836510
9073.000000;0.836567
9072.000000;0.836589
9071.000000;0.836423
9070.000000;0.836015
9069.000000;0.835571
9068.000000;0.835319
9067.000000;0.835261
9066.000000;0.835242
9065.000000;0.835142
9064.000000;0.834940
9063.000000;0.834708
9062.000000;0.834572
9061.000000;0.834564
9060.000000;0.834535
9059.000000;0.834349
9058.000000;0.834096
9057.000000;0.833945
9056.000000;0.833848
9055.000000;0.833650
9054.000000;0.833406
9053.000000;0.833301
