Criado como novo conjunto de dados;"e2410_daniel_v2.spp","14582.7 Secs"
cm-1;Abs
10000.000000;0.297049
9999.000000;0.296574
9998.000000;0.296100
9997.000000;0.295626
9996.000000;0.295153
9995.000000;0.294679
9994.000000;0.294209
9993.000000;0.293733
9992.000000;0.293270
9991.000000;0.292784
9990.000000;0.292346
9989.000000;0.291690
9988.000000;0.290694
9987.000000;0.289653
9986.000000;0.288784
9985.000000;0.288196
9984.000000;0.287800
9983.000000;0.287497
9982.000000;0.287250
9981.000000;0.287039
9980.000000;0.286765
9979.000000;0.286317
9978.000000;0.285713
9977.000000;0.285090
9976.000000;0.284557
9975.000000;0.284098
9974.000000;0.283641
9973.000000;0.283152
9972.000000;0.282630
9971.000000;0.282078
9970.000000;0.281494
9969.000000;0.280884
9968.000000;0.280272
9967.000000;0.279706
9966.000000;0.279237
9965.000000;0.278868
9964.000000;0.278532
9963.000000;0.278149
9962.000000;0.277695
9961.000000;0.277185
9960.000000;0.276640
9959.000000;0.276084
9958.000000;0.275547
9957.000000;0.275039
9956.000000;0.274548
9955.000000;0.274091
9954.000000;0.273687
9953.000000;0.273264
9952.000000;0.272693
9951.000000;0.271987
9950.000000;0.271347
9949.000000;0.270922
9948.000000;0.270589
9947.000000;0.270131
9946.000000;0.269532
9945.000000;0.268954
9944.000000;0.268455
9943.000000;0.267924
9942.000000;0.267319
9941.000000;0.266794
9940.000000;0.266505
9939.000000;0.266397
9938.000000;0.266250
9937.000000;0.265882
9936.000000;0.265250
9935.000000;0.264451
9934.000000;0.263666
9933.000000;0.263060
9932.000000;0.262670
9931.000000;0.262419
9930.000000;0.262226
9929.000000;0.262052
9928.000000;0.261829
9927.000000;0.261460
9926.000000;0.260917
9925.000000;0.260290
9924.000000;0.259692
9923.000000;0.259147
9922.000000;0.258614
9921.000000;0.258073
9920.000000;0.257542
9919.000000;0.257048
9918.000000;0.256604
9917.000000;0.256192
9916.000000;0.255757
9915.000000;0.255233
9914.000000;0.254602
9913.000000;0.253920
9912.000000;0.253285
9911.000000;0.252778
9910.000000;0.252414
9909.000000;0.252119
9908.000000;0.251769
9907.000000;0.251303
9906.000000;0.250789
9905.000000;0.250351
9904.000000;0.250014
9903.000000;0.249677
9902.000000;0.249216
9901.000000;0.248602
9900.000000;0.247919
9899.000000;0.247282
9898.000000;0.246744
9897.000000;0.246249
9896.000000;0.245705
9895.000000;0.245103
9894.000000;0.244535
9893.000000;0.244076
9892.000000;0.243694
9891.000000;0.243289
9890.000000;0.242809
9889.000000;0.242268
9888.000000;0.241712
9887.000000;0.241193
9886.000000;0.240770
9885.000000;0.240458
9884.000000;0.240205
9883.000000;0.239924
9882.000000;0.239537
9881.000000;0.238999
9880.000000;0.238349
9879.000000;0.237733
9878.000000;0.237287
9877.000000;0.236961
9876.000000;0.236571
9875.000000;0.236059
9874.000000;0.235576
9873.000000;0.235224
9872.000000;0.234867
9871.000000;0.234319
9870.000000;0.233638
9869.000000;0.233047
9868.000000;0.232620
9867.000000;0.232234
9866.000000;0.231799
9865.000000;0.231377
9864.000000;0.231028
9863.000000;0.230688
9862.000000;0.230262
9861.000000;0.229742
9860.000000;0.229183
9859.000000;0.228629
9858.000000;0.228103
9857.000000;0.227601
9856.000000;0.227088
9855.000000;0.226542
9854.000000;0.226004
9853.000000;0.225527
9852.000000;0.225100
9851.000000;0.224675
9850.000000;0.224259
9849.000000;0.223894
9848.000000;0.223548
9847.000000;0.223131
9846.000000;0.222618
9845.000000;0.222104
9844.000000;0.221686
9843.000000;0.221348
9842.000000;0.220980
9841.000000;0.220463
9840.000000;0.219755
9839.000000;0.218958
9838.000000;0.218273
9837.000000;0.217821
9836.000000;0.217515
9835.000000;0.217162
9834.000000;0.216688
9833.000000;0.216171
9832.000000;0.215699
9831.000000;0.215274
9830.000000;0.214860
9829.000000;0.214419
9828.000000;0.213880
9827.000000;0.213190
9826.000000;0.212421
9825.000000;0.211768
9824.000000;0.211374
9823.000000;0.211194
9822.000000;0.211047
9821.000000;0.210772
9820.000000;0.210323
9819.000000;0.209786
9818.000000;0.209311
9817.000000;0.208983
9816.000000;0.208733
9815.000000;0.208413
9814.000000;0.207946
9813.000000;0.207367
9812.000000;0.206763
9811.000000;0.206216
9810.000000;0.205782
9809.000000;0.205454
9808.000000;0.205136
9807.000000;0.204725
9806.000000;0.204230
9805.000000;0.203722
9804.000000;0.203204
9803.000000;0.202607
9802.000000;0.201931
9801.000000;0.201303
9800.000000;0.200850
9799.000000;0.200564
9798.000000;0.200315
9797.000000;0.199961
9796.000000;0.199433
9795.000000;0.198789
9794.000000;0.198185
9793.000000;0.197756
9792.000000;0.197501
9791.000000;0.197314
9790.000000;0.197092
9789.000000;0.196790
9788.000000;0.196378
9787.000000;0.195837
9786.000000;0.195225
9785.000000;0.194637
9784.000000;0.194092
9783.000000;0.193513
9782.000000;0.192859
9781.000000;0.192231
9780.000000;0.191772
9779.000000;0.191513
9778.000000;0.191339
9777.000000;0.191111
9776.000000;0.190762
9775.000000;0.190299
9774.000000;0.189744
9773.000000;0.189118
9772.000000;0.188487
9771.000000;0.187969
9770.000000;0.187637
9769.000000;0.187400
9768.000000;0.187066
9767.000000;0.186543
9766.000000;0.185946
9765.000000;0.185442
9764.000000;0.185053
9763.000000;0.184665
9762.000000;0.184197
9761.000000;0.183679
9760.000000;0.183188
9759.000000;0.182779
9758.000000;0.182453
9757.000000;0.182145
9756.000000;0.181746
9755.000000;0.181198
9754.000000;0.180563
9753.000000;0.179971
9752.000000;0.179514
9751.000000;0.179205
9750.000000;0.178990
9749.000000;0.178761
9748.000000;0.178407
9747.000000;0.177908
9746.000000;0.177362
9745.000000;0.176851
9744.000000;0.176349
9743.000000;0.175795
9742.000000;0.175229
9741.000000;0.174745
9740.000000;0.174372
9739.000000;0.174066
9738.000000;0.173764
9737.000000;0.173396
9736.000000;0.172870
9735.000000;0.172178
9734.000000;0.171468
9733.000000;0.170906
9732.000000;0.170496
9731.000000;0.170127
9730.000000;0.169770
9729.000000;0.169494
9728.000000;0.169305
9727.000000;0.169087
9726.000000;0.168735
9725.000000;0.168244
9724.000000;0.167640
9723.000000;0.166943
9722.000000;0.166237
9721.000000;0.165671
9720.000000;0.165319
9719.000000;0.165091
9718.000000;0.164829
9717.000000;0.164452
9716.000000;0.163978
9715.000000;0.163475
9714.000000;0.162998
9713.000000;0.162551
9712.000000;0.162084
9711.000000;0.161568
9710.000000;0.161055
9709.000000;0.160603
9708.000000;0.160180
9707.000000;0.159704
9706.000000;0.159183
9705.000000;0.158716
9704.000000;0.158362
9703.000000;0.158084
9702.000000;0.157835
9701.000000;0.157617
9700.000000;0.157413
9699.000000;0.157150
9698.000000;0.156791
9697.000000;0.156380
9696.000000;0.155963
9695.000000;0.155518
9694.000000;0.155025
9693.000000;0.154542
9692.000000;0.154143
9691.000000;0.153793
9690.000000;0.153360
9689.000000;0.152760
9688.000000;0.152062
9687.000000;0.151427
9686.000000;0.150954
9685.000000;0.150598
9684.000000;0.150247
9683.000000;0.149858
9682.000000;0.149482
9681.000000;0.149142
9680.000000;0.148772
9679.000000;0.148308
9678.000000;0.147808
9677.000000;0.147380
9676.000000;0.147037
9675.000000;0.146675
9674.000000;0.146212
9673.000000;0.145675
9672.000000;0.145132
9671.000000;0.144620
9670.000000;0.144140
9669.000000;0.143685
9668.000000;0.143253
9667.000000;0.142840
9666.000000;0.142433
9665.000000;0.141999
9664.000000;0.141506
9663.000000;0.140991
9662.000000;0.140573
9661.000000;0.140337
9660.000000;0.140221
9659.000000;0.140058
9658.000000;0.139720
9657.000000;0.139187
9656.000000;0.138518
9655.000000;0.137829
9654.000000;0.137244
9653.000000;0.136805
9652.000000;0.136419
9651.000000;0.135994
9650.000000;0.135587
9649.000000;0.135331
9648.000000;0.135237
9647.000000;0.135143
9646.000000;0.134899
9645.000000;0.134479
9644.000000;0.133929
9643.000000;0.133282
9642.000000;0.132598
9641.000000;0.131995
9640.000000;0.131559
9639.000000;0.131273
9638.000000;0.131050
9637.000000;0.130811
9636.000000;0.130501
9635.000000;0.130082
9634.000000;0.129567
9633.000000;0.129039
9632.000000;0.128598
9631.000000;0.128283
9630.000000;0.128056
9629.000000;0.127837
9628.000000;0.127543
9627.000000;0.127117
9626.000000;0.126563
9625.000000;0.125940
9624.000000;0.125331
9623.000000;0.124795
9622.000000;0.124335
9621.000000;0.123893
9620.000000;0.123410
9619.000000;0.122900
9618.000000;0.122464
9617.000000;0.122164
9616.000000;0.121940
9615.000000;0.121676
9614.000000;0.121347
9613.000000;0.121033
9612.000000;0.120780
9611.000000;0.120510
9610.000000;0.120090
9609.000000;0.119475
9608.000000;0.118759
9607.000000;0.118100
9606.000000;0.117615
9605.000000;0.117313
9604.000000;0.117129
9603.000000;0.116994
9602.000000;0.116864
9601.000000;0.116674
9600.000000;0.116338
9599.000000;0.115827
9598.000000;0.115212
9597.000000;0.114601
9596.000000;0.114045
9595.000000;0.113555
9594.000000;0.113149
9593.000000;0.112833
9592.000000;0.112548
9591.000000;0.112204
9590.000000;0.111769
9589.000000;0.111290
9588.000000;0.110846
9587.000000;0.110506
9586.000000;0.110294
9585.000000;0.110152
9584.000000;0.109943
9583.000000;0.109560
9582.000000;0.109033
9581.000000;0.108487
9580.000000;0.108019
9579.000000;0.107645
9578.000000;0.107344
9577.000000;0.107060
9576.000000;0.106707
9575.000000;0.106231
9574.000000;0.105698
9573.000000;0.105236
9572.000000;0.104890
9571.000000;0.104572
9570.000000;0.104170
9569.000000;0.103648
9568.000000;0.103060
9567.000000;0.102501
9566.000000;0.102067
9565.000000;0.101796
9564.000000;0.101616
9563.000000;0.101393
9562.000000;0.101049
9561.000000;0.100626
9560.000000;0.100226
9559.000000;0.099917
9558.000000;0.099683
9557.000000;0.099454
9556.000000;0.099159
9555.000000;0.098770
9554.000000;0.098310
9553.000000;0.097821
9552.000000;0.097337
9551.000000;0.096878
9550.000000;0.096431
9549.000000;0.095945
9548.000000;0.095395
9547.000000;0.094848
9546.000000;0.094408
9545.000000;0.094079
9544.000000;0.093745
9543.000000;0.093330
9542.000000;0.092895
9541.000000;0.092526
9540.000000;0.092209
9539.000000;0.091890
9538.000000;0.091579
9537.000000;0.091294
9536.000000;0.090967
9535.000000;0.090505
9534.000000;0.089941
9533.000000;0.089422
9532.000000;0.089057
9531.000000;0.088828
9530.000000;0.088645
9529.000000;0.088411
9528.000000;0.088046
9527.000000;0.087540
9526.000000;0.086989
9525.000000;0.086503
9524.000000;0.086104
9523.000000;0.085763
9522.000000;0.085491
9521.000000;0.085311
9520.000000;0.085159
9519.000000;0.084920
9518.000000;0.084582
9517.000000;0.084237
9516.000000;0.083927
9515.000000;0.083585
9514.000000;0.083147
9513.000000;0.082652
9512.000000;0.082172
9511.000000;0.081739
9510.000000;0.081354
9509.000000;0.081020
9508.000000;0.080713
9507.000000;0.080392
9506.000000;0.080059
9505.000000;0.079768
9504.000000;0.079530
9503.000000;0.079263
9502.000000;0.078867
9501.000000;0.078329
9500.000000;0.077712
9499.000000;0.077092
9498.000000;0.076530
9497.000000;0.076083
9496.000000;0.075778
9495.000000;0.075577
9494.000000;0.075398
9493.000000;0.075169
9492.000000;0.074881
9491.000000;0.074584
9490.000000;0.074340
9489.000000;0.074138
9488.000000;0.073887
9487.000000;0.073509
9486.000000;0.073022
9485.000000;0.072531
9484.000000;0.072120
9483.000000;0.071791
9482.000000;0.071470
9481.000000;0.071076
9480.000000;0.070584
9479.000000;0.070070
9478.000000;0.069649
9477.000000;0.069356
9476.000000;0.069107
9475.000000;0.068816
9474.000000;0.068490
9473.000000;0.068182
9472.000000;0.067900
9471.000000;0.067637
9470.000000;0.067426
9469.000000;0.067289
9468.000000;0.067141
9467.000000;0.066846
9466.000000;0.066372
9465.000000;0.065825
9464.000000;0.065313
9463.000000;0.064861
9462.000000;0.064463
9461.000000;0.064129
9460.000000;0.063851
9459.000000;0.063579
9458.000000;0.063266
9457.000000;0.062897
9456.000000;0.062463
9455.000000;0.061963
9454.000000;0.061456
9453.000000;0.061055
9452.000000;0.060812
9451.000000;0.060651
9450.000000;0.060434
9449.000000;0.060102
9448.000000;0.059713
9447.000000;0.059370
9446.000000;0.059114
9445.000000;0.058884
9444.000000;0.058586
9443.000000;0.058193
9442.000000;0.057775
9441.000000;0.057405
9440.000000;0.057078
9439.000000;0.056748
9438.000000;0.056401
9437.000000;0.056055
9436.000000;0.055689
9435.000000;0.055271
9434.000000;0.054855
9433.000000;0.054561
9432.000000;0.054433
9431.000000;0.054345
9430.000000;0.054106
9429.000000;0.053645
9428.000000;0.053075
9427.000000;0.052586
9426.000000;0.052288
9425.000000;0.052142
9424.000000;0.052008
9423.000000;0.051762
9422.000000;0.051381
9421.000000;0.050923
9420.000000;0.050467
9419.000000;0.050056
9418.000000;0.049690
9417.000000;0.049338
9416.000000;0.048978
9415.000000;0.048634
9414.000000;0.048345
9413.000000;0.048107
9412.000000;0.047869
9411.000000;0.047606
9410.000000;0.047349
9409.000000;0.047106
9408.000000;0.046824
9407.000000;0.046451
9406.000000;0.046036
9405.000000;0.045679
9404.000000;0.045426
9403.000000;0.045226
9402.000000;0.044999
9401.000000;0.044684
9400.000000;0.044254
9399.000000;0.043735
9398.000000;0.043209
9397.000000;0.042773
9396.000000;0.042473
9395.000000;0.042292
9394.000000;0.042168
9393.000000;0.042003
9392.000000;0.041715
9391.000000;0.041302
9390.000000;0.040863
9389.000000;0.040492
9388.000000;0.040193
9387.000000;0.039905
9386.000000;0.039588
9385.000000;0.039243
9384.000000;0.038875
9383.000000;0.038493
9382.000000;0.038132
9381.000000;0.037824
9380.000000;0.037550
9379.000000;0.037270
9378.000000;0.036983
9377.000000;0.036713
9376.000000;0.036465
9375.000000;0.036206
9374.000000;0.035893
9373.000000;0.035506
9372.000000;0.035069
9371.000000;0.034664
9370.000000;0.034371
9369.000000;0.034170
9368.000000;0.033941
9367.000000;0.033593
9366.000000;0.033153
9365.000000;0.032711
9364.000000;0.032324
9363.000000;0.032024
9362.000000;0.031837
9361.000000;0.031731
9360.000000;0.031591
9359.000000;0.031329
9358.000000;0.030989
9357.000000;0.030683
9356.000000;0.030443
9355.000000;0.030213
9354.000000;0.029959
9353.000000;0.029688
9352.000000;0.029396
9351.000000;0.029050
9350.000000;0.028659
9349.000000;0.028287
9348.000000;0.027991
9347.000000;0.027770
9346.000000;0.027564
9345.000000;0.027282
9344.000000;0.026873
9343.000000;0.026410
9342.000000;0.026040
9341.000000;0.025813
9340.000000;0.025612
9339.000000;0.025321
9338.000000;0.024995
9337.000000;0.024750
9336.000000;0.024552
9335.000000;0.024258
9334.000000;0.023845
9333.000000;0.023465
9332.000000;0.023233
9331.000000;0.023084
9330.000000;0.022880
9329.000000;0.022569
9328.000000;0.022204
9327.000000;0.021860
9326.000000;0.021587
9325.000000;0.021392
9324.000000;0.021223
9323.000000;0.021008
9322.000000;0.020718
9321.000000;0.020375
9320.000000;0.019993
9319.000000;0.019575
9318.000000;0.019150
9317.000000;0.018761
9316.000000;0.018412
9315.000000;0.018082
9314.000000;0.017781
9313.000000;0.017552
9312.000000;0.017393
9311.000000;0.017244
9310.000000;0.017043
9309.000000;0.016758
9308.000000;0.016374
9307.000000;0.015925
9306.000000;0.015520
9305.000000;0.015270
9304.000000;0.015152
9303.000000;0.015036
9302.000000;0.014831
9301.000000;0.014553
9300.000000;0.014252
9299.000000;0.013943
9298.000000;0.013627
9297.000000;0.013310
9296.000000;0.012968
9295.000000;0.012585
9294.000000;0.012233
9293.000000;0.012023
9292.000000;0.011948
9291.000000;0.011849
9290.000000;0.011594
9289.000000;0.011223
9288.000000;0.010856
9287.000000;0.010546
9286.000000;0.010270
9285.000000;0.010015
9284.000000;0.009788
9283.000000;0.009560
9282.000000;0.009288
9281.000000;0.008979
9280.000000;0.008680
9279.000000;0.008400
9278.000000;0.008097
9277.000000;0.007744
9276.000000;0.007372
9275.000000;0.007039
9274.000000;0.006772
9273.000000;0.006547
9272.000000;0.006321
9271.000000;0.006068
9270.000000;0.005803
9269.000000;0.005554
9268.000000;0.005319
9267.000000;0.005073
9266.000000;0.004801
9265.000000;0.004518
9264.000000;0.004233
9263.000000;0.003946
9262.000000;0.003672
9261.000000;0.003451
9260.000000;0.003298
9259.000000;0.003172
9258.000000;0.003012
9257.000000;0.002808
9256.000000;0.002600
9255.000000;0.002417
9254.000000;0.002229
9253.000000;0.001988
9252.000000;0.001688
9251.000000;0.001368
9250.000000;0.001060
9249.000000;0.000751
9248.000000;0.000413
9247.000000;0.000050
9246.000000;-0.000287
9245.000000;-0.000548
9244.000000;-0.000723
9243.000000;-0.000846
9242.000000;-0.000983
9241.000000;-0.001211
9240.000000;-0.001564
9239.000000;-0.001991
9238.000000;-0.002394
9237.000000;-0.002712
9236.000000;-0.002954
9235.000000;-0.003160
9234.000000;-0.003362
9233.000000;-0.003591
9232.000000;-0.003866
9231.000000;-0.004148
9230.000000;-0.004368
9229.000000;-0.004528
9228.000000;-0.004713
9227.000000;-0.004976
9226.000000;-0.005251
9225.000000;-0.005454
9224.000000;-0.005603
9223.000000;-0.005791
9222.000000;-0.006045
9221.000000;-0.006303
9220.000000;-0.006504
9219.000000;-0.006663
9218.000000;-0.006842
9217.000000;-0.007103
9216.000000;-0.007479
9215.000000;-0.007940
9214.000000;-0.008383
9213.000000;-0.008707
9212.000000;-0.008902
9211.000000;-0.009043
9210.000000;-0.009211
9209.000000;-0.009432
9208.000000;-0.009678
9207.000000;-0.009889
9206.000000;-0.010012
9205.000000;-0.010065
9204.000000;-0.010150
9203.000000;-0.010363
9202.000000;-0.010688
9201.000000;-0.011025
9200.000000;-0.011297
9199.000000;-0.011502
9198.000000;-0.011665
9197.000000;-0.011807
9196.000000;-0.011969
9195.000000;-0.012198
9194.000000;-0.012510
9193.000000;-0.012862
9192.000000;-0.013181
9191.000000;-0.013421
9190.000000;-0.013596
9189.000000;-0.013780
9188.000000;-0.014047
9187.000000;-0.014392
9186.000000;-0.014733
9185.000000;-0.015015
9184.000000;-0.015272
9183.000000;-0.015549
9182.000000;-0.015818
9181.000000;-0.016019
9180.000000;-0.016173
9179.000000;-0.016354
9178.000000;-0.016577
9177.000000;-0.016780
9176.000000;-0.016919
9175.000000;-0.017028
9174.000000;-0.017171
9173.000000;-0.017382
9172.000000;-0.017660
9171.000000;-0.017970
9170.000000;-0.018258
9169.000000;-0.018486
9168.000000;-0.018683
9167.000000;-0.018904
9166.000000;-0.019154
9165.000000;-0.019375
9164.000000;-0.019540
9163.000000;-0.019697
9162.000000;-0.019927
9161.000000;-0.020265
9160.000000;-0.020667
9159.000000;-0.021033
9158.000000;-0.021280
9157.000000;-0.021413
9156.000000;-0.021525
9155.000000;-0.021688
9154.000000;-0.021894
9153.000000;-0.022101
9152.000000;-0.022322
9151.000000;-0.022590
9150.000000;-0.022873
9149.000000;-0.023088
9148.000000;-0.023216
9147.000000;-0.023336
9146.000000;-0.023527
9145.000000;-0.023790
9144.000000;-0.024072
9143.000000;-0.024334
9142.000000;-0.024555
9141.000000;-0.024730
9140.000000;-0.024880
9139.000000;-0.025055
9138.000000;-0.025285
9137.000000;-0.025541
9136.000000;-0.025761
9135.000000;-0.025920
9134.000000;-0.026057
9133.000000;-0.026243
9132.000000;-0.026502
9131.000000;-0.026785
9130.000000;-0.027023
9129.000000;-0.027195
9128.000000;-0.027329
9127.000000;-0.027437
9126.000000;-0.027509
9125.000000;-0.027571
9124.000000;-0.027681
9123.000000;-0.027862
9122.000000;-0.028073
9121.000000;-0.028297
9120.000000;-0.028582
9119.000000;-0.028946
9118.000000;-0.029312
9117.000000;-0.029602
9116.000000;-0.029842
9115.000000;-0.030092
9114.000000;-0.030317
9113.000000;-0.030435
9112.000000;-0.030474
9111.000000;-0.030573
9110.000000;-0.030804
9109.000000;-0.031085
9108.000000;-0.031299
9107.000000;-0.031438
9106.000000;-0.031568
9105.000000;-0.031739
9104.000000;-0.031954
9103.000000;-0.032196
9102.000000;-0.032444
9101.000000;-0.032674
9100.000000;-0.032875
9099.000000;-0.033051
9098.000000;-0.033208
9097.000000;-0.033343
9096.000000;-0.033461
9095.000000;-0.033575
9094.000000;-0.033701
9093.000000;-0.033866
9092.000000;-0.034110
9091.000000;-0.034434
9090.000000;-0.034775
9089.000000;-0.035058
9088.000000;-0.035281
9087.000000;-0.035497
9086.000000;-0.035724
9085.000000;-0.035916
9084.000000;-0.036031
9083.000000;-0.036082
9082.000000;-0.036127
9081.000000;-0.036228
9080.000000;-0.036417
9079.000000;-0.036670
9078.000000;-0.036911
9077.000000;-0.037092
9076.000000;-0.037254
9075.000000;-0.037476
9074.000000;-0.037778
9073.000000;-0.038106
9072.000000;-0.038394
9071.000000;-0.038616
9070.000000;-0.038781
9069.000000;-0.038934
9068.000000;-0.039142
9067.000000;-0.039414
9066.000000;-0.039665
9065.000000;-0.039799
9064.000000;-0.039827
9063.000000;-0.039843
9062.000000;-0.039914
