Criado como novo conjunto de dados;"e2410_daniel_v2.spp","32583.7 Secs"
cm-1;Abs
10000.000000;0.774467
9999.000000;0.774060
9998.000000;0.773651
9997.000000;0.773356
9996.000000;0.773055
9995.000000;0.772437
9994.000000;0.771592
9993.000000;0.771019
9992.000000;0.770944
9991.000000;0.771001
9990.000000;0.770739
9989.000000;0.770035
9988.000000;0.768962
9987.000000;0.767672
9986.000000;0.766514
9985.000000;0.765831
9984.000000;0.765520
9983.000000;0.765165
9982.000000;0.764638
9981.000000;0.764175
9980.000000;0.763863
9979.000000;0.763536
9978.000000;0.763204
9977.000000;0.763089
9976.000000;0.763123
9975.000000;0.762917
9974.000000;0.762333
9973.000000;0.761653
9972.000000;0.761083
9971.000000;0.760536
9970.000000;0.759965
9969.000000;0.759467
9968.000000;0.758990
9967.000000;0.758383
9966.000000;0.757775
9965.000000;0.757426
9964.000000;0.757204
9963.000000;0.756714
9962.000000;0.755990
9961.000000;0.755480
9960.000000;0.755295
9959.000000;0.755046
9958.000000;0.754502
9957.000000;0.753848
9956.000000;0.753163
9955.000000;0.752270
9954.000000;0.751251
9953.000000;0.750533
9952.000000;0.750241
9951.000000;0.749997
9950.000000;0.749562
9949.000000;0.749136
9948.000000;0.748814
9947.000000;0.748303
9946.000000;0.747451
9945.000000;0.746577
9944.000000;0.745982
9943.000000;0.745559
9942.000000;0.745112
9941.000000;0.744642
9940.000000;0.744124
9939.000000;0.743406
9938.000000;0.742575
9937.000000;0.742011
9936.000000;0.741873
9935.000000;0.741861
9934.000000;0.741665
9933.000000;0.741265
9932.000000;0.740677
9931.000000;0.739817
9930.000000;0.738800
9929.000000;0.737987
9928.000000;0.737553
9927.000000;0.737342
9926.000000;0.737233
9925.000000;0.737255
9924.000000;0.737250
9923.000000;0.736882
9922.000000;0.736129
9921.000000;0.735345
9920.000000;0.734736
9919.000000;0.734186
9918.000000;0.733694
9917.000000;0.733459
9916.000000;0.733393
9915.000000;0.733063
9914.000000;0.732322
9913.000000;0.731548
9912.000000;0.731014
9911.000000;0.730513
9910.000000;0.729828
9909.000000;0.729137
9908.000000;0.728670
9907.000000;0.728348
9906.000000;0.728006
9905.000000;0.727653
9904.000000;0.727257
9903.000000;0.726613
9902.000000;0.725674
9901.000000;0.724734
9900.000000;0.724068
9899.000000;0.723634
9898.000000;0.723273
9897.000000;0.722910
9896.000000;0.722455
9895.000000;0.721801
9894.000000;0.721059
9893.000000;0.720484
9892.000000;0.720058
9891.000000;0.719473
9890.000000;0.718642
9889.000000;0.717911
9888.000000;0.717601
9887.000000;0.717631
9886.000000;0.717703
9885.000000;0.717572
9884.000000;0.717071
9883.000000;0.716194
9882.000000;0.715257
9881.000000;0.714688
9880.000000;0.714548
9879.000000;0.714510
9878.000000;0.714313
9877.000000;0.713938
9876.000000;0.713352
9875.000000;0.712487
9874.000000;0.711543
9873.000000;0.710912
9872.000000;0.710664
9871.000000;0.710449
9870.000000;0.709995
9869.000000;0.709412
9868.000000;0.708898
9867.000000;0.708468
9866.000000;0.708088
9865.000000;0.707760
9864.000000;0.707402
9863.000000;0.706885
9862.000000;0.706258
9861.000000;0.705713
9860.000000;0.705310
9859.000000;0.704978
9858.000000;0.704732
9857.000000;0.704607
9856.000000;0.704444
9855.000000;0.704054
9854.000000;0.703552
9853.000000;0.703171
9852.000000;0.702845
9851.000000;0.702310
9850.000000;0.701550
9849.000000;0.700757
9848.000000;0.699938
9847.000000;0.698998
9846.000000;0.698110
9845.000000;0.697540
9844.000000;0.697175
9843.000000;0.696687
9842.000000;0.696101
9841.000000;0.695715
9840.000000;0.695492
9839.000000;0.695097
9838.000000;0.694532
9837.000000;0.694178
9836.000000;0.694137
9835.000000;0.694059
9834.000000;0.693725
9833.000000;0.693313
9832.000000;0.692947
9831.000000;0.692482
9830.000000;0.691868
9829.000000;0.691294
9828.000000;0.690818
9827.000000;0.690237
9826.000000;0.689470
9825.000000;0.688697
9824.000000;0.688032
9823.000000;0.687401
9822.000000;0.686790
9821.000000;0.686270
9820.000000;0.685744
9819.000000;0.685072
9818.000000;0.684424
9817.000000;0.684114
9816.000000;0.684065
9815.000000;0.683901
9814.000000;0.683555
9813.000000;0.683313
9812.000000;0.683191
9811.000000;0.682810
9810.000000;0.681999
9809.000000;0.681057
9808.000000;0.680266
9807.000000;0.679582
9806.000000;0.678928
9805.000000;0.678369
9804.000000;0.677860
9803.000000;0.677233
9802.000000;0.676561
9801.000000;0.676179
9800.000000;0.676197
9799.000000;0.676327
9798.000000;0.676296
9797.000000;0.676085
9796.000000;0.675711
9795.000000;0.675119
9794.000000;0.674382
9793.000000;0.673696
9792.000000;0.673120
9791.000000;0.672611
9790.000000;0.672252
9789.000000;0.672080
9788.000000;0.671761
9787.000000;0.670903
9786.000000;0.669707
9785.000000;0.668811
9784.000000;0.668478
9783.000000;0.668354
9782.000000;0.668055
9781.000000;0.667559
9780.000000;0.666956
9779.000000;0.666278
9778.000000;0.665648
9777.000000;0.665206
9776.000000;0.664820
9775.000000;0.664274
9774.000000;0.663735
9773.000000;0.663579
9772.000000;0.663756
9771.000000;0.663787
9770.000000;0.663433
9769.000000;0.662902
9768.000000;0.662365
9767.000000;0.661769
9766.000000;0.661191
9765.000000;0.660860
9764.000000;0.660713
9763.000000;0.660376
9762.000000;0.659710
9761.000000;0.658961
9760.000000;0.658314
9759.000000;0.657747
9758.000000;0.657354
9757.000000;0.657315
9756.000000;0.657437
9755.000000;0.657225
9754.000000;0.656535
9753.000000;0.655696
9752.000000;0.654928
9751.000000;0.654145
9750.000000;0.653409
9749.000000;0.653011
9748.000000;0.652908
9747.000000;0.652628
9746.000000;0.651984
9745.000000;0.651401
9744.000000;0.651265
9743.000000;0.651363
9742.000000;0.651226
9741.000000;0.650671
9740.000000;0.649798
9739.000000;0.648779
9738.000000;0.647867
9737.000000;0.647280
9736.000000;0.646903
9735.000000;0.646373
9734.000000;0.645615
9733.000000;0.644977
9732.000000;0.644726
9731.000000;0.644739
9730.000000;0.644777
9729.000000;0.644745
9728.000000;0.644583
9727.000000;0.644231
9726.000000;0.643807
9725.000000;0.643477
9724.000000;0.643126
9723.000000;0.642496
9722.000000;0.641685
9721.000000;0.641087
9720.000000;0.640773
9719.000000;0.640385
9718.000000;0.639751
9717.000000;0.639149
9716.000000;0.638802
9715.000000;0.638538
9714.000000;0.638154
9713.000000;0.637718
9712.000000;0.637321
9711.000000;0.636872
9710.000000;0.636351
9709.000000;0.635916
9708.000000;0.635580
9707.000000;0.635076
9706.000000;0.634257
9705.000000;0.633369
9704.000000;0.632738
9703.000000;0.632415
9702.000000;0.632237
9701.000000;0.632014
9700.000000;0.631580
9699.000000;0.630883
9698.000000;0.630110
9697.000000;0.629508
9696.000000;0.629061
9695.000000;0.628565
9694.000000;0.628017
9693.000000;0.627624
9692.000000;0.627410
9691.000000;0.627137
9690.000000;0.626666
9689.000000;0.626101
9688.000000;0.625549
9687.000000;0.625023
9686.000000;0.624607
9685.000000;0.624435
9684.000000;0.624458
9683.000000;0.624458
9682.000000;0.624299
9681.000000;0.623932
9680.000000;0.623269
9679.000000;0.622352
9678.000000;0.621541
9677.000000;0.621160
9676.000000;0.621032
9675.000000;0.620704
9674.000000;0.620071
9673.000000;0.619388
9672.000000;0.618785
9671.000000;0.618183
9670.000000;0.617639
9669.000000;0.617315
9668.000000;0.617105
9667.000000;0.616724
9666.000000;0.616155
9665.000000;0.615617
9664.000000;0.615118
9663.000000;0.614480
9662.000000;0.613789
9661.000000;0.613339
9660.000000;0.613118
9659.000000;0.612799
9658.000000;0.612263
9657.000000;0.611727
9656.000000;0.611342
9655.000000;0.611070
9654.000000;0.610954
9653.000000;0.611048
9652.000000;0.611081
9651.000000;0.610638
9650.000000;0.609713
9649.000000;0.608669
9648.000000;0.607703
9647.000000;0.606821
9646.000000;0.606242
9645.000000;0.606253
9644.000000;0.606603
9643.000000;0.606620
9642.000000;0.606024
9641.000000;0.605165
9640.000000;0.604391
9639.000000;0.603732
9638.000000;0.603247
9637.000000;0.603095
9636.000000;0.603101
9635.000000;0.602799
9634.000000;0.602115
9633.000000;0.601503
9632.000000;0.601240
9631.000000;0.601060
9630.000000;0.600664
9629.000000;0.600140
9628.000000;0.599664
9627.000000;0.599227
9626.000000;0.598857
9625.000000;0.598695
9624.000000;0.598632
9623.000000;0.598297
9622.000000;0.597585
9621.000000;0.596831
9620.000000;0.596278
9619.000000;0.595760
9618.000000;0.595130
9617.000000;0.594573
9616.000000;0.594276
9615.000000;0.594116
9614.000000;0.593901
9613.000000;0.593630
9612.000000;0.593321
9611.000000;0.592884
9610.000000;0.592326
9609.000000;0.591830
9608.000000;0.591469
9607.000000;0.591097
9606.000000;0.590632
9605.000000;0.590177
9604.000000;0.589788
9603.000000;0.589403
9602.000000;0.589056
9601.000000;0.588862
9600.000000;0.588733
9599.000000;0.588423
9598.000000;0.587905
9597.000000;0.587365
9596.000000;0.586811
9595.000000;0.586079
9594.000000;0.585245
9593.000000;0.584625
9592.000000;0.584278
9591.000000;0.583938
9590.000000;0.583533
9589.000000;0.583326
9588.000000;0.583393
9587.000000;0.583379
9586.000000;0.582995
9585.000000;0.582384
9584.000000;0.581807
9583.000000;0.581293
9582.000000;0.580792
9581.000000;0.580373
9580.000000;0.580068
9579.000000;0.579772
9578.000000;0.579451
9577.000000;0.579198
9576.000000;0.579002
9575.000000;0.578700
9574.000000;0.578253
9573.000000;0.577815
9572.000000;0.577422
9571.000000;0.576908
9570.000000;0.576189
9569.000000;0.575380
9568.000000;0.574585
9567.000000;0.573834
9566.000000;0.573261
9565.000000;0.573024
9564.000000;0.573003
9563.000000;0.572871
9562.000000;0.572512
9561.000000;0.572084
9560.000000;0.571652
9559.000000;0.571102
9558.000000;0.570462
9557.000000;0.569959
9556.000000;0.569681
9555.000000;0.569481
9554.000000;0.569270
9553.000000;0.569098
9552.000000;0.568926
9551.000000;0.568618
9550.000000;0.568214
9549.000000;0.567869
9548.000000;0.567530
9547.000000;0.566973
9546.000000;0.566219
9545.000000;0.565542
9544.000000;0.565064
9543.000000;0.564665
9542.000000;0.564318
9541.000000;0.564136
9540.000000;0.564025
9539.000000;0.563673
9538.000000;0.562981
9537.000000;0.562188
9536.000000;0.561496
9535.000000;0.560920
9534.000000;0.560507
9533.000000;0.560367
9532.000000;0.560402
9531.000000;0.560351
9530.000000;0.560163
9529.000000;0.560003
9528.000000;0.559880
9527.000000;0.559624
9526.000000;0.559258
9525.000000;0.558989
9524.000000;0.558782
9523.000000;0.558315
9522.000000;0.557467
9521.000000;0.556498
9520.000000;0.555679
9519.000000;0.555080
9518.000000;0.554749
9517.000000;0.554731
9516.000000;0.554818
9515.000000;0.554645
9514.000000;0.554138
9513.000000;0.553551
9512.000000;0.553025
9511.000000;0.552466
9510.000000;0.551908
9509.000000;0.551599
9508.000000;0.551609
9507.000000;0.551665
9506.000000;0.551500
9505.000000;0.551076
9504.000000;0.550426
9503.000000;0.549608
9502.000000;0.548847
9501.000000;0.548382
9500.000000;0.548118
9499.000000;0.547750
9498.000000;0.547260
9497.000000;0.546911
9496.000000;0.546752
9495.000000;0.546507
9494.000000;0.546038
9493.000000;0.545519
9492.000000;0.545083
9491.000000;0.544686
9490.000000;0.544398
9489.000000;0.544395
9488.000000;0.544540
9487.000000;0.544370
9486.000000;0.543704
9485.000000;0.542916
9484.000000;0.542433
9483.000000;0.542258
9482.000000;0.542128
9481.000000;0.541844
9480.000000;0.541317
9479.000000;0.540580
9478.000000;0.539880
9477.000000;0.539519
9476.000000;0.539494
9475.000000;0.539493
9474.000000;0.539307
9473.000000;0.538976
9472.000000;0.538537
9471.000000;0.537948
9470.000000;0.537316
9469.000000;0.536868
9468.000000;0.536616
9467.000000;0.536322
9466.000000;0.535868
9465.000000;0.535377
9464.000000;0.534936
9463.000000;0.534494
9462.000000;0.534086
9461.000000;0.533835
9460.000000;0.533704
9459.000000;0.533516
9458.000000;0.533244
9457.000000;0.532976
9456.000000;0.532627
9455.000000;0.532039
9454.000000;0.531379
9453.000000;0.531014
9452.000000;0.530955
9451.000000;0.530824
9450.000000;0.530426
9449.000000;0.529969
9448.000000;0.529612
9447.000000;0.529213
9446.000000;0.528686
9445.000000;0.528220
9444.000000;0.527959
9443.000000;0.527779
9442.000000;0.527544
9441.000000;0.527322
9440.000000;0.527163
9439.000000;0.526937
9438.000000;0.526531
9437.000000;0.526006
9436.000000;0.525458
9435.000000;0.524925
9434.000000;0.524492
9433.000000;0.524265
9432.000000;0.524187
9431.000000;0.524100
9430.000000;0.523974
9429.000000;0.523862
9428.000000;0.523663
9427.000000;0.523207
9426.000000;0.522561
9425.000000;0.521968
9424.000000;0.521484
9423.000000;0.520985
9422.000000;0.520509
9421.000000;0.520226
9420.000000;0.520079
9419.000000;0.519811
9418.000000;0.519382
9417.000000;0.519018
9416.000000;0.518793
9415.000000;0.518519
9414.000000;0.518076
9413.000000;0.517549
9412.000000;0.516974
9411.000000;0.516308
9410.000000;0.515677
9409.000000;0.515304
9408.000000;0.515124
9407.000000;0.514835
9406.000000;0.514373
9405.000000;0.514015
9404.000000;0.513907
9403.000000;0.513846
9402.000000;0.513626
9401.000000;0.513286
9400.000000;0.512913
9399.000000;0.512490
9398.000000;0.512044
9397.000000;0.511677
9396.000000;0.511380
9395.000000;0.511072
9394.000000;0.510824
9393.000000;0.510757
9392.000000;0.510713
9391.000000;0.510369
9390.000000;0.509713
9389.000000;0.509073
9388.000000;0.508641
9387.000000;0.508320
9386.000000;0.508060
9385.000000;0.507970
9384.000000;0.507986
9383.000000;0.507833
9382.000000;0.507423
9381.000000;0.506973
9380.000000;0.506628
9379.000000;0.506267
9378.000000;0.505810
9377.000000;0.505382
9376.000000;0.505059
9375.000000;0.504724
9374.000000;0.504300
9373.000000;0.503872
9372.000000;0.503462
9371.000000;0.502961
9370.000000;0.502370
9369.000000;0.501880
9368.000000;0.501621
9367.000000;0.501547
9366.000000;0.501601
9365.000000;0.501740
9364.000000;0.501799
9363.000000;0.501607
9362.000000;0.501264
9361.000000;0.501006
9360.000000;0.500784
9359.000000;0.500302
9358.000000;0.499502
9357.000000;0.498695
9356.000000;0.498113
9355.000000;0.497676
9354.000000;0.497251
9353.000000;0.496855
9352.000000;0.496491
9351.000000;0.496084
9350.000000;0.495670
9349.000000;0.495403
9348.000000;0.495296
9347.000000;0.495197
9346.000000;0.495061
9345.000000;0.494979
9344.000000;0.494930
9343.000000;0.494754
9342.000000;0.494427
9341.000000;0.494076
9340.000000;0.493696
9339.000000;0.493154
9338.000000;0.492515
9337.000000;0.492047
9336.000000;0.491829
9335.000000;0.491635
9334.000000;0.491298
9333.000000;0.490929
9332.000000;0.490683
9331.000000;0.490548
9330.000000;0.490426
9329.000000;0.490233
9328.000000;0.489896
9327.000000;0.489423
9326.000000;0.488983
9325.000000;0.488711
9324.000000;0.488520
9323.000000;0.488302
9322.000000;0.488182
9321.000000;0.488256
9320.000000;0.488227
9319.000000;0.487698
9318.000000;0.486786
9317.000000;0.486035
9316.000000;0.485722
9315.000000;0.485638
9314.000000;0.485535
9313.000000;0.485367
9312.000000;0.485068
9311.000000;0.484519
9310.000000;0.483865
9309.000000;0.483480
9308.000000;0.483478
9307.000000;0.483573
9306.000000;0.483497
9305.000000;0.483252
9304.000000;0.482888
9303.000000;0.482387
9302.000000;0.481856
9301.000000;0.481515
9300.000000;0.481383
9299.000000;0.481241
9298.000000;0.480964
9297.000000;0.480616
9296.000000;0.480207
9295.000000;0.479686
9294.000000;0.479186
9293.000000;0.478934
9292.000000;0.478864
9291.000000;0.478668
9290.000000;0.478296
9289.000000;0.478054
9288.000000;0.478104
9287.000000;0.478214
9286.000000;0.478121
9285.000000;0.477812
9284.000000;0.477355
9283.000000;0.476766
9282.000000;0.476161
9281.000000;0.475731
9280.000000;0.475456
9279.000000;0.475104
9278.000000;0.474634
9277.000000;0.474300
9276.000000;0.474234
9275.000000;0.474223
9274.000000;0.474009
9273.000000;0.473592
9272.000000;0.473103
9271.000000;0.472633
9270.000000;0.472251
9269.000000;0.471971
9268.000000;0.471655
9267.000000;0.471154
9266.000000;0.470603
9265.000000;0.470305
9264.000000;0.470308
9263.000000;0.470355
9262.000000;0.470275
9261.000000;0.470126
9260.000000;0.469926
9259.000000;0.469557
9258.000000;0.469030
9257.000000;0.468573
9256.000000;0.468342
9255.000000;0.468271
9254.000000;0.468245
9253.000000;0.468189
9252.000000;0.467984
9251.000000;0.467572
9250.000000;0.467157
9249.000000;0.467004
9248.000000;0.467031
9247.000000;0.466878
9246.000000;0.466411
9245.000000;0.465842
9244.000000;0.465330
9243.000000;0.464821
9242.000000;0.464335
9241.000000;0.464054
9240.000000;0.464022
9239.000000;0.464038
9238.000000;0.463952
9237.000000;0.463805
9236.000000;0.463612
9235.000000;0.463274
9234.000000;0.462813
9233.000000;0.462425
9232.000000;0.462218
9231.000000;0.462122
9230.000000;0.462068
9229.000000;0.462026
9228.000000;0.461864
9227.000000;0.461446
9226.000000;0.460902
9225.000000;0.460501
9224.000000;0.460265
9223.000000;0.459983
9222.000000;0.459612
9221.000000;0.459330
9220.000000;0.459171
9219.000000;0.458959
9218.000000;0.458653
9217.000000;0.458429
9216.000000;0.458335
9215.000000;0.458196
9214.000000;0.457936
9213.000000;0.457694
9212.000000;0.457522
9211.000000;0.457279
9210.000000;0.456919
9209.000000;0.456593
9208.000000;0.456377
9207.000000;0.456164
9206.000000;0.455901
9205.000000;0.455659
9204.000000;0.455411
9203.000000;0.455039
9202.000000;0.454604
9201.000000;0.454341
9200.000000;0.454300
9199.000000;0.454263
9198.000000;0.454074
9197.000000;0.453782
9196.000000;0.453425
9195.000000;0.452972
9194.000000;0.452544
9193.000000;0.452373
9192.000000;0.452447
9191.000000;0.452462
9190.000000;0.452204
9189.000000;0.451740
9188.000000;0.451198
9187.000000;0.450654
9186.000000;0.450243
9185.000000;0.450083
9184.000000;0.450044
9183.000000;0.449870
9182.000000;0.449590
9181.000000;0.449467
9180.000000;0.449531
9179.000000;0.449511
9178.000000;0.449286
9177.000000;0.449033
9176.000000;0.448820
9175.000000;0.448428
9174.000000;0.447751
9173.000000;0.447048
9172.000000;0.446617
9171.000000;0.446461
9170.000000;0.446429
9169.000000;0.446441
9168.000000;0.446448
9167.000000;0.446381
9166.000000;0.446260
9165.000000;0.446144
9164.000000;0.445938
9163.000000;0.445483
9162.000000;0.444899
9161.000000;0.444526
9160.000000;0.444467
9159.000000;0.444459
9158.000000;0.444275
9157.000000;0.443982
9156.000000;0.443704
9155.000000;0.443426
9154.000000;0.443149
9153.000000;0.442975
9152.000000;0.442889
9151.000000;0.442712
9150.000000;0.442379
9149.000000;0.442033
9148.000000;0.441772
9147.000000;0.441526
9146.000000;0.441269
9145.000000;0.441090
9144.000000;0.440956
9143.000000;0.440663
9142.000000;0.440145
9141.000000;0.439611
9140.000000;0.439267
9139.000000;0.439119
9138.000000;0.439108
9137.000000;0.439206
9136.000000;0.439300
9135.000000;0.439222
9134.000000;0.438997
9133.000000;0.438842
9132.000000;0.438846
9131.000000;0.438852
9130.000000;0.438729
9129.000000;0.438519
9128.000000;0.438239
9127.000000;0.437785
9126.000000;0.437141
9125.000000;0.436479
9124.000000;0.435964
9123.000000;0.435628
9122.000000;0.435477
9121.000000;0.435521
9120.000000;0.435639
9119.000000;0.435633
9118.000000;0.435444
9117.000000;0.435152
9116.000000;0.434771
9115.000000;0.434269
9114.000000;0.433772
9113.000000;0.433464
9112.000000;0.433283
9111.000000;0.432995
9110.000000;0.432597
9109.000000;0.432344
9108.000000;0.432339
9107.000000;0.432393
9106.000000;0.432339
9105.000000;0.432197
9104.000000;0.431958
9103.000000;0.431532
9102.000000;0.431015
9101.000000;0.430702
9100.000000;0.430704
9099.000000;0.430789
9098.000000;0.430749
9097.000000;0.430655
9096.000000;0.430624
9095.000000;0.430566
9094.000000;0.430337
9093.000000;0.429969
9092.000000;0.429598
9091.000000;0.429314
9090.000000;0.429179
9089.000000;0.429234
9088.000000;0.429389
9087.000000;0.429450
9086.000000;0.429300
9085.000000;0.428980
9084.000000;0.428545
9083.000000;0.428019
9082.000000;0.427479
9081.000000;0.427013
9080.000000;0.426598
9079.000000;0.426184
9078.000000;0.425863
9077.000000;0.425765
9076.000000;0.425801
9075.000000;0.425757
9074.000000;0.425604
9073.000000;0.425494
9072.000000;0.425474
9071.000000;0.425428
9070.000000;0.425308
9069.000000;0.425147
9068.000000;0.424883
9067.000000;0.424451
9066.000000;0.424040
9065.000000;0.423944
9064.000000;0.424127
9063.000000;0.424226
9062.000000;0.424039
9061.000000;0.423726
9060.000000;0.423482
9059.000000;0.423292
9058.000000;0.423073
9057.000000;0.422814
9056.000000;0.422489
9055.000000;0.422078
9054.000000;0.421728
9053.000000;0.421638
