Criado como novo conjunto de dados;"e2410_daniel_v2.spp","80287.0 Secs"
cm-1;Abs
10000.000000;1.210892
9999.000000;1.211262
9998.000000;1.211697
9997.000000;1.211688
9996.000000;1.210613
9995.000000;1.208481
9994.000000;1.206250
9993.000000;1.204985
9992.000000;1.204823
9991.000000;1.205119
9990.000000;1.205355
9989.000000;1.205374
9988.000000;1.204937
9987.000000;1.203790
9986.000000;1.202182
9985.000000;1.200707
9984.000000;1.199595
9983.000000;1.198654
9982.000000;1.197888
9981.000000;1.197514
9980.000000;1.197346
9979.000000;1.196843
9978.000000;1.195991
9977.000000;1.195522
9976.000000;1.195973
9975.000000;1.196964
9974.000000;1.197635
9973.000000;1.197458
9972.000000;1.196451
9971.000000;1.195018
9970.000000;1.193757
9969.000000;1.193108
9968.000000;1.193004
9967.000000;1.193112
9966.000000;1.193327
9965.000000;1.193654
9964.000000;1.193668
9963.000000;1.192715
9962.000000;1.190757
9961.000000;1.188552
9960.000000;1.186842
9959.000000;1.185850
9958.000000;1.185585
9957.000000;1.185986
9956.000000;1.186568
9955.000000;1.186522
9954.000000;1.185590
9953.000000;1.184416
9952.000000;1.183727
9951.000000;1.183543
9950.000000;1.183536
9949.000000;1.183730
9948.000000;1.184343
9947.000000;1.185082
9946.000000;1.185081
9945.000000;1.183696
9944.000000;1.181259
9943.000000;1.178986
9942.000000;1.178047
9941.000000;1.178538
9940.000000;1.179316
9939.000000;1.179033
9938.000000;1.177357
9937.000000;1.175073
9936.000000;1.173148
9935.000000;1.172030
9934.000000;1.171689
9933.000000;1.171826
9932.000000;1.172007
9931.000000;1.171954
9930.000000;1.171794
9929.000000;1.171733
9928.000000;1.171554
9927.000000;1.170836
9926.000000;1.169704
9925.000000;1.168876
9924.000000;1.168805
9923.000000;1.169141
9922.000000;1.169180
9921.000000;1.168624
9920.000000;1.167731
9919.000000;1.166961
9918.000000;1.166574
9917.000000;1.166382
9916.000000;1.165922
9915.000000;1.165031
9914.000000;1.164122
9913.000000;1.163604
9912.000000;1.163216
9911.000000;1.162426
9910.000000;1.161339
9909.000000;1.160672
9908.000000;1.160768
9907.000000;1.161142
9906.000000;1.161129
9905.000000;1.160548
9904.000000;1.159591
9903.000000;1.158510
9902.000000;1.157596
9901.000000;1.157048
9900.000000;1.156646
9899.000000;1.155907
9898.000000;1.154772
9897.000000;1.153824
9896.000000;1.153611
9895.000000;1.154006
9894.000000;1.154440
9893.000000;1.154492
9892.000000;1.154062
9891.000000;1.153225
9890.000000;1.152177
9889.000000;1.151233
9888.000000;1.150668
9887.000000;1.150542
9886.000000;1.150653
9885.000000;1.150613
9884.000000;1.150111
9883.000000;1.149269
9882.000000;1.148623
9881.000000;1.148482
9880.000000;1.148463
9879.000000;1.147923
9878.000000;1.146746
9877.000000;1.145372
9876.000000;1.144227
9875.000000;1.143520
9874.000000;1.143406
9873.000000;1.143809
9872.000000;1.144139
9871.000000;1.143758
9870.000000;1.142804
9869.000000;1.142017
9868.000000;1.141648
9867.000000;1.141092
9866.000000;1.139804
9865.000000;1.138102
9864.000000;1.136786
9863.000000;1.136308
9862.000000;1.136551
9861.000000;1.137046
9860.000000;1.137202
9859.000000;1.136600
9858.000000;1.135359
9857.000000;1.134027
9856.000000;1.133037
9855.000000;1.132484
9854.000000;1.132392
9853.000000;1.132747
9852.000000;1.133130
9851.000000;1.132812
9850.000000;1.131554
9849.000000;1.130014
9848.000000;1.129027
9847.000000;1.128740
9846.000000;1.128719
9845.000000;1.128666
9844.000000;1.128607
9843.000000;1.128482
9842.000000;1.127971
9841.000000;1.126901
9840.000000;1.125622
9839.000000;1.124764
9838.000000;1.124601
9837.000000;1.124723
9836.000000;1.124450
9835.000000;1.123552
9834.000000;1.122435
9833.000000;1.121600
9832.000000;1.121127
9831.000000;1.120841
9830.000000;1.120700
9829.000000;1.120751
9828.000000;1.120857
9827.000000;1.120823
9826.000000;1.120654
9825.000000;1.120388
9824.000000;1.119841
9823.000000;1.118918
9822.000000;1.118064
9821.000000;1.117872
9820.000000;1.118215
9819.000000;1.118265
9818.000000;1.117520
9817.000000;1.116374
9816.000000;1.115446
9815.000000;1.114752
9814.000000;1.113864
9813.000000;1.112622
9812.000000;1.111321
9811.000000;1.110312
9810.000000;1.109673
9809.000000;1.109317
9808.000000;1.109206
9807.000000;1.109370
9806.000000;1.109721
9805.000000;1.109971
9804.000000;1.109869
9803.000000;1.109536
9802.000000;1.109367
9801.000000;1.109543
9800.000000;1.109814
9799.000000;1.109821
9798.000000;1.109365
9797.000000;1.108256
9796.000000;1.106332
9795.000000;1.103968
9794.000000;1.102206
9793.000000;1.101882
9792.000000;1.102772
9791.000000;1.103919
9790.000000;1.104601
9789.000000;1.104609
9788.000000;1.103878
9787.000000;1.102488
9786.000000;1.100996
9785.000000;1.100112
9784.000000;1.099939
9783.000000;1.099970
9782.000000;1.099854
9781.000000;1.099657
9780.000000;1.099320
9779.000000;1.098444
9778.000000;1.096896
9777.000000;1.095176
9776.000000;1.093917
9775.000000;1.093302
9774.000000;1.093119
9773.000000;1.093082
9772.000000;1.092949
9771.000000;1.092612
9770.000000;1.092241
9769.000000;1.092078
9768.000000;1.092006
9767.000000;1.091624
9766.000000;1.090857
9765.000000;1.090168
9764.000000;1.089926
9763.000000;1.089845
9762.000000;1.089271
9761.000000;1.087910
9760.000000;1.086109
9759.000000;1.084551
9758.000000;1.083781
9757.000000;1.083876
9756.000000;1.084440
9755.000000;1.084959
9754.000000;1.085170
9753.000000;1.085047
9752.000000;1.084578
9751.000000;1.083789
9750.000000;1.082890
9749.000000;1.082138
9748.000000;1.081562
9747.000000;1.081035
9746.000000;1.080528
9745.000000;1.080054
9744.000000;1.079478
9743.000000;1.078723
9742.000000;1.078090
9741.000000;1.077981
9740.000000;1.078279
9739.000000;1.078357
9738.000000;1.077792
9737.000000;1.076769
9736.000000;1.075714
9735.000000;1.074863
9734.000000;1.074301
9733.000000;1.074088
9732.000000;1.074163
9731.000000;1.074292
9730.000000;1.074233
9729.000000;1.073858
9728.000000;1.073161
9727.000000;1.072317
9726.000000;1.071640
9725.000000;1.071214
9724.000000;1.070665
9723.000000;1.069644
9722.000000;1.068486
9721.000000;1.067961
9720.000000;1.068292
9719.000000;1.068832
9718.000000;1.068862
9717.000000;1.068366
9716.000000;1.067801
9715.000000;1.067428
9714.000000;1.067134
9713.000000;1.066741
9712.000000;1.066204
9711.000000;1.065530
9710.000000;1.064694
9709.000000;1.063673
9708.000000;1.062538
9707.000000;1.061518
9706.000000;1.060863
9705.000000;1.060561
9704.000000;1.060272
9703.000000;1.059693
9702.000000;1.058922
9701.000000;1.058281
9700.000000;1.057908
9699.000000;1.057683
9698.000000;1.057470
9697.000000;1.057211
9696.000000;1.056880
9695.000000;1.056531
9694.000000;1.056245
9693.000000;1.055846
9692.000000;1.054886
9691.000000;1.053268
9690.000000;1.051691
9689.000000;1.051022
9688.000000;1.051299
9687.000000;1.051737
9686.000000;1.051722
9685.000000;1.051381
9684.000000;1.051137
9683.000000;1.051101
9682.000000;1.051089
9681.000000;1.050920
9680.000000;1.050516
9679.000000;1.049898
9678.000000;1.049161
9677.000000;1.048338
9676.000000;1.047314
9675.000000;1.046083
9674.000000;1.044990
9673.000000;1.044424
9672.000000;1.044322
9671.000000;1.044284
9670.000000;1.044163
9669.000000;1.044168
9668.000000;1.044374
9667.000000;1.044495
9666.000000;1.044242
9665.000000;1.043650
9664.000000;1.042951
9663.000000;1.042378
9662.000000;1.042140
9661.000000;1.042272
9660.000000;1.042446
9659.000000;1.042205
9658.000000;1.041447
9657.000000;1.040471
9656.000000;1.039516
9655.000000;1.038532
9654.000000;1.037458
9653.000000;1.036422
9652.000000;1.035564
9651.000000;1.034874
9650.000000;1.034287
9649.000000;1.033737
9648.000000;1.033087
9647.000000;1.032239
9646.000000;1.031366
9645.000000;1.030800
9644.000000;1.030625
9643.000000;1.030560
9642.000000;1.030282
9641.000000;1.029719
9640.000000;1.029017
9639.000000;1.028409
9638.000000;1.028144
9637.000000;1.028321
9636.000000;1.028779
9635.000000;1.029265
9634.000000;1.029661
9633.000000;1.029848
9632.000000;1.029522
9631.000000;1.028496
9630.000000;1.027140
9629.000000;1.026142
9628.000000;1.025770
9627.000000;1.025623
9626.000000;1.025149
9625.000000;1.024184
9624.000000;1.022962
9623.000000;1.021875
9622.000000;1.021272
9621.000000;1.021237
9620.000000;1.021473
9619.000000;1.021561
9618.000000;1.021328
9617.000000;1.020830
9616.000000;1.020100
9615.000000;1.019206
9614.000000;1.018450
9613.000000;1.018107
9612.000000;1.018003
9611.000000;1.017713
9610.000000;1.017222
9609.000000;1.016967
9608.000000;1.017111
9607.000000;1.017193
9606.000000;1.016719
9605.000000;1.015827
9604.000000;1.015096
9603.000000;1.014864
9602.000000;1.014923
9601.000000;1.014775
9600.000000;1.014057
9599.000000;1.012816
9598.000000;1.011447
9597.000000;1.010376
9596.000000;1.009793
9595.000000;1.009674
9594.000000;1.009892
9593.000000;1.010192
9592.000000;1.010226
9591.000000;1.009858
9590.000000;1.009322
9589.000000;1.008890
9588.000000;1.008498
9587.000000;1.007901
9586.000000;1.007075
9585.000000;1.006212
9584.000000;1.005470
9583.000000;1.004999
9582.000000;1.005018
9581.000000;1.005481
9580.000000;1.005832
9579.000000;1.005539
9578.000000;1.004769
9577.000000;1.004075
9576.000000;1.003493
9575.000000;1.002527
9574.000000;1.001080
9573.000000;0.999829
9572.000000;0.999436
9571.000000;0.999806
9570.000000;1.000331
9569.000000;1.000528
9568.000000;1.000245
9567.000000;0.999538
9566.000000;0.998599
9565.000000;0.997682
9564.000000;0.996936
9563.000000;0.996383
9562.000000;0.996059
9561.000000;0.995965
9560.000000;0.995893
9559.000000;0.995554
9558.000000;0.994939
9557.000000;0.994286
9556.000000;0.993688
9555.000000;0.993028
9554.000000;0.992290
9553.000000;0.991627
9552.000000;0.991046
9551.000000;0.990382
9550.000000;0.989671
9549.000000;0.989208
9548.000000;0.989102
9547.000000;0.989081
9546.000000;0.988900
9545.000000;0.988662
9544.000000;0.988561
9543.000000;0.988549
9542.000000;0.988440
9541.000000;0.988169
9540.000000;0.987798
9539.000000;0.987433
9538.000000;0.987216
9537.000000;0.987216
9536.000000;0.987248
9535.000000;0.987011
9534.000000;0.986463
9533.000000;0.985836
9532.000000;0.985225
9531.000000;0.984446
9530.000000;0.983428
9529.000000;0.982460
9528.000000;0.981859
9527.000000;0.981568
9526.000000;0.981272
9525.000000;0.980799
9524.000000;0.980271
9523.000000;0.979935
9522.000000;0.979945
9521.000000;0.980204
9520.000000;0.980391
9519.000000;0.980241
9518.000000;0.979796
9517.000000;0.979230
9516.000000;0.978514
9515.000000;0.977509
9514.000000;0.976383
9513.000000;0.975594
9512.000000;0.975353
9511.000000;0.975335
9510.000000;0.975090
9509.000000;0.974517
9508.000000;0.973816
9507.000000;0.973137
9506.000000;0.972482
9505.000000;0.971821
9504.000000;0.971194
9503.000000;0.970714
9502.000000;0.970524
9501.000000;0.970631
9500.000000;0.970783
9499.000000;0.970631
9498.000000;0.970071
9497.000000;0.969322
9496.000000;0.968662
9495.000000;0.968196
9494.000000;0.967864
9493.000000;0.967574
9492.000000;0.967329
9491.000000;0.967293
9490.000000;0.967636
9489.000000;0.968180
9488.000000;0.968357
9487.000000;0.967747
9486.000000;0.966585
9485.000000;0.965509
9484.000000;0.964893
9483.000000;0.964654
9482.000000;0.964568
9481.000000;0.964454
9480.000000;0.964111
9479.000000;0.963447
9478.000000;0.962683
9477.000000;0.962116
9476.000000;0.961701
9475.000000;0.961202
9474.000000;0.960715
9473.000000;0.960616
9472.000000;0.960902
9471.000000;0.961016
9470.000000;0.960513
9469.000000;0.959573
9468.000000;0.958666
9467.000000;0.958017
9466.000000;0.957595
9465.000000;0.957334
9464.000000;0.957114
9463.000000;0.956734
9462.000000;0.956143
9461.000000;0.955557
9460.000000;0.955151
9459.000000;0.954787
9458.000000;0.954227
9457.000000;0.953505
9456.000000;0.952908
9455.000000;0.952654
9454.000000;0.952708
9453.000000;0.952827
9452.000000;0.952684
9451.000000;0.952084
9450.000000;0.951145
9449.000000;0.950217
9448.000000;0.949560
9447.000000;0.949192
9446.000000;0.949006
9445.000000;0.948874
9444.000000;0.948649
9443.000000;0.948293
9442.000000;0.948054
9441.000000;0.948276
9440.000000;0.948893
9439.000000;0.949291
9438.000000;0.948870
9437.000000;0.947644
9436.000000;0.946184
9435.000000;0.945057
9434.000000;0.944448
9433.000000;0.944203
9432.000000;0.944068
9431.000000;0.943882
9430.000000;0.943601
9429.000000;0.943166
9428.000000;0.942425
9427.000000;0.941303
9426.000000;0.940002
9425.000000;0.938934
9424.000000;0.938422
9423.000000;0.938525
9422.000000;0.939080
9421.000000;0.939815
9420.000000;0.940471
9419.000000;0.940932
9418.000000;0.941208
9417.000000;0.941192
9416.000000;0.940589
9415.000000;0.939289
9414.000000;0.937719
9413.000000;0.936553
9412.000000;0.936069
9411.000000;0.936019
9410.000000;0.936075
9409.000000;0.936129
9408.000000;0.936091
9407.000000;0.935756
9406.000000;0.935046
9405.000000;0.934211
9404.000000;0.933590
9403.000000;0.933263
9402.000000;0.933062
9401.000000;0.932833
9400.000000;0.932566
9399.000000;0.932332
9398.000000;0.932152
9397.000000;0.931925
9396.000000;0.931480
9395.000000;0.930747
9394.000000;0.929855
9393.000000;0.929041
9392.000000;0.928512
9391.000000;0.928438
9390.000000;0.928887
9389.000000;0.929596
9388.000000;0.929929
9387.000000;0.929401
9386.000000;0.928233
9385.000000;0.927156
9384.000000;0.926653
9383.000000;0.926583
9382.000000;0.926563
9381.000000;0.926445
9380.000000;0.926303
9379.000000;0.926168
9378.000000;0.925965
9377.000000;0.925673
9376.000000;0.925434
9375.000000;0.925469
9374.000000;0.925849
9373.000000;0.926298
9372.000000;0.926316
9371.000000;0.925616
9370.000000;0.924403
9369.000000;0.923113
9368.000000;0.921987
9367.000000;0.921025
9366.000000;0.920256
9365.000000;0.919789
9364.000000;0.919627
9363.000000;0.919605
9362.000000;0.919520
9361.000000;0.919208
9360.000000;0.918567
9359.000000;0.917707
9358.000000;0.917021
9357.000000;0.916864
9356.000000;0.917122
9355.000000;0.917288
9354.000000;0.916994
9353.000000;0.916337
9352.000000;0.915669
9351.000000;0.915213
9350.000000;0.914917
9349.000000;0.914569
9348.000000;0.914057
9347.000000;0.913565
9346.000000;0.913433
9345.000000;0.913698
9344.000000;0.913938
9343.000000;0.913738
9342.000000;0.913207
9341.000000;0.912770
9340.000000;0.912553
9339.000000;0.912261
9338.000000;0.911623
9337.000000;0.910682
9336.000000;0.909652
9335.000000;0.908753
9334.000000;0.908194
9333.000000;0.908056
9332.000000;0.908136
9331.000000;0.908142
9330.000000;0.908053
9329.000000;0.908039
9328.000000;0.908034
9327.000000;0.907719
9326.000000;0.907030
9325.000000;0.906373
9324.000000;0.906145
9323.000000;0.906256
9322.000000;0.906309
9321.000000;0.906096
9320.000000;0.905747
9319.000000;0.905470
9318.000000;0.905320
9317.000000;0.905177
9316.000000;0.904864
9315.000000;0.904295
9314.000000;0.903580
9313.000000;0.902987
9312.000000;0.902759
9311.000000;0.902927
9310.000000;0.903253
9309.000000;0.903344
9308.000000;0.902946
9307.000000;0.902202
9306.000000;0.901526
9305.000000;0.901162
9304.000000;0.900991
9303.000000;0.900816
9302.000000;0.900656
9301.000000;0.900598
9300.000000;0.900546
9299.000000;0.900336
9298.000000;0.899955
9297.000000;0.899432
9296.000000;0.898619
9295.000000;0.897401
9294.000000;0.896053
9293.000000;0.895108
9292.000000;0.894846
9291.000000;0.895081
9290.000000;0.895435
9289.000000;0.895607
9288.000000;0.895442
9287.000000;0.894984
9286.000000;0.894455
9285.000000;0.894031
9284.000000;0.893630
9283.000000;0.893119
9282.000000;0.892624
9281.000000;0.892389
9280.000000;0.892364
9279.000000;0.892194
9278.000000;0.891633
9277.000000;0.890800
9276.000000;0.890033
9275.000000;0.889661
9274.000000;0.889849
9273.000000;0.890370
9272.000000;0.890612
9271.000000;0.890100
9270.000000;0.889043
9269.000000;0.888104
9268.000000;0.887627
9267.000000;0.887390
9266.000000;0.887115
9265.000000;0.886866
9264.000000;0.886836
9263.000000;0.886995
9262.000000;0.887137
9261.000000;0.887129
9260.000000;0.886974
9259.000000;0.886741
9258.000000;0.886506
9257.000000;0.886253
9256.000000;0.885839
9255.000000;0.885175
9254.000000;0.884415
9253.000000;0.883797
9252.000000;0.883343
9251.000000;0.882929
9250.000000;0.882595
9249.000000;0.882543
9248.000000;0.882783
9247.000000;0.883019
9246.000000;0.882949
9245.000000;0.882517
9244.000000;0.881873
9243.000000;0.881261
9242.000000;0.880926
9241.000000;0.880902
9240.000000;0.880873
9239.000000;0.880490
9238.000000;0.879849
9237.000000;0.879409
9236.000000;0.879368
9235.000000;0.879382
9234.000000;0.879008
9233.000000;0.878207
9232.000000;0.877304
9231.000000;0.876609
9230.000000;0.876216
9229.000000;0.876028
9228.000000;0.875867
9227.000000;0.875632
9226.000000;0.875390
9225.000000;0.875249
9224.000000;0.875177
9223.000000;0.875047
9222.000000;0.874838
9221.000000;0.874608
9220.000000;0.874327
9219.000000;0.873921
9218.000000;0.873469
9217.000000;0.873138
9216.000000;0.872917
9215.000000;0.872659
9214.000000;0.872399
9213.000000;0.872394
9212.000000;0.872731
9211.000000;0.873098
9210.000000;0.873071
9209.000000;0.872543
9208.000000;0.871814
9207.000000;0.871343
9206.000000;0.871388
9205.000000;0.871746
9204.000000;0.871866
9203.000000;0.871376
9202.000000;0.870475
9201.000000;0.869630
9200.000000;0.868994
9199.000000;0.868364
9198.000000;0.867670
9197.000000;0.867160
9196.000000;0.867045
9195.000000;0.867205
9194.000000;0.867377
9193.000000;0.867444
9192.000000;0.867421
9191.000000;0.867350
9190.000000;0.867275
9189.000000;0.867204
9188.000000;0.867028
9187.000000;0.866634
9186.000000;0.866112
9185.000000;0.865682
9184.000000;0.865392
9183.000000;0.865096
9182.000000;0.864756
9181.000000;0.864520
9180.000000;0.864426
9179.000000;0.864276
9178.000000;0.863900
9177.000000;0.863381
9176.000000;0.862874
9175.000000;0.862384
9174.000000;0.861883
9173.000000;0.861483
9172.000000;0.861342
9171.000000;0.861437
9170.000000;0.861544
9169.000000;0.861422
9168.000000;0.860977
9167.000000;0.860331
9166.000000;0.859746
9165.000000;0.859394
9164.000000;0.859195
9163.000000;0.858957
9162.000000;0.858650
9161.000000;0.858382
9160.000000;0.858140
9159.000000;0.857764
9158.000000;0.857226
9157.000000;0.856746
9156.000000;0.856540
9155.000000;0.856592
9154.000000;0.856731
9153.000000;0.856808
9152.000000;0.856737
9151.000000;0.856496
9150.000000;0.856211
9149.000000;0.856115
9148.000000;0.856338
9147.000000;0.856735
9146.000000;0.856944
9145.000000;0.856614
9144.000000;0.855677
9143.000000;0.854525
9142.000000;0.853827
9141.000000;0.853971
9140.000000;0.854640
9139.000000;0.855064
9138.000000;0.854724
9137.000000;0.853725
9136.000000;0.852555
9135.000000;0.851658
9134.000000;0.851234
9133.000000;0.851218
9132.000000;0.851357
9131.000000;0.851455
9130.000000;0.851567
9129.000000;0.851843
9128.000000;0.852180
9127.000000;0.852225
9126.000000;0.851767
9125.000000;0.850940
9124.000000;0.849990
9123.000000;0.849015
9122.000000;0.848042
9121.000000;0.847217
9120.000000;0.846763
9119.000000;0.846774
9118.000000;0.847089
9117.000000;0.847366
9116.000000;0.847316
9115.000000;0.846957
9114.000000;0.846581
9113.000000;0.846374
9112.000000;0.846173
9111.000000;0.845732
9110.000000;0.845166
9109.000000;0.844881
9108.000000;0.845055
9107.000000;0.845394
9106.000000;0.845462
9105.000000;0.845101
9104.000000;0.844459
9103.000000;0.843776
9102.000000;0.843226
9101.000000;0.842845
9100.000000;0.842543
9099.000000;0.842249
9098.000000;0.842057
9097.000000;0.842117
9096.000000;0.842359
9095.000000;0.842486
9094.000000;0.842281
9093.000000;0.841831
9092.000000;0.841367
9091.000000;0.841014
9090.000000;0.840737
9089.000000;0.840475
9088.000000;0.840252
9087.000000;0.840151
9086.000000;0.840167
9085.000000;0.840112
9084.000000;0.839785
9083.000000;0.839311
9082.000000;0.839129
9081.000000;0.839464
9080.000000;0.839953
9079.000000;0.840008
9078.000000;0.839491
9077.000000;0.838766
9076.000000;0.838146
9075.000000;0.837588
9074.000000;0.836998
9073.000000;0.836507
9072.000000;0.836312
9071.000000;0.836426
9070.000000;0.836707
9069.000000;0.836998
9068.000000;0.837146
9067.000000;0.837025
9066.000000;0.836651
9065.000000;0.836174
9064.000000;0.835704
9063.000000;0.835255
9062.000000;0.834861
9061.000000;0.834602
9060.000000;0.834434
9059.000000;0.834173
9058.000000;0.833756
9057.000000;0.833402
9056.000000;0.833377
9055.000000;0.833655
9054.000000;0.833917
9053.000000;0.833870
