Criado como novo conjunto de dados;"e2410_daniel_v2.spp","39963.9 Secs"
cm-1;Abs
10000.000000;0.386418
9999.000000;0.385587
9998.000000;0.384757
9997.000000;0.383930
9996.000000;0.383104
9995.000000;0.382279
9994.000000;0.381456
9993.000000;0.380635
9992.000000;0.379814
9991.000000;0.378998
9990.000000;0.378174
9989.000000;0.377419
9988.000000;0.376877
9987.000000;0.376464
9986.000000;0.375936
9985.000000;0.375188
9984.000000;0.374390
9983.000000;0.373821
9982.000000;0.373584
9981.000000;0.373500
9980.000000;0.373279
9979.000000;0.372782
9978.000000;0.372124
9977.000000;0.371540
9976.000000;0.371149
9975.000000;0.370870
9974.000000;0.370541
9973.000000;0.370072
9972.000000;0.369474
9971.000000;0.368790
9970.000000;0.368065
9969.000000;0.367347
9968.000000;0.366673
9967.000000;0.366054
9966.000000;0.365527
9965.000000;0.365155
9964.000000;0.364890
9963.000000;0.364499
9962.000000;0.363778
9961.000000;0.362828
9960.000000;0.362010
9959.000000;0.361581
9958.000000;0.361474
9957.000000;0.361446
9956.000000;0.361311
9955.000000;0.361001
9954.000000;0.360530
9953.000000;0.359987
9952.000000;0.359468
9951.000000;0.358935
9950.000000;0.358226
9949.000000;0.357295
9948.000000;0.356358
9947.000000;0.355709
9946.000000;0.355421
9945.000000;0.355307
9944.000000;0.355123
9943.000000;0.354738
9942.000000;0.354171
9941.000000;0.353548
9940.000000;0.353020
9939.000000;0.352644
9938.000000;0.352346
9937.000000;0.352021
9936.000000;0.351622
9935.000000;0.351105
9934.000000;0.350385
9933.000000;0.349440
9932.000000;0.348422
9931.000000;0.347568
9930.000000;0.347008
9929.000000;0.346716
9928.000000;0.346594
9927.000000;0.346503
9926.000000;0.346254
9925.000000;0.345715
9924.000000;0.344951
9923.000000;0.344180
9922.000000;0.343531
9921.000000;0.342945
9920.000000;0.342344
9919.000000;0.341796
9918.000000;0.341445
9917.000000;0.341288
9916.000000;0.341129
9915.000000;0.340759
9914.000000;0.340163
9913.000000;0.339517
9912.000000;0.339000
9911.000000;0.338630
9910.000000;0.338284
9909.000000;0.337846
9908.000000;0.337305
9907.000000;0.336730
9906.000000;0.336190
9905.000000;0.335693
9904.000000;0.335186
9903.000000;0.334612
9902.000000;0.334012
9901.000000;0.333537
9900.000000;0.333290
9899.000000;0.333162
9898.000000;0.332912
9897.000000;0.332422
9896.000000;0.331785
9895.000000;0.331118
9894.000000;0.330433
9893.000000;0.329743
9892.000000;0.329172
9891.000000;0.328832
9890.000000;0.328631
9889.000000;0.328336
9888.000000;0.327812
9887.000000;0.327120
9886.000000;0.326399
9885.000000;0.325752
9884.000000;0.325233
9883.000000;0.324842
9882.000000;0.324506
9881.000000;0.324113
9880.000000;0.323596
9879.000000;0.322973
9878.000000;0.322322
9877.000000;0.321756
9876.000000;0.321356
9875.000000;0.321084
9874.000000;0.320766
9873.000000;0.320258
9872.000000;0.319595
9871.000000;0.318922
9870.000000;0.318304
9869.000000;0.317699
9868.000000;0.317127
9867.000000;0.316728
9866.000000;0.316606
9865.000000;0.316652
9864.000000;0.316608
9863.000000;0.316286
9862.000000;0.315716
9861.000000;0.315084
9860.000000;0.314556
9859.000000;0.314158
9858.000000;0.313800
9857.000000;0.313388
9856.000000;0.312894
9855.000000;0.312322
9854.000000;0.311688
9853.000000;0.311030
9852.000000;0.310407
9851.000000;0.309826
9850.000000;0.309237
9849.000000;0.308634
9848.000000;0.308117
9847.000000;0.307782
9846.000000;0.307567
9845.000000;0.307277
9844.000000;0.306769
9843.000000;0.306074
9842.000000;0.305353
9841.000000;0.304776
9840.000000;0.304404
9839.000000;0.304116
9838.000000;0.303680
9837.000000;0.302970
9836.000000;0.302141
9835.000000;0.301507
9834.000000;0.301232
9833.000000;0.301185
9832.000000;0.301076
9831.000000;0.300707
9830.000000;0.300086
9829.000000;0.299367
9828.000000;0.298726
9827.000000;0.298236
9826.000000;0.297843
9825.000000;0.297444
9824.000000;0.296984
9823.000000;0.296461
9822.000000;0.295896
9821.000000;0.295352
9820.000000;0.294935
9819.000000;0.294680
9818.000000;0.294446
9817.000000;0.294016
9816.000000;0.293325
9815.000000;0.292531
9814.000000;0.291856
9813.000000;0.291416
9812.000000;0.291201
9811.000000;0.291131
9810.000000;0.291076
9809.000000;0.290900
9808.000000;0.290535
9807.000000;0.289978
9806.000000;0.289212
9805.000000;0.288227
9804.000000;0.287142
9803.000000;0.286219
9802.000000;0.285669
9801.000000;0.285453
9800.000000;0.285336
9799.000000;0.285093
9798.000000;0.284636
9797.000000;0.284013
9796.000000;0.283372
9795.000000;0.282875
9794.000000;0.282566
9793.000000;0.282318
9792.000000;0.281976
9791.000000;0.281522
9790.000000;0.281059
9789.000000;0.280634
9788.000000;0.280182
9787.000000;0.279644
9786.000000;0.279051
9785.000000;0.278457
9784.000000;0.277861
9783.000000;0.277253
9782.000000;0.276671
9781.000000;0.276152
9780.000000;0.275665
9779.000000;0.275169
9778.000000;0.274712
9777.000000;0.274382
9776.000000;0.274154
9775.000000;0.273878
9774.000000;0.273450
9773.000000;0.272924
9772.000000;0.272383
9771.000000;0.271796
9770.000000;0.271090
9769.000000;0.270343
9768.000000;0.269758
9767.000000;0.269428
9766.000000;0.269211
9765.000000;0.268916
9764.000000;0.268500
9763.000000;0.268034
9762.000000;0.267532
9761.000000;0.266952
9760.000000;0.266337
9759.000000;0.265843
9758.000000;0.265564
9757.000000;0.265401
9756.000000;0.265157
9755.000000;0.264716
9754.000000;0.264117
9753.000000;0.263494
9752.000000;0.262988
9751.000000;0.262669
9750.000000;0.262487
9749.000000;0.262298
9748.000000;0.261974
9747.000000;0.261505
9746.000000;0.260974
9745.000000;0.260456
9744.000000;0.259940
9743.000000;0.259367
9742.000000;0.258724
9741.000000;0.258100
9740.000000;0.257615
9739.000000;0.257291
9738.000000;0.257004
9737.000000;0.256602
9736.000000;0.256073
9735.000000;0.255559
9734.000000;0.255188
9733.000000;0.254942
9732.000000;0.254704
9731.000000;0.254381
9730.000000;0.253932
9729.000000;0.253329
9728.000000;0.252582
9727.000000;0.251808
9726.000000;0.251184
9725.000000;0.250794
9724.000000;0.250541
9723.000000;0.250265
9722.000000;0.249902
9721.000000;0.249501
9720.000000;0.249101
9719.000000;0.248667
9718.000000;0.248168
9717.000000;0.247672
9716.000000;0.247295
9715.000000;0.247068
9714.000000;0.246869
9713.000000;0.246549
9712.000000;0.246077
9711.000000;0.245541
9710.000000;0.245014
9709.000000;0.244464
9708.000000;0.243828
9707.000000;0.243139
9706.000000;0.242522
9705.000000;0.242047
9704.000000;0.241641
9703.000000;0.241175
9702.000000;0.240612
9701.000000;0.240050
9700.000000;0.239603
9699.000000;0.239284
9698.000000;0.239009
9697.000000;0.238697
9696.000000;0.238348
9695.000000;0.238019
9694.000000;0.237740
9693.000000;0.237463
9692.000000;0.237094
9691.000000;0.236596
9690.000000;0.236039
9689.000000;0.235526
9688.000000;0.235095
9687.000000;0.234695
9686.000000;0.234282
9685.000000;0.233872
9684.000000;0.233492
9683.000000;0.233095
9682.000000;0.232579
9681.000000;0.231908
9680.000000;0.231177
9679.000000;0.230529
9678.000000;0.230015
9677.000000;0.229561
9676.000000;0.229059
9675.000000;0.228498
9674.000000;0.227981
9673.000000;0.227621
9672.000000;0.227429
9671.000000;0.227295
9670.000000;0.227077
9669.000000;0.226705
9668.000000;0.226233
9667.000000;0.225792
9666.000000;0.225481
9665.000000;0.225261
9664.000000;0.224966
9663.000000;0.224446
9662.000000;0.223711
9661.000000;0.222936
9660.000000;0.222306
9659.000000;0.221892
9658.000000;0.221628
9657.000000;0.221380
9656.000000;0.221024
9655.000000;0.220508
9654.000000;0.219897
9653.000000;0.219318
9652.000000;0.218853
9651.000000;0.218481
9650.000000;0.218148
9649.000000;0.217836
9648.000000;0.217554
9647.000000;0.217274
9646.000000;0.216931
9645.000000;0.216483
9644.000000;0.215952
9643.000000;0.215412
9642.000000;0.214945
9641.000000;0.214578
9640.000000;0.214232
9639.000000;0.213783
9638.000000;0.213201
9637.000000;0.212610
9636.000000;0.212166
9635.000000;0.211896
9634.000000;0.211698
9633.000000;0.211444
9632.000000;0.211064
9631.000000;0.210543
9630.000000;0.209914
9629.000000;0.209269
9628.000000;0.208693
9627.000000;0.208193
9626.000000;0.207731
9625.000000;0.207332
9624.000000;0.207075
9623.000000;0.206963
9622.000000;0.206881
9621.000000;0.206698
9620.000000;0.206380
9619.000000;0.205969
9618.000000;0.205503
9617.000000;0.205001
9616.000000;0.204482
9615.000000;0.203938
9614.000000;0.203332
9613.000000;0.202670
9612.000000;0.202055
9611.000000;0.201601
9610.000000;0.201298
9609.000000;0.201008
9608.000000;0.200609
9607.000000;0.200119
9606.000000;0.199650
9605.000000;0.199273
9604.000000;0.198937
9603.000000;0.198555
9602.000000;0.198126
9601.000000;0.197748
9600.000000;0.197494
9599.000000;0.197302
9598.000000;0.197037
9597.000000;0.196642
9596.000000;0.196175
9595.000000;0.195702
9594.000000;0.195222
9593.000000;0.194729
9592.000000;0.194284
9591.000000;0.193936
9590.000000;0.193610
9589.000000;0.193157
9588.000000;0.192542
9587.000000;0.191909
9586.000000;0.191420
9585.000000;0.191067
9584.000000;0.190711
9583.000000;0.190284
9582.000000;0.189884
9581.000000;0.189633
9580.000000;0.189500
9579.000000;0.189315
9578.000000;0.188959
9577.000000;0.188467
9576.000000;0.187954
9575.000000;0.187483
9574.000000;0.187046
9573.000000;0.186627
9572.000000;0.186218
9571.000000;0.185788
9570.000000;0.185281
9569.000000;0.184674
9568.000000;0.184028
9567.000000;0.183475
9566.000000;0.183124
9565.000000;0.182932
9564.000000;0.182705
9563.000000;0.182264
9562.000000;0.181642
9561.000000;0.181050
9560.000000;0.180636
9559.000000;0.180341
9558.000000;0.180023
9557.000000;0.179647
9556.000000;0.179275
9555.000000;0.178922
9554.000000;0.178548
9553.000000;0.178161
9552.000000;0.177818
9551.000000;0.177512
9550.000000;0.177162
9549.000000;0.176743
9548.000000;0.176347
9547.000000;0.176069
9546.000000;0.175894
9545.000000;0.175732
9544.000000;0.175511
9543.000000;0.175192
9542.000000;0.174750
9541.000000;0.174196
9540.000000;0.173596
9539.000000;0.173026
9538.000000;0.172516
9537.000000;0.172053
9536.000000;0.171621
9535.000000;0.171218
9534.000000;0.170855
9533.000000;0.170547
9532.000000;0.170295
9531.000000;0.170049
9530.000000;0.169723
9529.000000;0.169275
9528.000000;0.168752
9527.000000;0.168248
9526.000000;0.167825
9525.000000;0.167475
9524.000000;0.167148
9523.000000;0.166816
9522.000000;0.166507
9521.000000;0.166246
9520.000000;0.165983
9519.000000;0.165609
9518.000000;0.165094
9517.000000;0.164552
9516.000000;0.164108
9515.000000;0.163750
9514.000000;0.163376
9513.000000;0.162954
9512.000000;0.162546
9511.000000;0.162188
9510.000000;0.161860
9509.000000;0.161569
9508.000000;0.161352
9507.000000;0.161172
9506.000000;0.160890
9505.000000;0.160407
9504.000000;0.159773
9503.000000;0.159133
9502.000000;0.158621
9501.000000;0.158322
9500.000000;0.158214
9499.000000;0.158119
9498.000000;0.157816
9497.000000;0.157284
9496.000000;0.156756
9495.000000;0.156457
9494.000000;0.156347
9493.000000;0.156216
9492.000000;0.155947
9491.000000;0.155582
9490.000000;0.155156
9489.000000;0.154620
9488.000000;0.153958
9487.000000;0.153276
9486.000000;0.152723
9485.000000;0.152349
9484.000000;0.152077
9483.000000;0.151791
9482.000000;0.151437
9481.000000;0.151049
9480.000000;0.150679
9479.000000;0.150319
9478.000000;0.149916
9477.000000;0.149472
9476.000000;0.149072
9475.000000;0.148797
9474.000000;0.148638
9473.000000;0.148518
9472.000000;0.148367
9471.000000;0.148134
9470.000000;0.147787
9469.000000;0.147344
9468.000000;0.146892
9467.000000;0.146505
9466.000000;0.146176
9465.000000;0.145827
9464.000000;0.145394
9463.000000;0.144866
9462.000000;0.144280
9461.000000;0.143707
9460.000000;0.143214
9459.000000;0.142799
9458.000000;0.142408
9457.000000;0.142010
9456.000000;0.141624
9455.000000;0.141250
9454.000000;0.140841
9453.000000;0.140398
9452.000000;0.140025
9451.000000;0.139825
9450.000000;0.139775
9449.000000;0.139759
9448.000000;0.139672
9447.000000;0.139457
9446.000000;0.139079
9445.000000;0.138578
9444.000000;0.138103
9443.000000;0.137791
9442.000000;0.137613
9441.000000;0.137406
9440.000000;0.137060
9439.000000;0.136615
9438.000000;0.136170
9437.000000;0.135777
9436.000000;0.135443
9435.000000;0.135146
9434.000000;0.134828
9433.000000;0.134421
9432.000000;0.133913
9431.000000;0.133374
9430.000000;0.132872
9429.000000;0.132404
9428.000000;0.131926
9427.000000;0.131420
9426.000000;0.130941
9425.000000;0.130588
9424.000000;0.130428
9423.000000;0.130417
9422.000000;0.130412
9421.000000;0.130292
9420.000000;0.130044
9419.000000;0.129723
9418.000000;0.129346
9417.000000;0.128897
9416.000000;0.128431
9415.000000;0.128062
9414.000000;0.127843
9413.000000;0.127695
9412.000000;0.127485
9411.000000;0.127143
9410.000000;0.126671
9409.000000;0.126095
9408.000000;0.125469
9407.000000;0.124913
9406.000000;0.124556
9405.000000;0.124425
9404.000000;0.124394
9403.000000;0.124265
9402.000000;0.123934
9401.000000;0.123485
9400.000000;0.123117
9399.000000;0.122954
9398.000000;0.122907
9397.000000;0.122735
9396.000000;0.122258
9395.000000;0.121525
9394.000000;0.120773
9393.000000;0.120226
9392.000000;0.119925
9391.000000;0.119741
9390.000000;0.119513
9389.000000;0.119176
9388.000000;0.118751
9387.000000;0.118284
9386.000000;0.117832
9385.000000;0.117483
9384.000000;0.117308
9383.000000;0.117267
9382.000000;0.117210
9381.000000;0.117020
9380.000000;0.116727
9379.000000;0.116428
9378.000000;0.116160
9377.000000;0.115885
9376.000000;0.115591
9375.000000;0.115312
9374.000000;0.115058
9373.000000;0.114781
9372.000000;0.114438
9371.000000;0.114047
9370.000000;0.113653
9369.000000;0.113286
9368.000000;0.112949
9367.000000;0.112622
9366.000000;0.112274
9365.000000;0.111879
9364.000000;0.111449
9363.000000;0.111030
9362.000000;0.110647
9361.000000;0.110285
9360.000000;0.109911
9359.000000;0.109525
9358.000000;0.109153
9357.000000;0.108811
9356.000000;0.108501
9355.000000;0.108227
9354.000000;0.107993
9353.000000;0.107793
9352.000000;0.107598
9351.000000;0.107388
9350.000000;0.107184
9349.000000;0.107016
9348.000000;0.106864
9347.000000;0.106646
9346.000000;0.106307
9345.000000;0.105882
9344.000000;0.105457
9343.000000;0.105066
9342.000000;0.104678
9341.000000;0.104281
9340.000000;0.103907
9339.000000;0.103563
9338.000000;0.103210
9337.000000;0.102838
9336.000000;0.102519
9335.000000;0.102322
9334.000000;0.102213
9333.000000;0.102084
9332.000000;0.101870
9331.000000;0.101571
9330.000000;0.101195
9329.000000;0.100746
9328.000000;0.100262
9327.000000;0.099828
9326.000000;0.099500
9325.000000;0.099271
9324.000000;0.099101
9323.000000;0.098960
9322.000000;0.098815
9321.000000;0.098613
9320.000000;0.098310
9319.000000;0.097926
9318.000000;0.097547
9317.000000;0.097275
9316.000000;0.097134
9315.000000;0.097031
9314.000000;0.096821
9313.000000;0.096446
9312.000000;0.095990
9311.000000;0.095576
9310.000000;0.095232
9309.000000;0.094884
9308.000000;0.094478
9307.000000;0.094052
9306.000000;0.093666
9305.000000;0.093330
9304.000000;0.093013
9303.000000;0.092702
9302.000000;0.092408
9301.000000;0.092127
9300.000000;0.091843
9299.000000;0.091577
9298.000000;0.091369
9297.000000;0.091197
9296.000000;0.090955
9295.000000;0.090558
9294.000000;0.090075
9293.000000;0.089683
9292.000000;0.089470
9291.000000;0.089341
9290.000000;0.089138
9289.000000;0.088821
9288.000000;0.088475
9287.000000;0.088190
9286.000000;0.087991
9285.000000;0.087870
9284.000000;0.087782
9283.000000;0.087624
9282.000000;0.087293
9281.000000;0.086815
9280.000000;0.086346
9279.000000;0.086004
9278.000000;0.085740
9277.000000;0.085445
9276.000000;0.085114
9275.000000;0.084844
9274.000000;0.084682
9273.000000;0.084552
9272.000000;0.084351
9271.000000;0.084060
9270.000000;0.083740
9269.000000;0.083451
9268.000000;0.083192
9267.000000;0.082923
9266.000000;0.082610
9265.000000;0.082254
9264.000000;0.081886
9263.000000;0.081545
9262.000000;0.081264
9261.000000;0.081053
9260.000000;0.080859
9259.000000;0.080587
9258.000000;0.080189
9257.000000;0.079733
9256.000000;0.079320
9255.000000;0.078962
9254.000000;0.078586
9253.000000;0.078185
9252.000000;0.077870
9251.000000;0.077743
9250.000000;0.077759
9249.000000;0.077770
9248.000000;0.077652
9247.000000;0.077379
9246.000000;0.077011
9245.000000;0.076658
9244.000000;0.076402
9243.000000;0.076209
9242.000000;0.075958
9241.000000;0.075591
9240.000000;0.075202
9239.000000;0.074925
9238.000000;0.074795
9237.000000;0.074742
9236.000000;0.074686
9235.000000;0.074560
9234.000000;0.074305
9233.000000;0.073930
9232.000000;0.073539
9231.000000;0.073225
9230.000000;0.072957
9229.000000;0.072640
9228.000000;0.072260
9227.000000;0.071893
9226.000000;0.071584
9225.000000;0.071316
9224.000000;0.071077
9223.000000;0.070869
9222.000000;0.070632
9221.000000;0.070277
9220.000000;0.069820
9219.000000;0.069410
9218.000000;0.069183
9217.000000;0.069125
9216.000000;0.069135
9215.000000;0.069141
9214.000000;0.069103
9213.000000;0.068971
9212.000000;0.068702
9211.000000;0.068325
9210.000000;0.067931
9209.000000;0.067601
9208.000000;0.067349
9207.000000;0.067145
9206.000000;0.066949
9205.000000;0.066747
9204.000000;0.066561
9203.000000;0.066413
9202.000000;0.066274
9201.000000;0.066070
9200.000000;0.065771
9199.000000;0.065429
9198.000000;0.065127
9197.000000;0.064876
9196.000000;0.064598
9195.000000;0.064227
9194.000000;0.063804
9193.000000;0.063454
9192.000000;0.063272
9191.000000;0.063225
9190.000000;0.063183
9189.000000;0.063040
9188.000000;0.062774
9187.000000;0.062414
9186.000000;0.061986
9185.000000;0.061531
9184.000000;0.061131
9183.000000;0.060848
9182.000000;0.060650
9181.000000;0.060441
9180.000000;0.060169
9179.000000;0.059890
9178.000000;0.059693
9177.000000;0.059612
9176.000000;0.059595
9175.000000;0.059535
9174.000000;0.059345
9173.000000;0.059020
9172.000000;0.058646
9171.000000;0.058323
9170.000000;0.058079
9169.000000;0.057879
9168.000000;0.057691
9167.000000;0.057508
9166.000000;0.057309
9165.000000;0.057045
9164.000000;0.056700
9163.000000;0.056319
9162.000000;0.055976
9161.000000;0.055707
9160.000000;0.055495
9159.000000;0.055299
9158.000000;0.055077
9157.000000;0.054836
9156.000000;0.054640
9155.000000;0.054554
9154.000000;0.054559
9153.000000;0.054551
9152.000000;0.054450
9151.000000;0.054278
9150.000000;0.054102
9149.000000;0.053934
9148.000000;0.053706
9147.000000;0.053368
9146.000000;0.052951
9145.000000;0.052538
9144.000000;0.052170
9143.000000;0.051811
9142.000000;0.051415
9141.000000;0.051008
9140.000000;0.050673
9139.000000;0.050436
9138.000000;0.050224
9137.000000;0.049959
9136.000000;0.049682
9135.000000;0.049513
9134.000000;0.049491
9133.000000;0.049516
9132.000000;0.049460
9131.000000;0.049305
9130.000000;0.049119
9129.000000;0.048939
9128.000000;0.048731
9127.000000;0.048457
9126.000000;0.048126
9125.000000;0.047763
9124.000000;0.047374
9123.000000;0.046960
9122.000000;0.046563
9121.000000;0.046266
9120.000000;0.046122
9119.000000;0.046108
9118.000000;0.046130
9117.000000;0.046084
9116.000000;0.045906
9115.000000;0.045620
9114.000000;0.045325
9113.000000;0.045141
9112.000000;0.045100
9111.000000;0.045100
9110.000000;0.044964
9109.000000;0.044600
9108.000000;0.044081
9107.000000;0.043594
9106.000000;0.043291
9105.000000;0.043200
9104.000000;0.043234
9103.000000;0.043272
9102.000000;0.043239
9101.000000;0.043129
9100.000000;0.042964
9099.000000;0.042763
9098.000000;0.042552
9097.000000;0.042373
9096.000000;0.042241
9095.000000;0.042102
9094.000000;0.041864
9093.000000;0.041495
9092.000000;0.041059
9091.000000;0.040652
9090.000000;0.040345
9089.000000;0.040174
9088.000000;0.040131
9087.000000;0.040137
9086.000000;0.040074
9085.000000;0.039883
9084.000000;0.039597
9083.000000;0.039274
9082.000000;0.038936
9081.000000;0.038603
9080.000000;0.038329
9079.000000;0.038118
9078.000000;0.037876
9077.000000;0.037521
9076.000000;0.037139
9075.000000;0.036927
9074.000000;0.036965
9073.000000;0.037118
9072.000000;0.037177
9071.000000;0.037040
9070.000000;0.036743
9069.000000;0.036374
9068.000000;0.036009
9067.000000;0.035699
9066.000000;0.035454
9065.000000;0.035258
9064.000000;0.035102
9063.000000;0.034993
9062.000000;0.034931
9061.000000;0.034881
9060.000000;0.034802
9059.000000;0.034685
9058.000000;0.034549
9057.000000;0.034394
9056.000000;0.034187
9055.000000;0.033889
9054.000000;0.033507
9053.000000;0.033103
