Criado como novo conjunto de dados;"e2410_daniel_v2.spp","45544.4 Secs"
cm-1;Abs
10000.000000;0.785478
9999.000000;0.784279
9998.000000;0.783084
9997.000000;0.781892
9996.000000;0.780703
9995.000000;0.779518
9994.000000;0.778335
9993.000000;0.777157
9992.000000;0.775979
9991.000000;0.774812
9990.000000;0.773627
9989.000000;0.772596
9988.000000;0.772126
9987.000000;0.772194
9986.000000;0.772269
9985.000000;0.771932
9984.000000;0.771251
9983.000000;0.770570
9982.000000;0.770083
9981.000000;0.769688
9980.000000;0.769185
9979.000000;0.768564
9978.000000;0.768071
9977.000000;0.767943
9976.000000;0.768106
9975.000000;0.768234
9974.000000;0.768066
9973.000000;0.767522
9972.000000;0.766580
9971.000000;0.765296
9970.000000;0.763956
9969.000000;0.762944
9968.000000;0.762360
9967.000000;0.761983
9966.000000;0.761666
9965.000000;0.761524
9964.000000;0.761617
9963.000000;0.761698
9962.000000;0.761466
9961.000000;0.760886
9960.000000;0.760120
9959.000000;0.759297
9958.000000;0.758494
9957.000000;0.757774
9956.000000;0.757132
9955.000000;0.756504
9954.000000;0.755932
9953.000000;0.755551
9952.000000;0.755342
9951.000000;0.755085
9950.000000;0.754666
9949.000000;0.754232
9948.000000;0.753913
9947.000000;0.753594
9946.000000;0.753115
9945.000000;0.752508
9944.000000;0.751903
9943.000000;0.751321
9942.000000;0.750711
9941.000000;0.750057
9940.000000;0.749357
9939.000000;0.748624
9938.000000;0.747968
9937.000000;0.747536
9936.000000;0.747273
9935.000000;0.746923
9934.000000;0.746368
9933.000000;0.745780
9932.000000;0.745319
9931.000000;0.744877
9930.000000;0.744278
9929.000000;0.743566
9928.000000;0.742930
9927.000000;0.742474
9926.000000;0.742220
9925.000000;0.742191
9924.000000;0.742325
9923.000000;0.742369
9922.000000;0.742038
9921.000000;0.741238
9920.000000;0.740088
9919.000000;0.738826
9918.000000;0.737755
9917.000000;0.737141
9916.000000;0.736982
9915.000000;0.736957
9914.000000;0.736694
9913.000000;0.736076
9912.000000;0.735256
9911.000000;0.734458
9910.000000;0.733825
9909.000000;0.733369
9908.000000;0.732993
9907.000000;0.732621
9906.000000;0.732277
9905.000000;0.731972
9904.000000;0.731568
9903.000000;0.730915
9902.000000;0.730108
9901.000000;0.729427
9900.000000;0.728989
9899.000000;0.728648
9898.000000;0.728235
9897.000000;0.727736
9896.000000;0.727202
9895.000000;0.726663
9894.000000;0.726171
9893.000000;0.725742
9892.000000;0.725235
9891.000000;0.724476
9890.000000;0.723542
9889.000000;0.722732
9888.000000;0.722218
9887.000000;0.721899
9886.000000;0.721625
9885.000000;0.721367
9884.000000;0.721114
9883.000000;0.720815
9882.000000;0.720452
9881.000000;0.720019
9880.000000;0.719419
9879.000000;0.718573
9878.000000;0.717620
9877.000000;0.716802
9876.000000;0.716165
9875.000000;0.715616
9874.000000;0.715220
9873.000000;0.715125
9872.000000;0.715180
9871.000000;0.715022
9870.000000;0.714596
9869.000000;0.714216
9868.000000;0.713984
9867.000000;0.713550
9866.000000;0.712668
9865.000000;0.711648
9864.000000;0.710961
9863.000000;0.710644
9862.000000;0.710393
9861.000000;0.710051
9860.000000;0.709697
9859.000000;0.709369
9858.000000;0.708965
9857.000000;0.708395
9856.000000;0.707677
9855.000000;0.706915
9854.000000;0.706240
9853.000000;0.705702
9852.000000;0.705158
9851.000000;0.704422
9850.000000;0.703550
9849.000000;0.702821
9848.000000;0.702373
9847.000000;0.702057
9846.000000;0.701743
9845.000000;0.701508
9844.000000;0.701413
9843.000000;0.701293
9842.000000;0.700951
9841.000000;0.700415
9840.000000;0.699838
9839.000000;0.699291
9838.000000;0.698781
9837.000000;0.698315
9836.000000;0.697831
9835.000000;0.697232
9834.000000;0.696557
9833.000000;0.695992
9832.000000;0.695585
9831.000000;0.695151
9830.000000;0.694553
9829.000000;0.693914
9828.000000;0.693386
9827.000000;0.692882
9826.000000;0.692232
9825.000000;0.691500
9824.000000;0.690965
9823.000000;0.690831
9822.000000;0.691015
9821.000000;0.691192
9820.000000;0.691017
9819.000000;0.690396
9818.000000;0.689584
9817.000000;0.688929
9816.000000;0.688539
9815.000000;0.688276
9814.000000;0.688027
9813.000000;0.687771
9812.000000;0.687438
9811.000000;0.686933
9810.000000;0.686320
9809.000000;0.685749
9808.000000;0.685191
9807.000000;0.684478
9806.000000;0.683638
9805.000000;0.682918
9804.000000;0.682427
9803.000000;0.681997
9802.000000;0.681481
9801.000000;0.680916
9800.000000;0.680326
9799.000000;0.679629
9798.000000;0.678846
9797.000000;0.678157
9796.000000;0.677646
9795.000000;0.677203
9794.000000;0.676768
9793.000000;0.676432
9792.000000;0.676206
9791.000000;0.675953
9790.000000;0.675630
9789.000000;0.675340
9788.000000;0.675058
9787.000000;0.674587
9786.000000;0.673906
9785.000000;0.673291
9784.000000;0.672946
9783.000000;0.672799
9782.000000;0.672753
9781.000000;0.672839
9780.000000;0.672926
9779.000000;0.672647
9778.000000;0.671844
9777.000000;0.670827
9776.000000;0.669968
9775.000000;0.669286
9774.000000;0.668654
9773.000000;0.668119
9772.000000;0.667748
9771.000000;0.667390
9770.000000;0.666901
9769.000000;0.666409
9768.000000;0.666070
9767.000000;0.665712
9766.000000;0.665038
9765.000000;0.664080
9764.000000;0.663182
9763.000000;0.662606
9762.000000;0.662348
9761.000000;0.662239
9760.000000;0.662042
9759.000000;0.661555
9758.000000;0.660823
9757.000000;0.660135
9756.000000;0.659651
9755.000000;0.659167
9754.000000;0.658454
9753.000000;0.657681
9752.000000;0.657248
9751.000000;0.657254
9750.000000;0.657366
9749.000000;0.657203
9748.000000;0.656676
9747.000000;0.655965
9746.000000;0.655308
9745.000000;0.654800
9744.000000;0.654323
9743.000000;0.653687
9742.000000;0.652883
9741.000000;0.652112
9740.000000;0.651511
9739.000000;0.651028
9738.000000;0.650609
9737.000000;0.650349
9736.000000;0.650305
9735.000000;0.650324
9734.000000;0.650194
9733.000000;0.649851
9732.000000;0.649342
9731.000000;0.648713
9730.000000;0.648053
9729.000000;0.647493
9728.000000;0.647029
9727.000000;0.646494
9726.000000;0.645803
9725.000000;0.645098
9724.000000;0.644514
9723.000000;0.643968
9722.000000;0.643336
9721.000000;0.642678
9720.000000;0.642120
9719.000000;0.641635
9718.000000;0.641114
9717.000000;0.640561
9716.000000;0.640061
9715.000000;0.639641
9714.000000;0.639275
9713.000000;0.638970
9712.000000;0.638725
9711.000000;0.638521
9710.000000;0.638387
9709.000000;0.638345
9708.000000;0.638239
9707.000000;0.637818
9706.000000;0.637102
9705.000000;0.636454
9704.000000;0.636115
9703.000000;0.635874
9702.000000;0.635386
9701.000000;0.634638
9700.000000;0.633908
9699.000000;0.633368
9698.000000;0.632973
9697.000000;0.632620
9696.000000;0.632217
9695.000000;0.631659
9694.000000;0.630948
9693.000000;0.630258
9692.000000;0.629772
9691.000000;0.629491
9690.000000;0.629318
9689.000000;0.629200
9688.000000;0.629054
9687.000000;0.628703
9686.000000;0.628080
9685.000000;0.627382
9684.000000;0.626829
9683.000000;0.626375
9682.000000;0.625837
9681.000000;0.625204
9680.000000;0.624618
9679.000000;0.624131
9678.000000;0.623694
9677.000000;0.623328
9676.000000;0.623075
9675.000000;0.622812
9674.000000;0.622352
9673.000000;0.621725
9672.000000;0.621171
9671.000000;0.620811
9670.000000;0.620503
9669.000000;0.620058
9668.000000;0.619464
9667.000000;0.618815
9666.000000;0.618176
9665.000000;0.617562
9664.000000;0.616991
9663.000000;0.616464
9662.000000;0.615955
9661.000000;0.615470
9660.000000;0.615086
9659.000000;0.614878
9658.000000;0.614796
9657.000000;0.614654
9656.000000;0.614278
9655.000000;0.613689
9654.000000;0.613100
9653.000000;0.612680
9652.000000;0.612352
9651.000000;0.611906
9650.000000;0.611270
9649.000000;0.610591
9648.000000;0.610046
9647.000000;0.609678
9646.000000;0.609420
9645.000000;0.609184
9644.000000;0.608900
9643.000000;0.608562
9642.000000;0.608253
9641.000000;0.608054
9640.000000;0.607901
9639.000000;0.607622
9638.000000;0.607130
9637.000000;0.606508
9636.000000;0.605889
9635.000000;0.605354
9634.000000;0.604908
9633.000000;0.604509
9632.000000;0.604103
9631.000000;0.603681
9630.000000;0.603273
9629.000000;0.602828
9628.000000;0.602215
9627.000000;0.601473
9626.000000;0.600894
9625.000000;0.600688
9624.000000;0.600668
9623.000000;0.600488
9622.000000;0.600121
9621.000000;0.599823
9620.000000;0.599656
9619.000000;0.599370
9618.000000;0.598808
9617.000000;0.598121
9616.000000;0.597501
9615.000000;0.596945
9614.000000;0.596389
9613.000000;0.595844
9612.000000;0.595283
9611.000000;0.594603
9610.000000;0.593834
9609.000000;0.593200
9608.000000;0.592853
9607.000000;0.592682
9606.000000;0.592481
9605.000000;0.592153
9604.000000;0.591688
9603.000000;0.591117
9602.000000;0.590587
9601.000000;0.590311
9600.000000;0.590338
9599.000000;0.590480
9598.000000;0.590540
9597.000000;0.590454
9596.000000;0.590167
9595.000000;0.589571
9594.000000;0.588691
9593.000000;0.587753
9592.000000;0.586954
9591.000000;0.586289
9590.000000;0.585698
9589.000000;0.585229
9588.000000;0.584943
9587.000000;0.584776
9586.000000;0.584590
9585.000000;0.584272
9584.000000;0.583756
9583.000000;0.583064
9582.000000;0.582359
9581.000000;0.581830
9580.000000;0.581499
9579.000000;0.581274
9578.000000;0.581151
9577.000000;0.581172
9576.000000;0.581188
9575.000000;0.580945
9574.000000;0.580419
9573.000000;0.579833
9572.000000;0.579287
9571.000000;0.578666
9570.000000;0.577986
9569.000000;0.577514
9568.000000;0.577400
9567.000000;0.577427
9566.000000;0.577294
9565.000000;0.576934
9564.000000;0.576398
9563.000000;0.575680
9562.000000;0.574846
9561.000000;0.574124
9560.000000;0.573675
9559.000000;0.573396
9558.000000;0.573119
9557.000000;0.572831
9556.000000;0.572555
9555.000000;0.572188
9554.000000;0.571650
9553.000000;0.571047
9552.000000;0.570533
9551.000000;0.570131
9550.000000;0.569820
9549.000000;0.569608
9548.000000;0.569378
9547.000000;0.568870
9546.000000;0.568025
9545.000000;0.567183
9544.000000;0.566711
9543.000000;0.566595
9542.000000;0.566563
9541.000000;0.566488
9540.000000;0.566404
9539.000000;0.566236
9538.000000;0.565797
9537.000000;0.565055
9536.000000;0.564227
9535.000000;0.563568
9534.000000;0.563179
9533.000000;0.562994
9532.000000;0.562853
9531.000000;0.562624
9530.000000;0.562285
9529.000000;0.561886
9528.000000;0.561412
9527.000000;0.560818
9526.000000;0.560191
9525.000000;0.559730
9524.000000;0.559497
9523.000000;0.559355
9522.000000;0.559187
9521.000000;0.559000
9520.000000;0.558756
9519.000000;0.558326
9518.000000;0.557726
9517.000000;0.557179
9516.000000;0.556773
9515.000000;0.556303
9514.000000;0.555620
9513.000000;0.554936
9512.000000;0.554541
9511.000000;0.554373
9510.000000;0.554136
9509.000000;0.553718
9508.000000;0.553259
9507.000000;0.552860
9506.000000;0.552477
9505.000000;0.552081
9504.000000;0.551704
9503.000000;0.551317
9502.000000;0.550821
9501.000000;0.550195
9500.000000;0.549547
9499.000000;0.549023
9498.000000;0.548718
9497.000000;0.548618
9496.000000;0.548574
9495.000000;0.548387
9494.000000;0.548007
9493.000000;0.547581
9492.000000;0.547224
9491.000000;0.546851
9490.000000;0.546344
9489.000000;0.545778
9488.000000;0.545354
9487.000000;0.545158
9486.000000;0.545088
9485.000000;0.544968
9484.000000;0.544668
9483.000000;0.544174
9482.000000;0.543621
9481.000000;0.543153
9480.000000;0.542739
9479.000000;0.542219
9478.000000;0.541585
9477.000000;0.541051
9476.000000;0.540742
9475.000000;0.540499
9474.000000;0.540115
9473.000000;0.539628
9472.000000;0.539213
9471.000000;0.538908
9470.000000;0.538604
9469.000000;0.538250
9468.000000;0.537876
9467.000000;0.537487
9466.000000;0.537056
9465.000000;0.536589
9464.000000;0.536099
9463.000000;0.535587
9462.000000;0.535118
9461.000000;0.534833
9460.000000;0.534764
9459.000000;0.534731
9458.000000;0.534552
9457.000000;0.534273
9456.000000;0.534070
9455.000000;0.533976
9454.000000;0.533835
9453.000000;0.533468
9452.000000;0.532808
9451.000000;0.531933
9450.000000;0.531082
9449.000000;0.530549
9448.000000;0.530404
9447.000000;0.530371
9446.000000;0.530090
9445.000000;0.529496
9444.000000;0.528844
9443.000000;0.528416
9442.000000;0.528294
9441.000000;0.528356
9440.000000;0.528388
9439.000000;0.528222
9438.000000;0.527860
9437.000000;0.527440
9436.000000;0.527029
9435.000000;0.526526
9434.000000;0.525853
9433.000000;0.525145
9432.000000;0.524644
9431.000000;0.524435
9430.000000;0.524387
9429.000000;0.524308
9428.000000;0.524072
9427.000000;0.523645
9426.000000;0.523089
9425.000000;0.522539
9424.000000;0.522097
9423.000000;0.521755
9422.000000;0.521439
9421.000000;0.521091
9420.000000;0.520696
9419.000000;0.520297
9418.000000;0.519996
9417.000000;0.519865
9416.000000;0.519801
9415.000000;0.519599
9414.000000;0.519185
9413.000000;0.518701
9412.000000;0.518278
9411.000000;0.517861
9410.000000;0.517340
9409.000000;0.516749
9408.000000;0.516219
9407.000000;0.515806
9406.000000;0.515455
9405.000000;0.515110
9404.000000;0.514753
9403.000000;0.514417
9402.000000;0.514188
9401.000000;0.514145
9400.000000;0.514206
9399.000000;0.514113
9398.000000;0.513667
9397.000000;0.512960
9396.000000;0.512290
9395.000000;0.511884
9394.000000;0.511739
9393.000000;0.511673
9392.000000;0.511492
9391.000000;0.511137
9390.000000;0.510721
9389.000000;0.510378
9388.000000;0.510071
9387.000000;0.509637
9386.000000;0.509028
9385.000000;0.508391
9384.000000;0.507875
9383.000000;0.507456
9382.000000;0.507026
9381.000000;0.506553
9380.000000;0.506091
9379.000000;0.505691
9378.000000;0.505395
9377.000000;0.505228
9376.000000;0.505145
9375.000000;0.505011
9374.000000;0.504727
9373.000000;0.504320
9372.000000;0.503889
9371.000000;0.503525
9370.000000;0.503289
9369.000000;0.503187
9368.000000;0.503110
9367.000000;0.502909
9366.000000;0.502556
9365.000000;0.502170
9364.000000;0.501819
9363.000000;0.501430
9362.000000;0.500940
9361.000000;0.500437
9360.000000;0.500058
9359.000000;0.499805
9358.000000;0.499560
9357.000000;0.499234
9356.000000;0.498848
9355.000000;0.498492
9354.000000;0.498263
9353.000000;0.498186
9352.000000;0.498150
9351.000000;0.497982
9350.000000;0.497623
9349.000000;0.497184
9348.000000;0.496817
9347.000000;0.496570
9346.000000;0.496392
9345.000000;0.496211
9344.000000;0.495961
9343.000000;0.495584
9342.000000;0.495047
9341.000000;0.494351
9340.000000;0.493567
9339.000000;0.492880
9338.000000;0.492525
9337.000000;0.492564
9336.000000;0.492751
9335.000000;0.492734
9334.000000;0.492396
9333.000000;0.491907
9332.000000;0.491463
9331.000000;0.491106
9330.000000;0.490784
9329.000000;0.490435
9328.000000;0.489975
9327.000000;0.489360
9326.000000;0.488695
9325.000000;0.488168
9324.000000;0.487854
9323.000000;0.487680
9322.000000;0.487615
9321.000000;0.487708
9320.000000;0.487904
9319.000000;0.487958
9318.000000;0.487658
9317.000000;0.487056
9316.000000;0.486420
9315.000000;0.485982
9314.000000;0.485772
9313.000000;0.485612
9312.000000;0.485279
9311.000000;0.484738
9310.000000;0.484217
9309.000000;0.483941
9308.000000;0.483857
9307.000000;0.483733
9306.000000;0.483483
9305.000000;0.483213
9304.000000;0.482948
9303.000000;0.482546
9302.000000;0.481946
9301.000000;0.481323
9300.000000;0.480906
9299.000000;0.480751
9298.000000;0.480754
9297.000000;0.480744
9296.000000;0.480539
9295.000000;0.480069
9294.000000;0.479509
9293.000000;0.479132
9292.000000;0.478980
9291.000000;0.478817
9290.000000;0.478481
9289.000000;0.478113
9288.000000;0.477920
9287.000000;0.477884
9286.000000;0.477827
9285.000000;0.477640
9284.000000;0.477348
9283.000000;0.477018
9282.000000;0.476719
9281.000000;0.476480
9280.000000;0.476233
9279.000000;0.475862
9278.000000;0.475359
9277.000000;0.474844
9276.000000;0.474413
9275.000000;0.474070
9274.000000;0.473817
9273.000000;0.473669
9272.000000;0.473528
9271.000000;0.473224
9270.000000;0.472749
9269.000000;0.472301
9268.000000;0.471998
9267.000000;0.471722
9266.000000;0.471337
9265.000000;0.470917
9264.000000;0.470628
9263.000000;0.470497
9262.000000;0.470400
9261.000000;0.470212
9260.000000;0.469867
9259.000000;0.469394
9258.000000;0.468963
9257.000000;0.468801
9256.000000;0.468939
9255.000000;0.469124
9254.000000;0.469062
9253.000000;0.468689
9252.000000;0.468137
9251.000000;0.467575
9250.000000;0.467136
9249.000000;0.466877
9248.000000;0.466691
9247.000000;0.466386
9246.000000;0.465939
9245.000000;0.465561
9244.000000;0.465411
9243.000000;0.465351
9242.000000;0.465131
9241.000000;0.464718
9240.000000;0.464302
9239.000000;0.464030
9238.000000;0.463877
9237.000000;0.463736
9236.000000;0.463536
9235.000000;0.463255
9234.000000;0.462908
9233.000000;0.462521
9232.000000;0.462112
9231.000000;0.461707
9230.000000;0.461392
9229.000000;0.461247
9228.000000;0.461214
9227.000000;0.461110
9226.000000;0.460807
9225.000000;0.460339
9224.000000;0.459808
9223.000000;0.459295
9222.000000;0.458888
9221.000000;0.458666
9220.000000;0.458593
9219.000000;0.458536
9218.000000;0.458431
9217.000000;0.458338
9216.000000;0.458259
9215.000000;0.458060
9214.000000;0.457645
9213.000000;0.457107
9212.000000;0.456601
9211.000000;0.456181
9210.000000;0.455840
9209.000000;0.455607
9208.000000;0.455475
9207.000000;0.455321
9206.000000;0.455019
9205.000000;0.454614
9204.000000;0.454282
9203.000000;0.454128
9202.000000;0.454091
9201.000000;0.454013
9200.000000;0.453794
9199.000000;0.453465
9198.000000;0.453147
9197.000000;0.452889
9196.000000;0.452595
9195.000000;0.452172
9194.000000;0.451712
9193.000000;0.451410
9192.000000;0.451305
9191.000000;0.451223
9190.000000;0.451006
9189.000000;0.450651
9188.000000;0.450225
9187.000000;0.449778
9186.000000;0.449396
9185.000000;0.449196
9184.000000;0.449205
9183.000000;0.449335
9182.000000;0.449514
9181.000000;0.449710
9180.000000;0.449797
9179.000000;0.449571
9178.000000;0.448990
9177.000000;0.448283
9176.000000;0.447711
9175.000000;0.447331
9174.000000;0.447074
9173.000000;0.446905
9172.000000;0.446804
9171.000000;0.446683
9170.000000;0.446460
9169.000000;0.446153
9168.000000;0.445824
9167.000000;0.445484
9166.000000;0.445109
9165.000000;0.444703
9164.000000;0.444290
9163.000000;0.443905
9162.000000;0.443629
9161.000000;0.443525
9160.000000;0.443507
9159.000000;0.443371
9158.000000;0.443040
9157.000000;0.442670
9156.000000;0.442472
9155.000000;0.442483
9154.000000;0.442557
9153.000000;0.442488
9152.000000;0.442123
9151.000000;0.441466
9150.000000;0.440740
9149.000000;0.440241
9148.000000;0.440076
9147.000000;0.440114
9146.000000;0.440193
9145.000000;0.440256
9144.000000;0.440255
9143.000000;0.440077
9142.000000;0.439682
9141.000000;0.439196
9140.000000;0.438783
9139.000000;0.438490
9138.000000;0.438280
9137.000000;0.438118
9136.000000;0.437950
9135.000000;0.437707
9134.000000;0.437384
9133.000000;0.437053
9132.000000;0.436756
9131.000000;0.436483
9130.000000;0.436266
9129.000000;0.436181
9128.000000;0.436195
9127.000000;0.436157
9126.000000;0.435974
9125.000000;0.435703
9124.000000;0.435415
9123.000000;0.435106
9122.000000;0.434810
9121.000000;0.434623
9120.000000;0.434544
9119.000000;0.434432
9118.000000;0.434210
9117.000000;0.433975
9116.000000;0.433812
9115.000000;0.433628
9114.000000;0.433293
9113.000000;0.432847
9112.000000;0.432438
9111.000000;0.432148
9110.000000;0.431995
9109.000000;0.431988
9108.000000;0.432077
9107.000000;0.432095
9106.000000;0.431872
9105.000000;0.431392
9104.000000;0.430768
9103.000000;0.430155
9102.000000;0.429705
9101.000000;0.429511
9100.000000;0.429499
9099.000000;0.429473
9098.000000;0.429343
9097.000000;0.429205
9096.000000;0.429160
9095.000000;0.429154
9094.000000;0.429089
9093.000000;0.428955
9092.000000;0.428767
9091.000000;0.428483
9090.000000;0.428094
9089.000000;0.427696
9088.000000;0.427351
9087.000000;0.426991
9086.000000;0.426579
9085.000000;0.426259
9084.000000;0.426209
9083.000000;0.426393
9082.000000;0.426583
9081.000000;0.426587
9080.000000;0.426368
9079.000000;0.425989
9078.000000;0.425542
9077.000000;0.425129
9076.000000;0.424796
9075.000000;0.424508
9074.000000;0.424235
9073.000000;0.424015
9072.000000;0.423894
9071.000000;0.423858
9070.000000;0.423868
9069.000000;0.423883
9068.000000;0.423825
9067.000000;0.423611
9066.000000;0.423289
9065.000000;0.423044
9064.000000;0.422989
9063.000000;0.423032
9062.000000;0.423018
9061.000000;0.422893
9060.000000;0.422649
9059.000000;0.422238
9058.000000;0.421656
9057.000000;0.421059
9056.000000;0.420640
9055.000000;0.420442
9054.000000;0.420386
9053.000000;0.420405
