Criado como novo conjunto de dados;"e2410_daniel_v2.spp","10442.1 Secs"
cm-1;Abs
10000.000000;0.344337
9999.000000;0.343741
9998.000000;0.343148
9997.000000;0.342553
9996.000000;0.341964
9995.000000;0.341364
9994.000000;0.340798
9993.000000;0.340340
9992.000000;0.339933
9991.000000;0.339579
9990.000000;0.339232
9989.000000;0.338828
9988.000000;0.338334
9987.000000;0.337774
9986.000000;0.337195
9985.000000;0.336652
9984.000000;0.336170
9983.000000;0.335701
9982.000000;0.335147
9981.000000;0.334487
9980.000000;0.333862
9979.000000;0.333446
9978.000000;0.333235
9977.000000;0.333040
9976.000000;0.332707
9975.000000;0.332263
9974.000000;0.331786
9973.000000;0.331250
9972.000000;0.330604
9971.000000;0.329933
9970.000000;0.329399
9969.000000;0.329025
9968.000000;0.328647
9967.000000;0.328128
9966.000000;0.327508
9965.000000;0.326882
9964.000000;0.326246
9963.000000;0.325555
9962.000000;0.324862
9961.000000;0.324296
9960.000000;0.323898
9959.000000;0.323586
9958.000000;0.323279
9957.000000;0.322988
9956.000000;0.322745
9955.000000;0.322500
9954.000000;0.322135
9953.000000;0.321572
9952.000000;0.320849
9951.000000;0.320097
9950.000000;0.319450
9949.000000;0.318964
9948.000000;0.318588
9947.000000;0.318199
9946.000000;0.317691
9945.000000;0.317040
9944.000000;0.316344
9943.000000;0.315762
9942.000000;0.315399
9941.000000;0.315187
9940.000000;0.314929
9939.000000;0.314470
9938.000000;0.313836
9937.000000;0.313168
9936.000000;0.312562
9935.000000;0.312023
9934.000000;0.311546
9933.000000;0.311165
9932.000000;0.310886
9931.000000;0.310621
9930.000000;0.310255
9929.000000;0.309770
9928.000000;0.309282
9927.000000;0.308929
9926.000000;0.308738
9925.000000;0.308581
9924.000000;0.308286
9923.000000;0.307776
9922.000000;0.307125
9921.000000;0.306453
9920.000000;0.305788
9919.000000;0.305067
9918.000000;0.304284
9917.000000;0.303568
9916.000000;0.303076
9915.000000;0.302808
9914.000000;0.302584
9913.000000;0.302206
9912.000000;0.301622
9911.000000;0.300931
9910.000000;0.300270
9909.000000;0.299740
9908.000000;0.299363
9907.000000;0.299059
9906.000000;0.298655
9905.000000;0.298002
9904.000000;0.297134
9903.000000;0.296276
9902.000000;0.295649
9901.000000;0.295281
9900.000000;0.295022
9899.000000;0.294718
9898.000000;0.294345
9897.000000;0.293966
9896.000000;0.293632
9895.000000;0.293324
9894.000000;0.292982
9893.000000;0.292549
9892.000000;0.291999
9891.000000;0.291335
9890.000000;0.290604
9889.000000;0.289910
9888.000000;0.289395
9887.000000;0.289129
9886.000000;0.289014
9885.000000;0.288849
9884.000000;0.288520
9883.000000;0.288082
9882.000000;0.287622
9881.000000;0.287107
9880.000000;0.286472
9879.000000;0.285792
9878.000000;0.285243
9877.000000;0.284886
9876.000000;0.284589
9875.000000;0.284217
9874.000000;0.283775
9873.000000;0.283341
9872.000000;0.282936
9871.000000;0.282524
9870.000000;0.282082
9869.000000;0.281604
9868.000000;0.281071
9867.000000;0.280501
9866.000000;0.279968
9865.000000;0.279503
9864.000000;0.279031
9863.000000;0.278498
9862.000000;0.277997
9861.000000;0.277668
9860.000000;0.277472
9859.000000;0.277168
9858.000000;0.276573
9857.000000;0.275765
9856.000000;0.274993
9855.000000;0.274418
9854.000000;0.274006
9853.000000;0.273615
9852.000000;0.273169
9851.000000;0.272700
9850.000000;0.272273
9849.000000;0.271886
9848.000000;0.271481
9847.000000;0.271026
9846.000000;0.270552
9845.000000;0.270095
9844.000000;0.269657
9843.000000;0.269249
9842.000000;0.268896
9841.000000;0.268571
9840.000000;0.268165
9839.000000;0.267610
9838.000000;0.266983
9837.000000;0.266424
9836.000000;0.265959
9835.000000;0.265498
9834.000000;0.264994
9833.000000;0.264521
9832.000000;0.264152
9831.000000;0.263840
9830.000000;0.263463
9829.000000;0.262942
9828.000000;0.262277
9827.000000;0.261506
9826.000000;0.260706
9825.000000;0.260003
9824.000000;0.259538
9823.000000;0.259359
9822.000000;0.259370
9821.000000;0.259386
9820.000000;0.259248
9819.000000;0.258902
9818.000000;0.258372
9817.000000;0.257702
9816.000000;0.256939
9815.000000;0.256155
9814.000000;0.255462
9813.000000;0.254940
9812.000000;0.254569
9811.000000;0.254225
9810.000000;0.253783
9809.000000;0.253231
9808.000000;0.252705
9807.000000;0.252365
9806.000000;0.252228
9805.000000;0.252123
9804.000000;0.251869
9803.000000;0.251458
9802.000000;0.251014
9801.000000;0.250594
9800.000000;0.250132
9799.000000;0.249576
9798.000000;0.248994
9797.000000;0.248484
9796.000000;0.248047
9795.000000;0.247612
9794.000000;0.247114
9793.000000;0.246506
9792.000000;0.245773
9791.000000;0.244994
9790.000000;0.244328
9789.000000;0.243855
9788.000000;0.243471
9787.000000;0.243038
9786.000000;0.242556
9785.000000;0.242125
9784.000000;0.241767
9783.000000;0.241406
9782.000000;0.240991
9781.000000;0.240529
9780.000000;0.240016
9779.000000;0.239455
9778.000000;0.238943
9777.000000;0.238615
9776.000000;0.238449
9775.000000;0.238244
9774.000000;0.237827
9773.000000;0.237238
9772.000000;0.236665
9771.000000;0.236253
9770.000000;0.236004
9769.000000;0.235793
9768.000000;0.235475
9767.000000;0.234991
9766.000000;0.234412
9765.000000;0.233833
9764.000000;0.233274
9763.000000;0.232724
9762.000000;0.232243
9761.000000;0.231908
9760.000000;0.231671
9759.000000;0.231387
9758.000000;0.230998
9757.000000;0.230602
9756.000000;0.230274
9755.000000;0.229941
9754.000000;0.229469
9753.000000;0.228812
9752.000000;0.228035
9751.000000;0.227261
9750.000000;0.226619
9749.000000;0.226167
9748.000000;0.225798
9747.000000;0.225328
9746.000000;0.224713
9745.000000;0.224123
9744.000000;0.223725
9743.000000;0.223479
9742.000000;0.223201
9741.000000;0.222773
9740.000000;0.222219
9739.000000;0.221623
9738.000000;0.221073
9737.000000;0.220659
9736.000000;0.220413
9735.000000;0.220251
9734.000000;0.220022
9733.000000;0.219623
9732.000000;0.219071
9731.000000;0.218491
9730.000000;0.218050
9729.000000;0.217833
9728.000000;0.217741
9727.000000;0.217543
9726.000000;0.217091
9725.000000;0.216465
9724.000000;0.215869
9723.000000;0.215427
9722.000000;0.215103
9721.000000;0.214782
9720.000000;0.214358
9719.000000;0.213777
9718.000000;0.213078
9717.000000;0.212372
9716.000000;0.211758
9715.000000;0.211254
9714.000000;0.210832
9713.000000;0.210479
9712.000000;0.210191
9711.000000;0.209941
9710.000000;0.209691
9709.000000;0.209397
9708.000000;0.208995
9707.000000;0.208435
9706.000000;0.207785
9705.000000;0.207240
9704.000000;0.206922
9703.000000;0.206717
9702.000000;0.206386
9701.000000;0.205820
9700.000000;0.205133
9699.000000;0.204510
9698.000000;0.204059
9697.000000;0.203788
9696.000000;0.203625
9695.000000;0.203433
9694.000000;0.203078
9693.000000;0.202546
9692.000000;0.201945
9691.000000;0.201396
9690.000000;0.200931
9689.000000;0.200524
9688.000000;0.200141
9687.000000;0.199753
9686.000000;0.199317
9685.000000;0.198818
9684.000000;0.198306
9683.000000;0.197866
9682.000000;0.197529
9681.000000;0.197236
9680.000000;0.196884
9679.000000;0.196443
9678.000000;0.195997
9677.000000;0.195654
9676.000000;0.195407
9675.000000;0.195119
9674.000000;0.194668
9673.000000;0.194075
9672.000000;0.193466
9671.000000;0.192943
9670.000000;0.192550
9669.000000;0.192291
9668.000000;0.192116
9667.000000;0.191891
9666.000000;0.191468
9665.000000;0.190829
9664.000000;0.190113
9663.000000;0.189500
9662.000000;0.189071
9661.000000;0.188781
9660.000000;0.188511
9659.000000;0.188149
9658.000000;0.187680
9657.000000;0.187200
9656.000000;0.186821
9655.000000;0.186543
9654.000000;0.186252
9653.000000;0.185858
9652.000000;0.185400
9651.000000;0.184980
9650.000000;0.184624
9649.000000;0.184237
9648.000000;0.183713
9647.000000;0.183046
9646.000000;0.182353
9645.000000;0.181764
9644.000000;0.181306
9643.000000;0.180908
9642.000000;0.180504
9641.000000;0.180107
9640.000000;0.179763
9639.000000;0.179468
9638.000000;0.179171
9637.000000;0.178845
9636.000000;0.178515
9635.000000;0.178186
9634.000000;0.177798
9633.000000;0.177277
9632.000000;0.176623
9631.000000;0.175947
9630.000000;0.175417
9629.000000;0.175143
9628.000000;0.175070
9627.000000;0.175004
9626.000000;0.174764
9625.000000;0.174338
9624.000000;0.173879
9623.000000;0.173529
9622.000000;0.173281
9621.000000;0.173015
9620.000000;0.172645
9619.000000;0.172190
9618.000000;0.171713
9617.000000;0.171218
9616.000000;0.170644
9615.000000;0.169957
9614.000000;0.169226
9613.000000;0.168585
9612.000000;0.168115
9611.000000;0.167791
9610.000000;0.167543
9609.000000;0.167335
9608.000000;0.167182
9607.000000;0.167089
9606.000000;0.167004
9605.000000;0.166826
9604.000000;0.166461
9603.000000;0.165909
9602.000000;0.165309
9601.000000;0.164847
9600.000000;0.164576
9599.000000;0.164335
9598.000000;0.163903
9597.000000;0.163240
9596.000000;0.162543
9595.000000;0.162054
9594.000000;0.161841
9593.000000;0.161751
9592.000000;0.161558
9591.000000;0.161131
9590.000000;0.160511
9589.000000;0.159851
9588.000000;0.159280
9587.000000;0.158808
9586.000000;0.158362
9585.000000;0.157894
9584.000000;0.157451
9583.000000;0.157113
9582.000000;0.156891
9581.000000;0.156701
9580.000000;0.156425
9579.000000;0.156008
9578.000000;0.155492
9577.000000;0.154966
9576.000000;0.154481
9575.000000;0.154027
9574.000000;0.153583
9573.000000;0.153169
9572.000000;0.152828
9571.000000;0.152548
9570.000000;0.152254
9569.000000;0.151877
9568.000000;0.151432
9567.000000;0.151006
9566.000000;0.150676
9565.000000;0.150434
9564.000000;0.150192
9563.000000;0.149859
9562.000000;0.149429
9561.000000;0.148993
9560.000000;0.148648
9559.000000;0.148387
9558.000000;0.148085
9557.000000;0.147618
9556.000000;0.146985
9555.000000;0.146332
9554.000000;0.145830
9553.000000;0.145538
9552.000000;0.145379
9551.000000;0.145224
9550.000000;0.145005
9549.000000;0.144723
9548.000000;0.144390
9547.000000;0.143984
9546.000000;0.143471
9545.000000;0.142863
9544.000000;0.142233
9543.000000;0.141669
9542.000000;0.141223
9541.000000;0.140888
9540.000000;0.140626
9539.000000;0.140382
9538.000000;0.140089
9537.000000;0.139675
9536.000000;0.139126
9535.000000;0.138540
9534.000000;0.138072
9533.000000;0.137783
9532.000000;0.137562
9531.000000;0.137259
9530.000000;0.136870
9529.000000;0.136544
9528.000000;0.136384
9527.000000;0.136307
9526.000000;0.136142
9525.000000;0.135806
9524.000000;0.135358
9523.000000;0.134894
9522.000000;0.134459
9521.000000;0.134042
9520.000000;0.133617
9519.000000;0.133181
9518.000000;0.132773
9517.000000;0.132432
9516.000000;0.132128
9515.000000;0.131757
9514.000000;0.131263
9513.000000;0.130732
9512.000000;0.130305
9511.000000;0.130014
9510.000000;0.129743
9509.000000;0.129380
9508.000000;0.128961
9507.000000;0.128614
9506.000000;0.128420
9505.000000;0.128332
9504.000000;0.128215
9503.000000;0.127940
9502.000000;0.127476
9501.000000;0.126920
9500.000000;0.126429
9499.000000;0.126067
9498.000000;0.125746
9497.000000;0.125338
9496.000000;0.124831
9495.000000;0.124321
9494.000000;0.123868
9493.000000;0.123434
9492.000000;0.122980
9491.000000;0.122567
9490.000000;0.122292
9489.000000;0.122145
9488.000000;0.121999
9487.000000;0.121731
9486.000000;0.121316
9485.000000;0.120809
9484.000000;0.120292
9483.000000;0.119851
9482.000000;0.119536
9481.000000;0.119301
9480.000000;0.119020
9479.000000;0.118628
9478.000000;0.118204
9477.000000;0.117865
9476.000000;0.117613
9475.000000;0.117337
9474.000000;0.116966
9473.000000;0.116546
9472.000000;0.116151
9471.000000;0.115799
9470.000000;0.115488
9469.000000;0.115232
9468.000000;0.115019
9467.000000;0.114778
9466.000000;0.114438
9465.000000;0.114013
9464.000000;0.113572
9463.000000;0.113165
9462.000000;0.112790
9461.000000;0.112433
9460.000000;0.112091
9459.000000;0.111756
9458.000000;0.111425
9457.000000;0.111107
9456.000000;0.110783
9455.000000;0.110405
9454.000000;0.109952
9453.000000;0.109503
9452.000000;0.109176
9451.000000;0.108997
9450.000000;0.108856
9449.000000;0.108619
9448.000000;0.108248
9447.000000;0.107797
9446.000000;0.107338
9445.000000;0.106913
9444.000000;0.106541
9443.000000;0.106214
9442.000000;0.105901
9441.000000;0.105579
9440.000000;0.105265
9439.000000;0.105002
9438.000000;0.104781
9437.000000;0.104523
9436.000000;0.104156
9435.000000;0.103718
9434.000000;0.103342
9433.000000;0.103110
9432.000000;0.102949
9431.000000;0.102697
9430.000000;0.102281
9429.000000;0.101797
9428.000000;0.101389
9427.000000;0.101094
9426.000000;0.100838
9425.000000;0.100553
9424.000000;0.100241
9423.000000;0.099919
9422.000000;0.099564
9421.000000;0.099143
9420.000000;0.098692
9419.000000;0.098306
9418.000000;0.098056
9417.000000;0.097907
9416.000000;0.097746
9415.000000;0.097486
9414.000000;0.097125
9413.000000;0.096716
9412.000000;0.096312
9411.000000;0.095946
9410.000000;0.095627
9409.000000;0.095324
9408.000000;0.094984
9407.000000;0.094592
9406.000000;0.094234
9405.000000;0.094011
9404.000000;0.093894
9403.000000;0.093719
9402.000000;0.093353
9401.000000;0.092849
9400.000000;0.092379
9399.000000;0.092061
9398.000000;0.091859
9397.000000;0.091634
9396.000000;0.091249
9395.000000;0.090687
9394.000000;0.090102
9393.000000;0.089711
9392.000000;0.089578
9391.000000;0.089537
9390.000000;0.089379
9389.000000;0.089075
9388.000000;0.088741
9387.000000;0.088426
9386.000000;0.088052
9385.000000;0.087587
9384.000000;0.087133
9383.000000;0.086807
9382.000000;0.086595
9381.000000;0.086398
9380.000000;0.086146
9379.000000;0.085826
9378.000000;0.085444
9377.000000;0.085035
9376.000000;0.084683
9375.000000;0.084442
9374.000000;0.084257
9373.000000;0.084022
9372.000000;0.083706
9371.000000;0.083363
9370.000000;0.083034
9369.000000;0.082702
9368.000000;0.082344
9367.000000;0.081974
9366.000000;0.081610
9365.000000;0.081259
9364.000000;0.080951
9363.000000;0.080744
9362.000000;0.080648
9361.000000;0.080566
9360.000000;0.080348
9359.000000;0.079920
9358.000000;0.079356
9357.000000;0.078822
9356.000000;0.078455
9355.000000;0.078269
9354.000000;0.078171
9353.000000;0.078045
9352.000000;0.077832
9351.000000;0.077532
9350.000000;0.077168
9349.000000;0.076779
9348.000000;0.076414
9347.000000;0.076109
9346.000000;0.075856
9345.000000;0.075620
9344.000000;0.075382
9343.000000;0.075137
9342.000000;0.074871
9341.000000;0.074563
9340.000000;0.074228
9339.000000;0.073901
9338.000000;0.073591
9337.000000;0.073279
9336.000000;0.072961
9335.000000;0.072661
9334.000000;0.072388
9333.000000;0.072123
9332.000000;0.071864
9331.000000;0.071651
9330.000000;0.071504
9329.000000;0.071371
9328.000000;0.071162
9327.000000;0.070814
9326.000000;0.070310
9325.000000;0.069684
9324.000000;0.069048
9323.000000;0.068569
9322.000000;0.068341
9321.000000;0.068284
9320.000000;0.068237
9319.000000;0.068137
9318.000000;0.068029
9317.000000;0.067916
9316.000000;0.067695
9315.000000;0.067292
9314.000000;0.066784
9313.000000;0.066323
9312.000000;0.065980
9311.000000;0.065726
9310.000000;0.065525
9309.000000;0.065366
9308.000000;0.065226
9307.000000;0.065043
9306.000000;0.064762
9305.000000;0.064350
9304.000000;0.063799
9303.000000;0.063165
9302.000000;0.062595
9301.000000;0.062239
9300.000000;0.062108
9299.000000;0.062064
9298.000000;0.061965
9297.000000;0.061780
9296.000000;0.061547
9295.000000;0.061280
9294.000000;0.060996
9293.000000;0.060759
9292.000000;0.060627
9291.000000;0.060548
9290.000000;0.060398
9289.000000;0.060114
9288.000000;0.059750
9287.000000;0.059389
9286.000000;0.059045
9285.000000;0.058688
9284.000000;0.058313
9283.000000;0.057951
9282.000000;0.057638
9281.000000;0.057389
9280.000000;0.057198
9279.000000;0.057023
9278.000000;0.056804
9277.000000;0.056519
9276.000000;0.056218
9275.000000;0.055980
9274.000000;0.055823
9273.000000;0.055700
9272.000000;0.055560
9271.000000;0.055390
9270.000000;0.055185
9269.000000;0.054926
9268.000000;0.054602
9267.000000;0.054239
9266.000000;0.053877
9265.000000;0.053525
9264.000000;0.053162
9263.000000;0.052781
9262.000000;0.052401
9261.000000;0.052044
9260.000000;0.051713
9259.000000;0.051405
9258.000000;0.051157
9257.000000;0.051017
9256.000000;0.050978
9255.000000;0.050936
9254.000000;0.050772
9253.000000;0.050466
9252.000000;0.050106
9251.000000;0.049772
9250.000000;0.049455
9249.000000;0.049123
9248.000000;0.048814
9247.000000;0.048598
9246.000000;0.048451
9245.000000;0.048251
9244.000000;0.047923
9243.000000;0.047529
9242.000000;0.047190
9241.000000;0.046959
9240.000000;0.046804
9239.000000;0.046683
9238.000000;0.046561
9237.000000;0.046389
9236.000000;0.046122
9235.000000;0.045776
9234.000000;0.045421
9233.000000;0.045108
9232.000000;0.044838
9231.000000;0.044594
9230.000000;0.044367
9229.000000;0.044151
9228.000000;0.043945
9227.000000;0.043765
9226.000000;0.043614
9225.000000;0.043435
9224.000000;0.043155
9223.000000;0.042776
9222.000000;0.042403
9221.000000;0.042132
9220.000000;0.041951
9219.000000;0.041773
9218.000000;0.041541
9217.000000;0.041269
9216.000000;0.041010
9215.000000;0.040795
9214.000000;0.040604
9213.000000;0.040371
9212.000000;0.040041
9211.000000;0.039651
9210.000000;0.039301
9209.000000;0.039045
9208.000000;0.038834
9207.000000;0.038605
9206.000000;0.038374
9205.000000;0.038193
9204.000000;0.038038
9203.000000;0.037836
9202.000000;0.037588
9201.000000;0.037383
9200.000000;0.037280
9199.000000;0.037235
9198.000000;0.037171
9197.000000;0.037058
9196.000000;0.036886
9195.000000;0.036620
9194.000000;0.036249
9193.000000;0.035856
9192.000000;0.035560
9191.000000;0.035386
9190.000000;0.035243
9189.000000;0.035034
9188.000000;0.034744
9187.000000;0.034405
9186.000000;0.034036
9185.000000;0.033646
9184.000000;0.033280
9183.000000;0.033000
9182.000000;0.032837
9181.000000;0.032753
9180.000000;0.032685
9179.000000;0.032580
9178.000000;0.032402
9177.000000;0.032130
9176.000000;0.031779
9175.000000;0.031409
9174.000000;0.031089
9173.000000;0.030845
9172.000000;0.030653
9171.000000;0.030478
9170.000000;0.030302
9169.000000;0.030098
9168.000000;0.029849
9167.000000;0.029597
9166.000000;0.029437
9165.000000;0.029406
9164.000000;0.029383
9163.000000;0.029181
9162.000000;0.028748
9161.000000;0.028247
9160.000000;0.027881
9159.000000;0.027699
9158.000000;0.027593
9157.000000;0.027462
9156.000000;0.027305
9155.000000;0.027158
9154.000000;0.027008
9153.000000;0.026803
9152.000000;0.026527
9151.000000;0.026218
9150.000000;0.025937
9149.000000;0.025715
9148.000000;0.025539
9147.000000;0.025365
9146.000000;0.025157
9145.000000;0.024918
9144.000000;0.024685
9143.000000;0.024483
9142.000000;0.024299
9141.000000;0.024105
9140.000000;0.023891
9139.000000;0.023662
9138.000000;0.023417
9137.000000;0.023155
9136.000000;0.022919
9135.000000;0.022761
9134.000000;0.022683
9133.000000;0.022607
9132.000000;0.022449
9131.000000;0.022197
9130.000000;0.021905
9129.000000;0.021631
9128.000000;0.021409
9127.000000;0.021256
9126.000000;0.021178
9125.000000;0.021141
9124.000000;0.021070
9123.000000;0.020903
9122.000000;0.020637
9121.000000;0.020327
9120.000000;0.020027
9119.000000;0.019753
9118.000000;0.019480
9117.000000;0.019181
9116.000000;0.018869
9115.000000;0.018601
9114.000000;0.018432
9113.000000;0.018347
9112.000000;0.018261
9111.000000;0.018097
9110.000000;0.017855
9109.000000;0.017599
9108.000000;0.017370
9107.000000;0.017156
9106.000000;0.016933
9105.000000;0.016719
9104.000000;0.016551
9103.000000;0.016434
9102.000000;0.016324
9101.000000;0.016175
9100.000000;0.015971
9099.000000;0.015721
9098.000000;0.015449
9097.000000;0.015199
9096.000000;0.015022
9095.000000;0.014921
9094.000000;0.014829
9093.000000;0.014679
9092.000000;0.014479
9091.000000;0.014283
9090.000000;0.014100
9089.000000;0.013879
9088.000000;0.013610
9087.000000;0.013364
9086.000000;0.013199
9085.000000;0.013075
9084.000000;0.012900
9083.000000;0.012629
9082.000000;0.012289
9081.000000;0.011926
9080.000000;0.011599
9079.000000;0.011390
9078.000000;0.011330
9077.000000;0.011320
9076.000000;0.011206
9075.000000;0.010951
9074.000000;0.010677
9073.000000;0.010510
9072.000000;0.010427
9071.000000;0.010314
9070.000000;0.010110
9069.000000;0.009851
9068.000000;0.009602
9067.000000;0.009397
9066.000000;0.009241
9065.000000;0.009113
9064.000000;0.008982
9063.000000;0.008820
9062.000000;0.008635
9061.000000;0.008453
9060.000000;0.008276
9059.000000;0.008089
9058.000000;0.007866
9057.000000;0.007600
9056.000000;0.007316
9055.000000;0.007076
9054.000000;0.006927
9053.000000;0.006853
