Criado como novo conjunto de dados;"e2410_daniel_v2.spp","1082.0 Secs"
cm-1;Abs
10000.000000;0.078660
9999.000000;0.078078
9998.000000;0.077636
9997.000000;0.077383
9996.000000;0.077154
9995.000000;0.076742
9994.000000;0.076136
9993.000000;0.075524
9992.000000;0.075037
9991.000000;0.074627
9990.000000;0.074195
9989.000000;0.073737
9988.000000;0.073311
9987.000000;0.072930
9986.000000;0.072540
9985.000000;0.072076
9984.000000;0.071513
9983.000000;0.070900
9982.000000;0.070329
9981.000000;0.069855
9980.000000;0.069434
9979.000000;0.069000
9978.000000;0.068573
9977.000000;0.068236
9976.000000;0.068002
9975.000000;0.067775
9974.000000;0.067440
9973.000000;0.066940
9972.000000;0.066267
9971.000000;0.065454
9970.000000;0.064617
9969.000000;0.063935
9968.000000;0.063509
9967.000000;0.063266
9966.000000;0.063020
9965.000000;0.062638
9964.000000;0.062136
9963.000000;0.061625
9962.000000;0.061193
9961.000000;0.060820
9960.000000;0.060426
9959.000000;0.059976
9958.000000;0.059506
9957.000000;0.059047
9956.000000;0.058572
9955.000000;0.058064
9954.000000;0.057576
9953.000000;0.057149
9952.000000;0.056731
9951.000000;0.056251
9950.000000;0.055728
9949.000000;0.055228
9948.000000;0.054748
9947.000000;0.054232
9946.000000;0.053689
9945.000000;0.053201
9944.000000;0.052790
9943.000000;0.052374
9942.000000;0.051861
9941.000000;0.051236
9940.000000;0.050556
9939.000000;0.049919
9938.000000;0.049425
9937.000000;0.049085
9936.000000;0.048769
9935.000000;0.048335
9934.000000;0.047817
9933.000000;0.047389
9932.000000;0.047115
9931.000000;0.046850
9930.000000;0.046437
9929.000000;0.045910
9928.000000;0.045416
9927.000000;0.045015
9926.000000;0.044646
9925.000000;0.044245
9924.000000;0.043810
9923.000000;0.043335
9922.000000;0.042773
9921.000000;0.042093
9920.000000;0.041356
9919.000000;0.040692
9918.000000;0.040202
9917.000000;0.039881
9916.000000;0.039632
9915.000000;0.039356
9914.000000;0.039029
9913.000000;0.038673
9912.000000;0.038293
9911.000000;0.037856
9910.000000;0.037319
9909.000000;0.036672
9908.000000;0.035964
9907.000000;0.035290
9906.000000;0.034734
9905.000000;0.034301
9904.000000;0.033915
9903.000000;0.033514
9902.000000;0.033122
9901.000000;0.032787
9900.000000;0.032499
9899.000000;0.032178
9898.000000;0.031744
9897.000000;0.031157
9896.000000;0.030443
9895.000000;0.029694
9894.000000;0.029021
9893.000000;0.028460
9892.000000;0.027952
9891.000000;0.027449
9890.000000;0.026978
9889.000000;0.026589
9888.000000;0.026274
9887.000000;0.025971
9886.000000;0.025617
9885.000000;0.025168
9884.000000;0.024635
9883.000000;0.024126
9882.000000;0.023771
9881.000000;0.023538
9880.000000;0.023224
9879.000000;0.022695
9878.000000;0.022068
9877.000000;0.021549
9876.000000;0.021161
9875.000000;0.020772
9874.000000;0.020329
9873.000000;0.019903
9872.000000;0.019523
9871.000000;0.019125
9870.000000;0.018686
9869.000000;0.018278
9868.000000;0.017924
9867.000000;0.017527
9866.000000;0.016999
9865.000000;0.016373
9864.000000;0.015746
9863.000000;0.015177
9862.000000;0.014690
9861.000000;0.014287
9860.000000;0.013913
9859.000000;0.013452
9858.000000;0.012841
9857.000000;0.012169
9856.000000;0.011608
9855.000000;0.011240
9854.000000;0.010979
9853.000000;0.010671
9852.000000;0.010256
9851.000000;0.009811
9850.000000;0.009416
9849.000000;0.008999
9848.000000;0.008412
9847.000000;0.007655
9846.000000;0.006949
9845.000000;0.006501
9844.000000;0.006279
9843.000000;0.006082
9842.000000;0.005773
9841.000000;0.005352
9840.000000;0.004851
9839.000000;0.004295
9838.000000;0.003745
9837.000000;0.003260
9836.000000;0.002824
9835.000000;0.002387
9834.000000;0.001975
9833.000000;0.001651
9832.000000;0.001366
9831.000000;0.000963
9830.000000;0.000371
9829.000000;-0.000310
9828.000000;-0.000939
9827.000000;-0.001461
9826.000000;-0.001882
9825.000000;-0.002213
9824.000000;-0.002491
9823.000000;-0.002796
9822.000000;-0.003176
9821.000000;-0.003617
9820.000000;-0.004091
9819.000000;-0.004586
9818.000000;-0.005075
9817.000000;-0.005540
9816.000000;-0.006024
9815.000000;-0.006593
9814.000000;-0.007200
9813.000000;-0.007690
9812.000000;-0.007993
9811.000000;-0.008246
9810.000000;-0.008642
9809.000000;-0.009203
9808.000000;-0.009758
9807.000000;-0.010148
9806.000000;-0.010404
9805.000000;-0.010704
9804.000000;-0.011199
9803.000000;-0.011852
9802.000000;-0.012473
9801.000000;-0.012914
9800.000000;-0.013211
9799.000000;-0.013514
9798.000000;-0.013899
9797.000000;-0.014328
9796.000000;-0.014762
9795.000000;-0.015240
9794.000000;-0.015790
9793.000000;-0.016359
9792.000000;-0.016852
9791.000000;-0.017234
9790.000000;-0.017549
9789.000000;-0.017890
9788.000000;-0.018348
9787.000000;-0.018966
9786.000000;-0.019666
9785.000000;-0.020281
9784.000000;-0.020681
9783.000000;-0.020898
9782.000000;-0.021103
9781.000000;-0.021453
9780.000000;-0.021966
9779.000000;-0.022530
9778.000000;-0.023024
9777.000000;-0.023432
9776.000000;-0.023843
9775.000000;-0.024342
9774.000000;-0.024929
9773.000000;-0.025535
9772.000000;-0.026085
9771.000000;-0.026528
9770.000000;-0.026864
9769.000000;-0.027158
9768.000000;-0.027501
9767.000000;-0.027914
9766.000000;-0.028331
9765.000000;-0.028701
9764.000000;-0.029061
9763.000000;-0.029472
9762.000000;-0.029932
9761.000000;-0.030413
9760.000000;-0.030933
9759.000000;-0.031523
9758.000000;-0.032123
9757.000000;-0.032618
9756.000000;-0.032966
9755.000000;-0.033253
9754.000000;-0.033601
9753.000000;-0.034057
9752.000000;-0.034570
9751.000000;-0.035048
9750.000000;-0.035429
9749.000000;-0.035748
9748.000000;-0.036112
9747.000000;-0.036592
9746.000000;-0.037152
9745.000000;-0.037696
9744.000000;-0.038169
9743.000000;-0.038581
9742.000000;-0.038978
9741.000000;-0.039416
9740.000000;-0.039917
9739.000000;-0.040419
9738.000000;-0.040829
9737.000000;-0.041158
9736.000000;-0.041536
9735.000000;-0.042039
9734.000000;-0.042585
9733.000000;-0.043063
9732.000000;-0.043495
9731.000000;-0.043956
9730.000000;-0.044400
9729.000000;-0.044714
9728.000000;-0.044921
9727.000000;-0.045195
9726.000000;-0.045656
9725.000000;-0.046234
9724.000000;-0.046769
9723.000000;-0.047167
9722.000000;-0.047447
9721.000000;-0.047714
9720.000000;-0.048097
9719.000000;-0.048659
9718.000000;-0.049332
9717.000000;-0.049983
9716.000000;-0.050521
9715.000000;-0.050926
9714.000000;-0.051221
9713.000000;-0.051473
9712.000000;-0.051802
9711.000000;-0.052281
9710.000000;-0.052849
9709.000000;-0.053386
9708.000000;-0.053843
9707.000000;-0.054234
9706.000000;-0.054540
9705.000000;-0.054738
9704.000000;-0.054906
9703.000000;-0.055190
9702.000000;-0.055648
9701.000000;-0.056199
9700.000000;-0.056734
9699.000000;-0.057197
9698.000000;-0.057574
9697.000000;-0.057897
9696.000000;-0.058259
9695.000000;-0.058737
9694.000000;-0.059297
9693.000000;-0.059840
9692.000000;-0.060325
9691.000000;-0.060779
9690.000000;-0.061195
9689.000000;-0.061547
9688.000000;-0.061889
9687.000000;-0.062322
9686.000000;-0.062845
9685.000000;-0.063350
9684.000000;-0.063775
9683.000000;-0.064166
9682.000000;-0.064563
9681.000000;-0.064934
9680.000000;-0.065259
9679.000000;-0.065588
9678.000000;-0.065949
9677.000000;-0.066306
9676.000000;-0.066640
9675.000000;-0.067001
9674.000000;-0.067415
9673.000000;-0.067834
9672.000000;-0.068222
9671.000000;-0.068636
9670.000000;-0.069147
9669.000000;-0.069721
9668.000000;-0.070257
9667.000000;-0.070709
9666.000000;-0.071134
9665.000000;-0.071621
9664.000000;-0.072201
9663.000000;-0.072815
9662.000000;-0.073353
9661.000000;-0.073755
9660.000000;-0.074063
9659.000000;-0.074354
9658.000000;-0.074643
9657.000000;-0.074919
9656.000000;-0.075231
9655.000000;-0.075657
9654.000000;-0.076166
9653.000000;-0.076635
9652.000000;-0.077010
9651.000000;-0.077380
9650.000000;-0.077843
9649.000000;-0.078377
9648.000000;-0.078899
9647.000000;-0.079375
9646.000000;-0.079820
9645.000000;-0.080232
9644.000000;-0.080603
9643.000000;-0.080951
9642.000000;-0.081298
9641.000000;-0.081618
9640.000000;-0.081872
9639.000000;-0.082081
9638.000000;-0.082323
9637.000000;-0.082679
9636.000000;-0.083168
9635.000000;-0.083743
9634.000000;-0.084323
9633.000000;-0.084847
9632.000000;-0.085306
9631.000000;-0.085718
9630.000000;-0.086088
9629.000000;-0.086418
9628.000000;-0.086734
9627.000000;-0.087072
9626.000000;-0.087431
9625.000000;-0.087786
9624.000000;-0.088128
9623.000000;-0.088470
9622.000000;-0.088817
9621.000000;-0.089184
9620.000000;-0.089612
9619.000000;-0.090117
9618.000000;-0.090646
9617.000000;-0.091130
9616.000000;-0.091568
9615.000000;-0.091992
9614.000000;-0.092382
9613.000000;-0.092684
9612.000000;-0.092928
9611.000000;-0.093225
9610.000000;-0.093639
9609.000000;-0.094111
9608.000000;-0.094549
9607.000000;-0.094925
9606.000000;-0.095272
9605.000000;-0.095629
9604.000000;-0.096021
9603.000000;-0.096446
9602.000000;-0.096880
9601.000000;-0.097301
9600.000000;-0.097719
9599.000000;-0.098151
9598.000000;-0.098588
9597.000000;-0.099011
9596.000000;-0.099431
9595.000000;-0.099848
9594.000000;-0.100217
9593.000000;-0.100501
9592.000000;-0.100756
9591.000000;-0.101082
9590.000000;-0.101508
9589.000000;-0.101986
9588.000000;-0.102485
9587.000000;-0.102995
9586.000000;-0.103471
9585.000000;-0.103861
9584.000000;-0.104196
9583.000000;-0.104578
9582.000000;-0.105048
9581.000000;-0.105539
9580.000000;-0.105962
9579.000000;-0.106267
9578.000000;-0.106424
9577.000000;-0.106465
9576.000000;-0.106538
9575.000000;-0.106830
9574.000000;-0.107364
9573.000000;-0.107971
9572.000000;-0.108486
9571.000000;-0.108891
9570.000000;-0.109254
9569.000000;-0.109613
9568.000000;-0.109987
9567.000000;-0.110406
9566.000000;-0.110854
9565.000000;-0.111264
9564.000000;-0.111617
9563.000000;-0.111997
9562.000000;-0.112476
9561.000000;-0.113006
9560.000000;-0.113457
9559.000000;-0.113755
9558.000000;-0.113913
9557.000000;-0.114009
9556.000000;-0.114161
9555.000000;-0.114482
9554.000000;-0.114973
9553.000000;-0.115510
9552.000000;-0.115981
9551.000000;-0.116397
9550.000000;-0.116839
9549.000000;-0.117323
9548.000000;-0.117792
9547.000000;-0.118204
9546.000000;-0.118568
9545.000000;-0.118907
9544.000000;-0.119239
9543.000000;-0.119593
9542.000000;-0.120003
9541.000000;-0.120461
9540.000000;-0.120904
9539.000000;-0.121266
9538.000000;-0.121528
9537.000000;-0.121756
9536.000000;-0.122066
9535.000000;-0.122516
9534.000000;-0.123025
9533.000000;-0.123436
9532.000000;-0.123695
9531.000000;-0.123915
9530.000000;-0.124232
9529.000000;-0.124666
9528.000000;-0.125135
9527.000000;-0.125588
9526.000000;-0.126043
9525.000000;-0.126522
9524.000000;-0.127001
9523.000000;-0.127430
9522.000000;-0.127781
9521.000000;-0.128068
9520.000000;-0.128340
9519.000000;-0.128641
9518.000000;-0.128967
9517.000000;-0.129293
9516.000000;-0.129626
9515.000000;-0.130009
9514.000000;-0.130444
9513.000000;-0.130862
9512.000000;-0.131195
9511.000000;-0.131456
9510.000000;-0.131719
9509.000000;-0.132027
9508.000000;-0.132363
9507.000000;-0.132698
9506.000000;-0.133032
9505.000000;-0.133391
9504.000000;-0.133786
9503.000000;-0.134204
9502.000000;-0.134618
9501.000000;-0.135025
9500.000000;-0.135433
9499.000000;-0.135828
9498.000000;-0.136161
9497.000000;-0.136413
9496.000000;-0.136650
9495.000000;-0.136962
9494.000000;-0.137356
9493.000000;-0.137740
9492.000000;-0.138049
9491.000000;-0.138332
9490.000000;-0.138697
9489.000000;-0.139185
9488.000000;-0.139732
9487.000000;-0.140225
9486.000000;-0.140593
9485.000000;-0.140837
9484.000000;-0.141012
9483.000000;-0.141186
9482.000000;-0.141414
9481.000000;-0.141738
9480.000000;-0.142173
9479.000000;-0.142673
9478.000000;-0.143128
9477.000000;-0.143444
9476.000000;-0.143627
9475.000000;-0.143774
9474.000000;-0.143980
9473.000000;-0.144291
9472.000000;-0.144713
9471.000000;-0.145226
9470.000000;-0.145766
9469.000000;-0.146244
9468.000000;-0.146611
9467.000000;-0.146889
9466.000000;-0.147147
9465.000000;-0.147455
9464.000000;-0.147864
9463.000000;-0.148364
9462.000000;-0.148862
9461.000000;-0.149250
9460.000000;-0.149510
9459.000000;-0.149717
9458.000000;-0.149939
9457.000000;-0.150185
9456.000000;-0.150453
9455.000000;-0.150782
9454.000000;-0.151202
9453.000000;-0.151672
9452.000000;-0.152121
9451.000000;-0.152528
9450.000000;-0.152922
9449.000000;-0.153305
9448.000000;-0.153626
9447.000000;-0.153839
9446.000000;-0.153968
9445.000000;-0.154089
9444.000000;-0.154266
9443.000000;-0.154514
9442.000000;-0.154819
9441.000000;-0.155173
9440.000000;-0.155563
9439.000000;-0.155938
9438.000000;-0.156245
9437.000000;-0.156500
9436.000000;-0.156812
9435.000000;-0.157266
9434.000000;-0.157807
9433.000000;-0.158278
9432.000000;-0.158580
9431.000000;-0.158777
9430.000000;-0.159009
9429.000000;-0.159334
9428.000000;-0.159678
9427.000000;-0.159946
9426.000000;-0.160149
9425.000000;-0.160411
9424.000000;-0.160849
9423.000000;-0.161446
9422.000000;-0.162047
9421.000000;-0.162496
9420.000000;-0.162762
9419.000000;-0.162945
9418.000000;-0.163177
9417.000000;-0.163512
9416.000000;-0.163900
9415.000000;-0.164251
9414.000000;-0.164522
9413.000000;-0.164751
9412.000000;-0.165005
9411.000000;-0.165314
9410.000000;-0.165659
9409.000000;-0.166018
9408.000000;-0.166386
9407.000000;-0.166752
9406.000000;-0.167101
9405.000000;-0.167436
9404.000000;-0.167771
9403.000000;-0.168081
9402.000000;-0.168324
9401.000000;-0.168521
9400.000000;-0.168767
9399.000000;-0.169132
9398.000000;-0.169568
9397.000000;-0.169960
9396.000000;-0.170249
9395.000000;-0.170468
9394.000000;-0.170701
9393.000000;-0.171016
9392.000000;-0.171425
9391.000000;-0.171874
9390.000000;-0.172284
9389.000000;-0.172615
9388.000000;-0.172888
9387.000000;-0.173131
9386.000000;-0.173361
9385.000000;-0.173605
9384.000000;-0.173914
9383.000000;-0.174292
9382.000000;-0.174663
9381.000000;-0.174949
9380.000000;-0.175150
9379.000000;-0.175331
9378.000000;-0.175562
9377.000000;-0.175885
9376.000000;-0.176291
9375.000000;-0.176704
9374.000000;-0.177031
9373.000000;-0.177282
9372.000000;-0.177573
9371.000000;-0.177966
9370.000000;-0.178352
9369.000000;-0.178582
9368.000000;-0.178674
9367.000000;-0.178799
9366.000000;-0.179093
9365.000000;-0.179543
9364.000000;-0.180045
9363.000000;-0.180490
9362.000000;-0.180798
9361.000000;-0.180961
9360.000000;-0.181078
9359.000000;-0.181283
9358.000000;-0.181623
9357.000000;-0.182031
9356.000000;-0.182416
9355.000000;-0.182737
9354.000000;-0.182993
9353.000000;-0.183198
9352.000000;-0.183386
9351.000000;-0.183588
9350.000000;-0.183792
9349.000000;-0.183976
9348.000000;-0.184178
9347.000000;-0.184485
9346.000000;-0.184935
9345.000000;-0.185457
9344.000000;-0.185925
9343.000000;-0.186257
9342.000000;-0.186463
9341.000000;-0.186632
9340.000000;-0.186872
9339.000000;-0.187220
9338.000000;-0.187614
9337.000000;-0.187972
9336.000000;-0.188274
9335.000000;-0.188558
9334.000000;-0.188840
9333.000000;-0.189091
9332.000000;-0.189292
9331.000000;-0.189465
9330.000000;-0.189657
9329.000000;-0.189903
9328.000000;-0.190216
9327.000000;-0.190575
9326.000000;-0.190939
9325.000000;-0.191286
9324.000000;-0.191618
9323.000000;-0.191919
9322.000000;-0.192131
9321.000000;-0.192226
9320.000000;-0.192286
9319.000000;-0.192462
9318.000000;-0.192839
9317.000000;-0.193363
9316.000000;-0.193889
9315.000000;-0.194279
9314.000000;-0.194475
9313.000000;-0.194547
9312.000000;-0.194645
9311.000000;-0.194878
9310.000000;-0.195227
9309.000000;-0.195604
9308.000000;-0.195961
9307.000000;-0.196311
9306.000000;-0.196670
9305.000000;-0.197043
9304.000000;-0.197437
9303.000000;-0.197843
9302.000000;-0.198215
9301.000000;-0.198501
9300.000000;-0.198701
9299.000000;-0.198845
9298.000000;-0.198939
9297.000000;-0.198989
9296.000000;-0.199064
9295.000000;-0.199266
9294.000000;-0.199621
9293.000000;-0.200047
9292.000000;-0.200435
9291.000000;-0.200738
9290.000000;-0.200975
9289.000000;-0.201191
9288.000000;-0.201433
9287.000000;-0.201726
9286.000000;-0.202057
9285.000000;-0.202395
9284.000000;-0.202727
9283.000000;-0.203047
9282.000000;-0.203340
9281.000000;-0.203592
9280.000000;-0.203814
9279.000000;-0.204031
9278.000000;-0.204234
9277.000000;-0.204402
9276.000000;-0.204551
9275.000000;-0.204735
9274.000000;-0.204997
9273.000000;-0.205332
9272.000000;-0.205705
9271.000000;-0.206066
9270.000000;-0.206379
9269.000000;-0.206644
9268.000000;-0.206901
9267.000000;-0.207182
9266.000000;-0.207475
9265.000000;-0.207752
9264.000000;-0.208004
9263.000000;-0.208227
9262.000000;-0.208418
9261.000000;-0.208626
9260.000000;-0.208932
9259.000000;-0.209347
9258.000000;-0.209746
9257.000000;-0.209993
9256.000000;-0.210120
9255.000000;-0.210296
9254.000000;-0.210623
9253.000000;-0.211026
9252.000000;-0.211352
9251.000000;-0.211524
9250.000000;-0.211580
9249.000000;-0.211613
9248.000000;-0.211707
9247.000000;-0.211896
9246.000000;-0.212168
9245.000000;-0.212500
9244.000000;-0.212879
9243.000000;-0.213282
9242.000000;-0.213658
9241.000000;-0.213964
9240.000000;-0.214206
9239.000000;-0.214422
9238.000000;-0.214635
9237.000000;-0.214852
9236.000000;-0.215086
9235.000000;-0.215337
9234.000000;-0.215577
9233.000000;-0.215792
9232.000000;-0.216022
9231.000000;-0.216312
9230.000000;-0.216647
9229.000000;-0.216958
9228.000000;-0.217192
9227.000000;-0.217348
9226.000000;-0.217456
9225.000000;-0.217571
9224.000000;-0.217739
9223.000000;-0.217951
9222.000000;-0.218149
9221.000000;-0.218313
9220.000000;-0.218504
9219.000000;-0.218774
9218.000000;-0.219075
9217.000000;-0.219335
9216.000000;-0.219563
9215.000000;-0.219815
9214.000000;-0.220090
9213.000000;-0.220338
9212.000000;-0.220556
9211.000000;-0.220783
9210.000000;-0.221008
9209.000000;-0.221176
9208.000000;-0.221289
9207.000000;-0.221432
9206.000000;-0.221662
9205.000000;-0.221948
9204.000000;-0.222236
9203.000000;-0.222513
9202.000000;-0.222782
9201.000000;-0.223044
9200.000000;-0.223314
9199.000000;-0.223620
9198.000000;-0.223953
9197.000000;-0.224254
9196.000000;-0.224484
9195.000000;-0.224680
9194.000000;-0.224913
9193.000000;-0.225215
9192.000000;-0.225559
9191.000000;-0.225884
9190.000000;-0.226126
9189.000000;-0.226259
9188.000000;-0.226320
9187.000000;-0.226381
9186.000000;-0.226503
9185.000000;-0.226728
9184.000000;-0.227070
9183.000000;-0.227488
9182.000000;-0.227887
9181.000000;-0.228189
9180.000000;-0.228396
9179.000000;-0.228548
9178.000000;-0.228666
9177.000000;-0.228760
9176.000000;-0.228882
9175.000000;-0.229083
9174.000000;-0.229350
9173.000000;-0.229617
9172.000000;-0.229857
9171.000000;-0.230082
9170.000000;-0.230286
9169.000000;-0.230444
9168.000000;-0.230571
9167.000000;-0.230726
9166.000000;-0.230932
9165.000000;-0.231156
9164.000000;-0.231367
9163.000000;-0.231578
9162.000000;-0.231825
9161.000000;-0.232121
9160.000000;-0.232449
9159.000000;-0.232767
9158.000000;-0.233020
9157.000000;-0.233195
9156.000000;-0.233352
9155.000000;-0.233551
9154.000000;-0.233778
9153.000000;-0.233993
9152.000000;-0.234203
9151.000000;-0.234448
9150.000000;-0.234702
9149.000000;-0.234893
9148.000000;-0.235023
9147.000000;-0.235191
9146.000000;-0.235471
9145.000000;-0.235826
9144.000000;-0.236159
9143.000000;-0.236415
9142.000000;-0.236600
9141.000000;-0.236752
9140.000000;-0.236917
9139.000000;-0.237125
9138.000000;-0.237352
9137.000000;-0.237544
9136.000000;-0.237689
9135.000000;-0.237844
9134.000000;-0.238069
9133.000000;-0.238355
9132.000000;-0.238627
9131.000000;-0.238816
9130.000000;-0.238911
9129.000000;-0.238979
9128.000000;-0.239107
9127.000000;-0.239331
9126.000000;-0.239608
9125.000000;-0.239886
9124.000000;-0.240147
9123.000000;-0.240394
9122.000000;-0.240605
9121.000000;-0.240775
9120.000000;-0.240947
9119.000000;-0.241166
9118.000000;-0.241393
9117.000000;-0.241547
9116.000000;-0.241615
9115.000000;-0.241670
9114.000000;-0.241784
9113.000000;-0.241974
9112.000000;-0.242222
9111.000000;-0.242496
9110.000000;-0.242756
9109.000000;-0.242979
9108.000000;-0.243195
9107.000000;-0.243444
9106.000000;-0.243709
9105.000000;-0.243928
9104.000000;-0.244085
9103.000000;-0.244231
9102.000000;-0.244421
9101.000000;-0.244667
9100.000000;-0.244951
9099.000000;-0.245243
9098.000000;-0.245486
9097.000000;-0.245638
9096.000000;-0.245729
9095.000000;-0.245836
9094.000000;-0.245995
9093.000000;-0.246179
9092.000000;-0.246353
9091.000000;-0.246514
9090.000000;-0.246668
9089.000000;-0.246817
9088.000000;-0.246977
