Criado como novo conjunto de dados;"e2410_daniel_v2.spp","33123.7 Secs"
cm-1;Abs
10000.000000;0.418704
9999.000000;0.417807
9998.000000;0.416911
9997.000000;0.416018
9996.000000;0.415126
9995.000000;0.414236
9994.000000;0.413348
9993.000000;0.412461
9992.000000;0.411578
9991.000000;0.410693
9990.000000;0.409818
9989.000000;0.408928
9988.000000;0.408160
9987.000000;0.407617
9986.000000;0.407200
9985.000000;0.406841
9984.000000;0.406510
9983.000000;0.406177
9982.000000;0.405770
9981.000000;0.405203
9980.000000;0.404428
9979.000000;0.403506
9978.000000;0.402625
9977.000000;0.401973
9976.000000;0.401561
9975.000000;0.401213
9974.000000;0.400766
9973.000000;0.400207
9972.000000;0.399631
9971.000000;0.399121
9970.000000;0.398721
9969.000000;0.398432
9968.000000;0.398178
9967.000000;0.397792
9966.000000;0.397137
9965.000000;0.396246
9964.000000;0.395341
9963.000000;0.394690
9962.000000;0.394430
9961.000000;0.394490
9960.000000;0.394659
9959.000000;0.394720
9958.000000;0.394534
9957.000000;0.394043
9956.000000;0.393257
9955.000000;0.392288
9954.000000;0.391349
9953.000000;0.390622
9952.000000;0.390115
9951.000000;0.389670
9950.000000;0.389118
9949.000000;0.388427
9948.000000;0.387713
9947.000000;0.387122
9946.000000;0.386690
9945.000000;0.386310
9944.000000;0.385874
9943.000000;0.385432
9942.000000;0.385137
9941.000000;0.384994
9940.000000;0.384766
9939.000000;0.384220
9938.000000;0.383419
9937.000000;0.382644
9936.000000;0.382072
9935.000000;0.381640
9934.000000;0.381242
9933.000000;0.380896
9932.000000;0.380658
9931.000000;0.380463
9930.000000;0.380143
9929.000000;0.379589
9928.000000;0.378852
9927.000000;0.378098
9926.000000;0.377499
9925.000000;0.377126
9924.000000;0.376914
9923.000000;0.376727
9922.000000;0.376471
9921.000000;0.376146
9920.000000;0.375786
9919.000000;0.375395
9918.000000;0.374948
9917.000000;0.374440
9916.000000;0.373909
9915.000000;0.373405
9914.000000;0.372938
9913.000000;0.372460
9912.000000;0.371918
9911.000000;0.371341
9910.000000;0.370830
9909.000000;0.370432
9908.000000;0.370056
9907.000000;0.369571
9906.000000;0.368971
9905.000000;0.368386
9904.000000;0.367909
9903.000000;0.367486
9902.000000;0.366987
9901.000000;0.366382
9900.000000;0.365788
9899.000000;0.365330
9898.000000;0.364970
9897.000000;0.364479
9896.000000;0.363629
9895.000000;0.362461
9894.000000;0.361330
9893.000000;0.360630
9892.000000;0.360451
9891.000000;0.360495
9890.000000;0.360366
9889.000000;0.359915
9888.000000;0.359293
9887.000000;0.358704
9886.000000;0.358168
9885.000000;0.357577
9884.000000;0.356914
9883.000000;0.356303
9882.000000;0.355825
9881.000000;0.355402
9880.000000;0.354926
9879.000000;0.354445
9878.000000;0.354101
9877.000000;0.353917
9876.000000;0.353762
9875.000000;0.353503
9874.000000;0.353088
9873.000000;0.352495
9872.000000;0.351750
9871.000000;0.351004
9870.000000;0.350455
9869.000000;0.350124
9868.000000;0.349811
9867.000000;0.349337
9866.000000;0.348744
9865.000000;0.348173
9864.000000;0.347682
9863.000000;0.347244
9862.000000;0.346833
9861.000000;0.346407
9860.000000;0.345899
9859.000000;0.345352
9858.000000;0.344947
9857.000000;0.344795
9856.000000;0.344740
9855.000000;0.344533
9854.000000;0.344137
9853.000000;0.343728
9852.000000;0.343403
9851.000000;0.343055
9850.000000;0.342558
9849.000000;0.341936
9848.000000;0.341284
9847.000000;0.340621
9846.000000;0.339891
9845.000000;0.339067
9844.000000;0.338232
9843.000000;0.337559
9842.000000;0.337189
9841.000000;0.337098
9840.000000;0.337092
9839.000000;0.336974
9838.000000;0.336671
9837.000000;0.336199
9836.000000;0.335579
9835.000000;0.334874
9834.000000;0.334234
9833.000000;0.333776
9832.000000;0.333443
9831.000000;0.333079
9830.000000;0.332613
9829.000000;0.332082
9828.000000;0.331494
9827.000000;0.330836
9826.000000;0.330208
9825.000000;0.329790
9824.000000;0.329607
9823.000000;0.329447
9822.000000;0.329098
9821.000000;0.328599
9820.000000;0.328169
9819.000000;0.327924
9818.000000;0.327738
9817.000000;0.327370
9816.000000;0.326709
9815.000000;0.325878
9814.000000;0.325110
9813.000000;0.324508
9812.000000;0.323975
9811.000000;0.323382
9810.000000;0.322778
9809.000000;0.322323
9808.000000;0.322056
9807.000000;0.321817
9806.000000;0.321424
9805.000000;0.320841
9804.000000;0.320154
9803.000000;0.319463
9802.000000;0.318843
9801.000000;0.318334
9800.000000;0.317912
9799.000000;0.317484
9798.000000;0.316985
9797.000000;0.316448
9796.000000;0.315964
9795.000000;0.315582
9794.000000;0.315254
9793.000000;0.314862
9792.000000;0.314309
9791.000000;0.313625
9790.000000;0.312978
9789.000000;0.312553
9788.000000;0.312383
9787.000000;0.312328
9786.000000;0.312198
9785.000000;0.311861
9784.000000;0.311244
9783.000000;0.310355
9782.000000;0.309339
9781.000000;0.308440
9780.000000;0.307837
9779.000000;0.307513
9778.000000;0.307321
9777.000000;0.307155
9776.000000;0.306985
9775.000000;0.306780
9774.000000;0.306482
9773.000000;0.306106
9772.000000;0.305772
9771.000000;0.305556
9770.000000;0.305342
9769.000000;0.304908
9768.000000;0.304196
9767.000000;0.303375
9766.000000;0.302604
9765.000000;0.301841
9764.000000;0.300997
9763.000000;0.300193
9762.000000;0.299674
9761.000000;0.299472
9760.000000;0.299344
9759.000000;0.299099
9758.000000;0.298811
9757.000000;0.298602
9756.000000;0.298378
9755.000000;0.297952
9754.000000;0.297329
9753.000000;0.296678
9752.000000;0.296071
9751.000000;0.295434
9750.000000;0.294749
9749.000000;0.294141
9748.000000;0.293697
9747.000000;0.293355
9746.000000;0.293015
9745.000000;0.292662
9744.000000;0.292303
9743.000000;0.291893
9742.000000;0.291378
9741.000000;0.290775
9740.000000;0.290144
9739.000000;0.289553
9738.000000;0.289090
9737.000000;0.288840
9736.000000;0.288752
9735.000000;0.288597
9734.000000;0.288144
9733.000000;0.287408
9732.000000;0.286665
9731.000000;0.286206
9730.000000;0.286096
9729.000000;0.286150
9728.000000;0.286095
9727.000000;0.285751
9726.000000;0.285105
9725.000000;0.284294
9724.000000;0.283521
9723.000000;0.282933
9722.000000;0.282524
9721.000000;0.282140
9720.000000;0.281660
9719.000000;0.281143
9718.000000;0.280741
9717.000000;0.280472
9716.000000;0.280184
9715.000000;0.279786
9714.000000;0.279399
9713.000000;0.279165
9712.000000;0.278990
9711.000000;0.278610
9710.000000;0.277902
9709.000000;0.277017
9708.000000;0.276207
9707.000000;0.275614
9706.000000;0.275239
9705.000000;0.275015
9704.000000;0.274845
9703.000000;0.274626
9702.000000;0.274286
9701.000000;0.273814
9700.000000;0.273269
9699.000000;0.272756
9698.000000;0.272354
9697.000000;0.272014
9696.000000;0.271589
9695.000000;0.271020
9694.000000;0.270426
9693.000000;0.269968
9692.000000;0.269669
9691.000000;0.269430
9690.000000;0.269174
9689.000000;0.268856
9688.000000;0.268408
9687.000000;0.267804
9686.000000;0.267159
9685.000000;0.266647
9684.000000;0.266308
9683.000000;0.266039
9682.000000;0.265758
9681.000000;0.265447
9680.000000;0.265061
9679.000000;0.264542
9678.000000;0.263964
9677.000000;0.263495
9676.000000;0.263175
9675.000000;0.262861
9674.000000;0.262443
9673.000000;0.261987
9672.000000;0.261583
9671.000000;0.261182
9670.000000;0.260707
9669.000000;0.260227
9668.000000;0.259883
9667.000000;0.259691
9666.000000;0.259531
9665.000000;0.259292
9664.000000;0.258912
9663.000000;0.258326
9662.000000;0.257477
9661.000000;0.256423
9660.000000;0.255362
9659.000000;0.254538
9658.000000;0.254124
9657.000000;0.254134
9656.000000;0.254366
9655.000000;0.254475
9654.000000;0.254218
9653.000000;0.253641
9652.000000;0.252973
9651.000000;0.252353
9650.000000;0.251740
9649.000000;0.251086
9648.000000;0.250476
9647.000000;0.250023
9646.000000;0.249675
9645.000000;0.249239
9644.000000;0.248610
9643.000000;0.247916
9642.000000;0.247389
9641.000000;0.247115
9640.000000;0.246972
9639.000000;0.246789
9638.000000;0.246521
9637.000000;0.246225
9636.000000;0.245943
9635.000000;0.245646
9634.000000;0.245277
9633.000000;0.244782
9632.000000;0.244132
9631.000000;0.243392
9630.000000;0.242746
9629.000000;0.242361
9628.000000;0.242196
9627.000000;0.242030
9626.000000;0.241697
9625.000000;0.241255
9624.000000;0.240875
9623.000000;0.240636
9622.000000;0.240459
9621.000000;0.240199
9620.000000;0.239766
9619.000000;0.239193
9618.000000;0.238634
9617.000000;0.238235
9616.000000;0.237983
9615.000000;0.237707
9614.000000;0.237263
9613.000000;0.236673
9612.000000;0.236030
9611.000000;0.235362
9610.000000;0.234652
9609.000000;0.233971
9608.000000;0.233460
9607.000000;0.233186
9606.000000;0.233064
9605.000000;0.232939
9604.000000;0.232711
9603.000000;0.232372
9602.000000;0.231979
9601.000000;0.231615
9600.000000;0.231351
9599.000000;0.231190
9598.000000;0.231056
9597.000000;0.230829
9596.000000;0.230418
9595.000000;0.229819
9594.000000;0.229144
9593.000000;0.228555
9592.000000;0.228133
9591.000000;0.227797
9590.000000;0.227393
9589.000000;0.226880
9588.000000;0.226377
9587.000000;0.226009
9586.000000;0.225751
9585.000000;0.225460
9584.000000;0.225063
9583.000000;0.224631
9582.000000;0.224255
9581.000000;0.223908
9580.000000;0.223473
9579.000000;0.222897
9578.000000;0.222246
9577.000000;0.221626
9576.000000;0.221097
9575.000000;0.220673
9574.000000;0.220331
9573.000000;0.220009
9572.000000;0.219634
9571.000000;0.219228
9570.000000;0.218935
9569.000000;0.218875
9568.000000;0.218968
9567.000000;0.218955
9566.000000;0.218619
9565.000000;0.217950
9564.000000;0.217114
9563.000000;0.216309
9562.000000;0.215649
9561.000000;0.215140
9560.000000;0.214733
9559.000000;0.214397
9558.000000;0.214144
9557.000000;0.213965
9556.000000;0.213792
9555.000000;0.213554
9554.000000;0.213251
9553.000000;0.212920
9552.000000;0.212560
9551.000000;0.212137
9550.000000;0.211658
9549.000000;0.211179
9548.000000;0.210744
9547.000000;0.210365
9546.000000;0.210070
9545.000000;0.209881
9544.000000;0.209728
9543.000000;0.209462
9542.000000;0.209008
9541.000000;0.208430
9540.000000;0.207823
9539.000000;0.207216
9538.000000;0.206606
9537.000000;0.206025
9536.000000;0.205485
9535.000000;0.204928
9534.000000;0.204337
9533.000000;0.203839
9532.000000;0.203586
9531.000000;0.203528
9530.000000;0.203402
9529.000000;0.202994
9528.000000;0.202348
9527.000000;0.201681
9526.000000;0.201143
9525.000000;0.200732
9524.000000;0.200393
9523.000000;0.200136
9522.000000;0.200037
9521.000000;0.200122
9520.000000;0.200264
9519.000000;0.200234
9518.000000;0.199884
9517.000000;0.199302
9516.000000;0.198725
9515.000000;0.198308
9514.000000;0.197996
9513.000000;0.197630
9512.000000;0.197130
9511.000000;0.196519
9510.000000;0.195819
9509.000000;0.195042
9508.000000;0.194281
9507.000000;0.193725
9506.000000;0.193503
9505.000000;0.193523
9504.000000;0.193521
9503.000000;0.193296
9502.000000;0.192867
9501.000000;0.192407
9500.000000;0.192036
9499.000000;0.191721
9498.000000;0.191357
9497.000000;0.190913
9496.000000;0.190451
9495.000000;0.190036
9494.000000;0.189675
9493.000000;0.189372
9492.000000;0.189182
9491.000000;0.189140
9490.000000;0.189159
9489.000000;0.189077
9488.000000;0.188824
9487.000000;0.188491
9486.000000;0.188185
9485.000000;0.187890
9484.000000;0.187522
9483.000000;0.187071
9482.000000;0.186619
9481.000000;0.186199
9480.000000;0.185754
9479.000000;0.185234
9478.000000;0.184701
9477.000000;0.184284
9476.000000;0.184054
9475.000000;0.183948
9474.000000;0.183798
9473.000000;0.183446
9472.000000;0.182872
9471.000000;0.182230
9470.000000;0.181705
9469.000000;0.181305
9468.000000;0.180856
9467.000000;0.180225
9466.000000;0.179514
9465.000000;0.178985
9464.000000;0.178792
9463.000000;0.178841
9462.000000;0.178896
9461.000000;0.178781
9460.000000;0.178484
9459.000000;0.178109
9458.000000;0.177758
9457.000000;0.177462
9456.000000;0.177204
9455.000000;0.176963
9454.000000;0.176716
9453.000000;0.176425
9452.000000;0.176076
9451.000000;0.175722
9450.000000;0.175434
9449.000000;0.175191
9448.000000;0.174862
9447.000000;0.174350
9446.000000;0.173724
9445.000000;0.173160
9444.000000;0.172761
9443.000000;0.172476
9442.000000;0.172186
9441.000000;0.171829
9440.000000;0.171426
9439.000000;0.171028
9438.000000;0.170667
9437.000000;0.170356
9436.000000;0.170100
9435.000000;0.169862
9434.000000;0.169554
9433.000000;0.169091
9432.000000;0.168509
9431.000000;0.167978
9430.000000;0.167642
9429.000000;0.167456
9428.000000;0.167232
9427.000000;0.166850
9426.000000;0.166358
9425.000000;0.165865
9424.000000;0.165429
9423.000000;0.165063
9422.000000;0.164801
9421.000000;0.164654
9420.000000;0.164546
9419.000000;0.164360
9418.000000;0.164055
9417.000000;0.163695
9416.000000;0.163347
9415.000000;0.163005
9414.000000;0.162622
9413.000000;0.162198
9412.000000;0.161805
9411.000000;0.161513
9410.000000;0.161303
9409.000000;0.161074
9408.000000;0.160759
9407.000000;0.160408
9406.000000;0.160116
9405.000000;0.159881
9404.000000;0.159593
9403.000000;0.159166
9402.000000;0.158642
9401.000000;0.158149
9400.000000;0.157806
9399.000000;0.157656
9398.000000;0.157613
9397.000000;0.157476
9396.000000;0.157072
9395.000000;0.156454
9394.000000;0.155879
9393.000000;0.155528
9392.000000;0.155314
9391.000000;0.155025
9390.000000;0.154606
9389.000000;0.154182
9388.000000;0.153846
9387.000000;0.153563
9386.000000;0.153286
9385.000000;0.153046
9384.000000;0.152879
9383.000000;0.152739
9382.000000;0.152542
9381.000000;0.152271
9380.000000;0.151963
9379.000000;0.151624
9378.000000;0.151206
9377.000000;0.150692
9376.000000;0.150151
9375.000000;0.149694
9374.000000;0.149374
9373.000000;0.149162
9372.000000;0.148993
9371.000000;0.148797
9370.000000;0.148507
9369.000000;0.148089
9368.000000;0.147614
9367.000000;0.147232
9366.000000;0.147012
9365.000000;0.146845
9364.000000;0.146584
9363.000000;0.146258
9362.000000;0.146044
9361.000000;0.146009
9360.000000;0.145975
9359.000000;0.145706
9358.000000;0.145154
9357.000000;0.144471
9356.000000;0.143851
9355.000000;0.143396
9354.000000;0.143077
9353.000000;0.142758
9352.000000;0.142323
9351.000000;0.141840
9350.000000;0.141530
9349.000000;0.141513
9348.000000;0.141636
9347.000000;0.141628
9346.000000;0.141382
9345.000000;0.140996
9344.000000;0.140591
9343.000000;0.140196
9342.000000;0.139808
9341.000000;0.139443
9340.000000;0.139113
9339.000000;0.138807
9338.000000;0.138524
9337.000000;0.138270
9336.000000;0.138022
9335.000000;0.137762
9334.000000;0.137528
9333.000000;0.137373
9332.000000;0.137272
9331.000000;0.137114
9330.000000;0.136817
9329.000000;0.136395
9328.000000;0.135914
9327.000000;0.135426
9326.000000;0.134956
9325.000000;0.134518
9324.000000;0.134129
9323.000000;0.133813
9322.000000;0.133571
9321.000000;0.133345
9320.000000;0.133058
9319.000000;0.132725
9318.000000;0.132461
9317.000000;0.132330
9316.000000;0.132244
9315.000000;0.132085
9314.000000;0.131866
9313.000000;0.131654
9312.000000;0.131389
9311.000000;0.130927
9310.000000;0.130273
9309.000000;0.129646
9308.000000;0.129252
9307.000000;0.129091
9306.000000;0.129024
9305.000000;0.128944
9304.000000;0.128810
9303.000000;0.128606
9302.000000;0.128328
9301.000000;0.128002
9300.000000;0.127645
9299.000000;0.127253
9298.000000;0.126845
9297.000000;0.126498
9296.000000;0.126271
9295.000000;0.126131
9294.000000;0.125980
9293.000000;0.125736
9292.000000;0.125383
9291.000000;0.124953
9290.000000;0.124511
9289.000000;0.124133
9288.000000;0.123861
9287.000000;0.123675
9286.000000;0.123519
9285.000000;0.123339
9284.000000;0.123098
9283.000000;0.122799
9282.000000;0.122486
9281.000000;0.122227
9280.000000;0.122070
9279.000000;0.122008
9278.000000;0.121978
9277.000000;0.121862
9276.000000;0.121538
9275.000000;0.120978
9274.000000;0.120320
9273.000000;0.119774
9272.000000;0.119446
9271.000000;0.119272
9270.000000;0.119124
9269.000000;0.118926
9268.000000;0.118685
9267.000000;0.118460
9266.000000;0.118334
9265.000000;0.118328
9264.000000;0.118331
9263.000000;0.118164
9262.000000;0.117762
9261.000000;0.117252
9260.000000;0.116788
9259.000000;0.116358
9258.000000;0.115847
9257.000000;0.115257
9256.000000;0.114763
9255.000000;0.114512
9254.000000;0.114440
9253.000000;0.114357
9252.000000;0.114188
9251.000000;0.114020
9250.000000;0.113925
9249.000000;0.113828
9248.000000;0.113624
9247.000000;0.113353
9246.000000;0.113140
9245.000000;0.113001
9244.000000;0.112794
9243.000000;0.112419
9242.000000;0.111960
9241.000000;0.111563
9240.000000;0.111260
9239.000000;0.110969
9238.000000;0.110626
9237.000000;0.110236
9236.000000;0.109841
9235.000000;0.109501
9234.000000;0.109285
9233.000000;0.109202
9232.000000;0.109147
9231.000000;0.108995
9230.000000;0.108739
9229.000000;0.108465
9228.000000;0.108209
9227.000000;0.107914
9226.000000;0.107539
9225.000000;0.107121
9224.000000;0.106702
9223.000000;0.106265
9222.000000;0.105816
9221.000000;0.105450
9220.000000;0.105280
9219.000000;0.105307
9218.000000;0.105408
9217.000000;0.105435
9216.000000;0.105293
9215.000000;0.104950
9214.000000;0.104429
9213.000000;0.103826
9212.000000;0.103297
9211.000000;0.102974
9210.000000;0.102865
9209.000000;0.102863
9208.000000;0.102864
9207.000000;0.102859
9206.000000;0.102865
9205.000000;0.102799
9204.000000;0.102510
9203.000000;0.101983
9202.000000;0.101395
9201.000000;0.100928
9200.000000;0.100577
9199.000000;0.100239
9198.000000;0.099917
9197.000000;0.099725
9196.000000;0.099707
9195.000000;0.099747
9194.000000;0.099695
9193.000000;0.099497
9192.000000;0.099208
9191.000000;0.098934
9190.000000;0.098764
9189.000000;0.098697
9188.000000;0.098620
9187.000000;0.098415
9186.000000;0.098077
9185.000000;0.097684
9184.000000;0.097274
9183.000000;0.096850
9182.000000;0.096480
9181.000000;0.096272
9180.000000;0.096236
9179.000000;0.096252
9178.000000;0.096217
9177.000000;0.096131
9176.000000;0.096001
9175.000000;0.095769
9174.000000;0.095407
9173.000000;0.095012
9172.000000;0.094717
9171.000000;0.094526
9170.000000;0.094314
9169.000000;0.093967
9168.000000;0.093498
9167.000000;0.093026
9166.000000;0.092665
9165.000000;0.092430
9164.000000;0.092239
9163.000000;0.092028
9162.000000;0.091833
9161.000000;0.091712
9160.000000;0.091623
9159.000000;0.091477
9158.000000;0.091298
9157.000000;0.091202
9156.000000;0.091177
9155.000000;0.091027
9154.000000;0.090616
9153.000000;0.090072
9152.000000;0.089631
9151.000000;0.089378
9150.000000;0.089230
9149.000000;0.089122
9148.000000;0.089068
9147.000000;0.089045
9146.000000;0.088964
9145.000000;0.088767
9144.000000;0.088488
9143.000000;0.088178
9142.000000;0.087846
9141.000000;0.087490
9140.000000;0.087153
9139.000000;0.086900
9138.000000;0.086745
9137.000000;0.086621
9136.000000;0.086400
9135.000000;0.086011
9134.000000;0.085554
9133.000000;0.085245
9132.000000;0.085195
9131.000000;0.085260
9130.000000;0.085215
9129.000000;0.085035
9128.000000;0.084899
9127.000000;0.084897
9126.000000;0.084871
9125.000000;0.084621
9124.000000;0.084184
9123.000000;0.083804
9122.000000;0.083635
9121.000000;0.083589
9120.000000;0.083477
9119.000000;0.083234
9118.000000;0.082944
9117.000000;0.082712
9116.000000;0.082562
9115.000000;0.082461
9114.000000;0.082363
9113.000000;0.082213
9112.000000;0.081958
9111.000000;0.081620
9110.000000;0.081313
9109.000000;0.081131
9108.000000;0.081031
9107.000000;0.080869
9106.000000;0.080570
9105.000000;0.080206
9104.000000;0.079880
9103.000000;0.079619
9102.000000;0.079390
9101.000000;0.079166
9100.000000;0.078933
9099.000000;0.078671
9098.000000;0.078398
9097.000000;0.078204
9096.000000;0.078148
9095.000000;0.078142
9094.000000;0.078017
9093.000000;0.077715
9092.000000;0.077356
9091.000000;0.077096
9090.000000;0.076966
9089.000000;0.076879
9088.000000;0.076750
9087.000000;0.076557
9086.000000;0.076319
9085.000000;0.076061
9084.000000;0.075806
9083.000000;0.075564
9082.000000;0.075342
9081.000000;0.075146
9080.000000;0.074976
9079.000000;0.074804
9078.000000;0.074592
9077.000000;0.074355
9076.000000;0.074163
9075.000000;0.074045
9074.000000;0.073930
9073.000000;0.073711
9072.000000;0.073384
9071.000000;0.073046
9070.000000;0.072785
9069.000000;0.072617
9068.000000;0.072525
9067.000000;0.072487
9066.000000;0.072431
9065.000000;0.072243
9064.000000;0.071902
9063.000000;0.071564
9062.000000;0.071413
9061.000000;0.071430
9060.000000;0.071407
9059.000000;0.071187
9058.000000;0.070834
9057.000000;0.070518
9056.000000;0.070320
9055.000000;0.070196
9054.000000;0.070085
9053.000000;0.069967
