Criado como novo conjunto de dados;"e2410_daniel_v2.spp","19083.0 Secs"
cm-1;Abs
10000.000000;0.590426
9999.000000;0.589751
9998.000000;0.589077
9997.000000;0.588403
9996.000000;0.587731
9995.000000;0.587060
9994.000000;0.586391
9993.000000;0.585720
9992.000000;0.585055
9991.000000;0.584382
9990.000000;0.583728
9989.000000;0.582999
9988.000000;0.582188
9987.000000;0.581407
9986.000000;0.580716
9985.000000;0.580168
9984.000000;0.579761
9983.000000;0.579504
9982.000000;0.579386
9981.000000;0.579293
9980.000000;0.579037
9979.000000;0.578576
9978.000000;0.578096
9977.000000;0.577749
9976.000000;0.577410
9975.000000;0.576807
9974.000000;0.575871
9973.000000;0.574805
9972.000000;0.573854
9971.000000;0.573157
9970.000000;0.572790
9969.000000;0.572785
9968.000000;0.573004
9967.000000;0.573139
9966.000000;0.572912
9965.000000;0.572274
9964.000000;0.571378
9963.000000;0.570437
9962.000000;0.569624
9961.000000;0.569026
9960.000000;0.568611
9959.000000;0.568261
9958.000000;0.567889
9957.000000;0.567517
9956.000000;0.567210
9955.000000;0.566941
9954.000000;0.566553
9953.000000;0.565906
9952.000000;0.565066
9951.000000;0.564291
9950.000000;0.563759
9949.000000;0.563360
9948.000000;0.562839
9947.000000;0.562143
9946.000000;0.561463
9945.000000;0.560921
9944.000000;0.560379
9943.000000;0.559661
9942.000000;0.558852
9941.000000;0.558221
9940.000000;0.557900
9939.000000;0.557768
9938.000000;0.557607
9937.000000;0.557282
9936.000000;0.556808
9935.000000;0.556325
9934.000000;0.555986
9933.000000;0.555789
9932.000000;0.555547
9931.000000;0.555089
9930.000000;0.554457
9929.000000;0.553798
9928.000000;0.553140
9927.000000;0.552399
9926.000000;0.551589
9925.000000;0.550857
9924.000000;0.550310
9923.000000;0.549898
9922.000000;0.549530
9921.000000;0.549185
9920.000000;0.548894
9919.000000;0.548642
9918.000000;0.548340
9917.000000;0.547871
9916.000000;0.547168
9915.000000;0.546302
9914.000000;0.545462
9913.000000;0.544832
9912.000000;0.544455
9911.000000;0.544242
9910.000000;0.544040
9909.000000;0.543686
9908.000000;0.543084
9907.000000;0.542319
9906.000000;0.541641
9905.000000;0.541233
9904.000000;0.541017
9903.000000;0.540745
9902.000000;0.540268
9901.000000;0.539653
9900.000000;0.539080
9899.000000;0.538673
9898.000000;0.538390
9897.000000;0.538012
9896.000000;0.537315
9895.000000;0.536345
9894.000000;0.535451
9893.000000;0.534947
9892.000000;0.534802
9891.000000;0.534733
9890.000000;0.534545
9889.000000;0.534248
9888.000000;0.533891
9887.000000;0.533459
9886.000000;0.532951
9885.000000;0.532459
9884.000000;0.532090
9883.000000;0.531851
9882.000000;0.531612
9881.000000;0.531178
9880.000000;0.530438
9879.000000;0.529517
9878.000000;0.528708
9877.000000;0.528194
9876.000000;0.527896
9875.000000;0.527638
9874.000000;0.527348
9873.000000;0.526994
9872.000000;0.526473
9871.000000;0.525762
9870.000000;0.525105
9869.000000;0.524799
9868.000000;0.524800
9867.000000;0.524749
9866.000000;0.524416
9865.000000;0.523931
9864.000000;0.523506
9863.000000;0.523128
9862.000000;0.522629
9861.000000;0.521937
9860.000000;0.521121
9859.000000;0.520293
9858.000000;0.519541
9857.000000;0.518929
9856.000000;0.518466
9855.000000;0.518107
9854.000000;0.517823
9853.000000;0.517599
9852.000000;0.517350
9851.000000;0.516905
9850.000000;0.516162
9849.000000;0.515233
9848.000000;0.514369
9847.000000;0.513757
9846.000000;0.513414
9845.000000;0.513244
9844.000000;0.513152
9843.000000;0.513093
9842.000000;0.513022
9841.000000;0.512803
9840.000000;0.512266
9839.000000;0.511404
9838.000000;0.510468
9837.000000;0.509768
9836.000000;0.509374
9835.000000;0.509082
9834.000000;0.508664
9833.000000;0.508080
9832.000000;0.507443
9831.000000;0.506844
9830.000000;0.506285
9829.000000;0.505721
9828.000000;0.505125
9827.000000;0.504525
9826.000000;0.503963
9825.000000;0.503443
9824.000000;0.502932
9823.000000;0.502446
9822.000000;0.502080
9821.000000;0.501902
9820.000000;0.501844
9819.000000;0.501755
9818.000000;0.501538
9817.000000;0.501196
9816.000000;0.500786
9815.000000;0.500370
9814.000000;0.499980
9813.000000;0.499557
9812.000000;0.498971
9811.000000;0.498167
9810.000000;0.497273
9809.000000;0.496491
9808.000000;0.495941
9807.000000;0.495636
9806.000000;0.495521
9805.000000;0.495436
9804.000000;0.495129
9803.000000;0.494470
9802.000000;0.493632
9801.000000;0.492912
9800.000000;0.492414
9799.000000;0.492018
9798.000000;0.491626
9797.000000;0.491264
9796.000000;0.490921
9795.000000;0.490475
9794.000000;0.489861
9793.000000;0.489158
9792.000000;0.488452
9791.000000;0.487745
9790.000000;0.487083
9789.000000;0.486637
9788.000000;0.486503
9787.000000;0.486510
9786.000000;0.486362
9785.000000;0.485957
9784.000000;0.485429
9783.000000;0.484907
9782.000000;0.484351
9781.000000;0.483671
9780.000000;0.482920
9779.000000;0.482262
9778.000000;0.481790
9777.000000;0.481441
9776.000000;0.481091
9775.000000;0.480696
9774.000000;0.480299
9773.000000;0.479908
9772.000000;0.479451
9771.000000;0.478862
9770.000000;0.478184
9769.000000;0.477546
9768.000000;0.477033
9767.000000;0.476637
9766.000000;0.476299
9765.000000;0.475958
9764.000000;0.475554
9763.000000;0.475050
9762.000000;0.474471
9761.000000;0.473916
9760.000000;0.473484
9759.000000;0.473201
9758.000000;0.473001
9757.000000;0.472774
9756.000000;0.472441
9755.000000;0.471988
9754.000000;0.471455
9753.000000;0.470914
9752.000000;0.470450
9751.000000;0.470132
9750.000000;0.469930
9749.000000;0.469691
9748.000000;0.469250
9747.000000;0.468587
9746.000000;0.467830
9745.000000;0.467114
9744.000000;0.466499
9743.000000;0.466021
9742.000000;0.465708
9741.000000;0.465521
9740.000000;0.465343
9739.000000;0.465090
9738.000000;0.464750
9737.000000;0.464291
9736.000000;0.463619
9735.000000;0.462742
9734.000000;0.461875
9733.000000;0.461275
9732.000000;0.460988
9731.000000;0.460825
9730.000000;0.460560
9729.000000;0.460103
9728.000000;0.459498
9727.000000;0.458847
9726.000000;0.458249
9725.000000;0.457758
9724.000000;0.457393
9723.000000;0.457153
9722.000000;0.456978
9721.000000;0.456711
9720.000000;0.456203
9719.000000;0.455499
9718.000000;0.454827
9717.000000;0.454358
9716.000000;0.454042
9715.000000;0.453742
9714.000000;0.453425
9713.000000;0.453134
9712.000000;0.452856
9711.000000;0.452540
9710.000000;0.452182
9709.000000;0.451786
9708.000000;0.451273
9707.000000;0.450551
9706.000000;0.449665
9705.000000;0.448800
9704.000000;0.448140
9703.000000;0.447756
9702.000000;0.447598
9701.000000;0.447526
9700.000000;0.447391
9699.000000;0.447140
9698.000000;0.446805
9697.000000;0.446373
9696.000000;0.445770
9695.000000;0.445031
9694.000000;0.444384
9693.000000;0.444009
9692.000000;0.443801
9691.000000;0.443501
9690.000000;0.443011
9689.000000;0.442450
9688.000000;0.441925
9687.000000;0.441425
9686.000000;0.440931
9685.000000;0.440495
9684.000000;0.440163
9683.000000;0.439903
9682.000000;0.439652
9681.000000;0.439363
9680.000000;0.439014
9679.000000;0.438610
9678.000000;0.438180
9677.000000;0.437717
9676.000000;0.437157
9675.000000;0.436496
9674.000000;0.435868
9673.000000;0.435424
9672.000000;0.435156
9671.000000;0.434933
9670.000000;0.434682
9669.000000;0.434398
9668.000000;0.434026
9667.000000;0.433469
9666.000000;0.432764
9665.000000;0.432114
9664.000000;0.431683
9663.000000;0.431417
9662.000000;0.431108
9661.000000;0.430609
9660.000000;0.429947
9659.000000;0.429278
9658.000000;0.428723
9657.000000;0.428259
9656.000000;0.427767
9655.000000;0.427201
9654.000000;0.426672
9653.000000;0.426324
9652.000000;0.426186
9651.000000;0.426183
9650.000000;0.426210
9649.000000;0.426149
9648.000000;0.425874
9647.000000;0.425380
9646.000000;0.424822
9645.000000;0.424341
9644.000000;0.423879
9643.000000;0.423288
9642.000000;0.422576
9641.000000;0.421914
9640.000000;0.421407
9639.000000;0.420991
9638.000000;0.420560
9637.000000;0.420095
9636.000000;0.419652
9635.000000;0.419295
9634.000000;0.419057
9633.000000;0.418878
9632.000000;0.418595
9631.000000;0.418072
9630.000000;0.417364
9629.000000;0.416663
9628.000000;0.416094
9627.000000;0.415632
9626.000000;0.415203
9625.000000;0.414778
9624.000000;0.414338
9623.000000;0.413852
9622.000000;0.413329
9621.000000;0.412857
9620.000000;0.412556
9619.000000;0.412478
9618.000000;0.412534
9617.000000;0.412511
9616.000000;0.412217
9615.000000;0.411659
9614.000000;0.411004
9613.000000;0.410368
9612.000000;0.409735
9611.000000;0.409116
9610.000000;0.408647
9609.000000;0.408391
9608.000000;0.408193
9607.000000;0.407881
9606.000000;0.407523
9605.000000;0.407299
9604.000000;0.407168
9603.000000;0.406907
9602.000000;0.406438
9601.000000;0.405927
9600.000000;0.405512
9599.000000;0.405128
9598.000000;0.404670
9597.000000;0.404155
9596.000000;0.403659
9595.000000;0.403196
9594.000000;0.402750
9593.000000;0.402316
9592.000000;0.401875
9591.000000;0.401400
9590.000000;0.400918
9589.000000;0.400476
9588.000000;0.400059
9587.000000;0.399622
9586.000000;0.399191
9585.000000;0.398820
9584.000000;0.398457
9583.000000;0.397998
9582.000000;0.397509
9581.000000;0.397202
9580.000000;0.397150
9579.000000;0.397140
9578.000000;0.396906
9577.000000;0.396392
9576.000000;0.395744
9575.000000;0.395154
9574.000000;0.394775
9573.000000;0.394659
9572.000000;0.394669
9571.000000;0.394541
9570.000000;0.394118
9569.000000;0.393477
9568.000000;0.392802
9567.000000;0.392207
9566.000000;0.391740
9565.000000;0.391420
9564.000000;0.391184
9563.000000;0.390885
9562.000000;0.390423
9561.000000;0.389842
9560.000000;0.389239
9559.000000;0.388660
9558.000000;0.388156
9557.000000;0.387808
9556.000000;0.387595
9555.000000;0.387309
9554.000000;0.386748
9553.000000;0.385979
9552.000000;0.385281
9551.000000;0.384862
9550.000000;0.384684
9549.000000;0.384587
9548.000000;0.384451
9547.000000;0.384243
9546.000000;0.383968
9545.000000;0.383634
9544.000000;0.383239
9543.000000;0.382785
9542.000000;0.382299
9541.000000;0.381841
9540.000000;0.381467
9539.000000;0.381193
9538.000000;0.380992
9537.000000;0.380804
9536.000000;0.380552
9535.000000;0.380188
9534.000000;0.379736
9533.000000;0.379275
9532.000000;0.378877
9531.000000;0.378572
9530.000000;0.378351
9529.000000;0.378154
9528.000000;0.377871
9527.000000;0.377430
9526.000000;0.376882
9525.000000;0.376331
9524.000000;0.375805
9523.000000;0.375254
9522.000000;0.374706
9521.000000;0.374293
9520.000000;0.374074
9519.000000;0.373925
9518.000000;0.373668
9517.000000;0.373257
9516.000000;0.372767
9515.000000;0.372263
9514.000000;0.371773
9513.000000;0.371335
9512.000000;0.370977
9511.000000;0.370654
9510.000000;0.370281
9509.000000;0.369836
9508.000000;0.369378
9507.000000;0.368958
9506.000000;0.368548
9505.000000;0.368085
9504.000000;0.367557
9503.000000;0.367044
9502.000000;0.366679
9501.000000;0.366541
9500.000000;0.366553
9499.000000;0.366511
9498.000000;0.366250
9497.000000;0.365782
9496.000000;0.365252
9495.000000;0.364780
9494.000000;0.364400
9493.000000;0.364107
9492.000000;0.363887
9491.000000;0.363660
9490.000000;0.363275
9489.000000;0.362641
9488.000000;0.361862
9487.000000;0.361185
9486.000000;0.360794
9485.000000;0.360657
9484.000000;0.360594
9483.000000;0.360444
9482.000000;0.360160
9481.000000;0.359770
9480.000000;0.359321
9479.000000;0.358874
9478.000000;0.358504
9477.000000;0.358254
9476.000000;0.358077
9475.000000;0.357857
9474.000000;0.357494
9473.000000;0.356979
9472.000000;0.356406
9471.000000;0.355912
9470.000000;0.355588
9469.000000;0.355402
9468.000000;0.355215
9467.000000;0.354886
9466.000000;0.354382
9465.000000;0.353797
9464.000000;0.353250
9463.000000;0.352798
9462.000000;0.352415
9461.000000;0.352058
9460.000000;0.351733
9459.000000;0.351492
9458.000000;0.351340
9457.000000;0.351181
9456.000000;0.350879
9455.000000;0.350391
9454.000000;0.349829
9453.000000;0.349373
9452.000000;0.349133
9451.000000;0.349074
9450.000000;0.349055
9449.000000;0.348925
9448.000000;0.348637
9447.000000;0.348267
9446.000000;0.347916
9445.000000;0.347576
9444.000000;0.347157
9443.000000;0.346636
9442.000000;0.346132
9441.000000;0.345772
9440.000000;0.345535
9439.000000;0.345266
9438.000000;0.344833
9437.000000;0.344244
9436.000000;0.343613
9435.000000;0.343048
9434.000000;0.342573
9433.000000;0.342160
9432.000000;0.341823
9431.000000;0.341639
9430.000000;0.341626
9429.000000;0.341632
9428.000000;0.341440
9427.000000;0.341012
9426.000000;0.340552
9425.000000;0.340275
9424.000000;0.340164
9423.000000;0.340004
9422.000000;0.339636
9421.000000;0.339109
9420.000000;0.338627
9419.000000;0.338351
9418.000000;0.338238
9417.000000;0.338066
9416.000000;0.337649
9415.000000;0.337047
9414.000000;0.336512
9413.000000;0.336211
9412.000000;0.336062
9411.000000;0.335866
9410.000000;0.335513
9409.000000;0.335024
9408.000000;0.334475
9407.000000;0.333965
9406.000000;0.333594
9405.000000;0.333366
9404.000000;0.333157
9403.000000;0.332842
9402.000000;0.332444
9401.000000;0.332068
9400.000000;0.331735
9399.000000;0.331373
9398.000000;0.330974
9397.000000;0.330650
9396.000000;0.330483
9395.000000;0.330396
9394.000000;0.330203
9393.000000;0.329779
9392.000000;0.329155
9391.000000;0.328491
9390.000000;0.327954
9389.000000;0.327623
9388.000000;0.327462
9387.000000;0.327395
9386.000000;0.327349
9385.000000;0.327246
9384.000000;0.327019
9383.000000;0.326683
9382.000000;0.326357
9381.000000;0.326156
9380.000000;0.326061
9379.000000;0.325936
9378.000000;0.325640
9377.000000;0.325121
9376.000000;0.324438
9375.000000;0.323757
9374.000000;0.323260
9373.000000;0.322994
9372.000000;0.322815
9371.000000;0.322531
9370.000000;0.322106
9369.000000;0.321674
9368.000000;0.321375
9367.000000;0.321229
9366.000000;0.321158
9365.000000;0.321058
9364.000000;0.320853
9363.000000;0.320526
9362.000000;0.320137
9361.000000;0.319770
9360.000000;0.319448
9359.000000;0.319127
9358.000000;0.318767
9357.000000;0.318403
9356.000000;0.318107
9355.000000;0.317909
9354.000000;0.317747
9353.000000;0.317528
9352.000000;0.317218
9351.000000;0.316867
9350.000000;0.316525
9349.000000;0.316158
9348.000000;0.315703
9347.000000;0.315175
9346.000000;0.314683
9345.000000;0.314310
9344.000000;0.314042
9343.000000;0.313809
9342.000000;0.313555
9341.000000;0.313245
9340.000000;0.312869
9339.000000;0.312465
9338.000000;0.312083
9337.000000;0.311726
9336.000000;0.311373
9335.000000;0.311061
9334.000000;0.310859
9333.000000;0.310748
9332.000000;0.310613
9331.000000;0.310390
9330.000000;0.310133
9329.000000;0.309884
9328.000000;0.309599
9327.000000;0.309254
9326.000000;0.308927
9325.000000;0.308680
9324.000000;0.308438
9323.000000;0.308092
9322.000000;0.307655
9321.000000;0.307212
9320.000000;0.306778
9319.000000;0.306323
9318.000000;0.305899
9317.000000;0.305611
9316.000000;0.305453
9315.000000;0.305277
9314.000000;0.304962
9313.000000;0.304547
9312.000000;0.304174
9311.000000;0.303950
9310.000000;0.303864
9309.000000;0.303810
9308.000000;0.303665
9307.000000;0.303397
9306.000000;0.303062
9305.000000;0.302717
9304.000000;0.302364
9303.000000;0.301995
9302.000000;0.301628
9301.000000;0.301272
9300.000000;0.300907
9299.000000;0.300563
9298.000000;0.300323
9297.000000;0.300199
9296.000000;0.300077
9295.000000;0.299856
9294.000000;0.299589
9293.000000;0.299371
9292.000000;0.299171
9291.000000;0.298871
9290.000000;0.298449
9289.000000;0.298016
9288.000000;0.297686
9287.000000;0.297489
9286.000000;0.297389
9285.000000;0.297298
9284.000000;0.297102
9283.000000;0.296757
9282.000000;0.296373
9281.000000;0.296119
9280.000000;0.296053
9279.000000;0.296080
9278.000000;0.296033
9277.000000;0.295752
9276.000000;0.295155
9275.000000;0.294358
9274.000000;0.293673
9273.000000;0.293343
9272.000000;0.293291
9271.000000;0.293210
9270.000000;0.292925
9269.000000;0.292547
9268.000000;0.292256
9267.000000;0.292083
9266.000000;0.291946
9265.000000;0.291792
9264.000000;0.291621
9263.000000;0.291422
9262.000000;0.291150
9261.000000;0.290764
9260.000000;0.290274
9259.000000;0.289779
9258.000000;0.289432
9257.000000;0.289314
9256.000000;0.289324
9255.000000;0.289271
9254.000000;0.289072
9253.000000;0.288791
9252.000000;0.288479
9251.000000;0.288083
9250.000000;0.287558
9249.000000;0.287003
9248.000000;0.286590
9247.000000;0.286395
9246.000000;0.286333
9245.000000;0.286265
9244.000000;0.286116
9243.000000;0.285902
9242.000000;0.285675
9241.000000;0.285463
9240.000000;0.285253
9239.000000;0.285018
9238.000000;0.284721
9237.000000;0.284329
9236.000000;0.283854
9235.000000;0.283396
9234.000000;0.283085
9233.000000;0.282941
9232.000000;0.282839
9231.000000;0.282638
9230.000000;0.282333
9229.000000;0.282014
9228.000000;0.281735
9227.000000;0.281493
9226.000000;0.281311
9225.000000;0.281248
9224.000000;0.281295
9223.000000;0.281326
9222.000000;0.281197
9221.000000;0.280871
9220.000000;0.280433
9219.000000;0.279993
9218.000000;0.279600
9217.000000;0.279221
9216.000000;0.278803
9215.000000;0.278357
9214.000000;0.277952
9213.000000;0.277633
9212.000000;0.277377
9211.000000;0.277152
9210.000000;0.276976
9209.000000;0.276865
9208.000000;0.276776
9207.000000;0.276643
9206.000000;0.276458
9205.000000;0.276271
9204.000000;0.276103
9203.000000;0.275920
9202.000000;0.275679
9201.000000;0.275379
9200.000000;0.275050
9199.000000;0.274725
9198.000000;0.274426
9197.000000;0.274147
9196.000000;0.273863
9195.000000;0.273561
9194.000000;0.273252
9193.000000;0.272955
9192.000000;0.272682
9191.000000;0.272445
9190.000000;0.272246
9189.000000;0.272050
9188.000000;0.271821
9187.000000;0.271584
9186.000000;0.271408
9185.000000;0.271304
9184.000000;0.271207
9183.000000;0.271069
9182.000000;0.270888
9181.000000;0.270629
9180.000000;0.270223
9179.000000;0.269707
9178.000000;0.269270
9177.000000;0.269059
9176.000000;0.269001
9175.000000;0.268919
9174.000000;0.268758
9173.000000;0.268590
9172.000000;0.268427
9171.000000;0.268190
9170.000000;0.267845
9169.000000;0.267473
9168.000000;0.267165
9167.000000;0.266936
9166.000000;0.266752
9165.000000;0.266585
9164.000000;0.266408
9163.000000;0.266209
9162.000000;0.266008
9161.000000;0.265827
9160.000000;0.265635
9159.000000;0.265369
9158.000000;0.265035
9157.000000;0.264722
9156.000000;0.264509
9155.000000;0.264379
9154.000000;0.264241
9153.000000;0.264013
9152.000000;0.263685
9151.000000;0.263324
9150.000000;0.263012
9149.000000;0.262758
9148.000000;0.262488
9147.000000;0.262155
9146.000000;0.261812
9145.000000;0.261544
9144.000000;0.261362
9143.000000;0.261216
9142.000000;0.261091
9141.000000;0.261003
9140.000000;0.260931
9139.000000;0.260817
9138.000000;0.260629
9137.000000;0.260393
9136.000000;0.260143
9135.000000;0.259891
9134.000000;0.259642
9133.000000;0.259405
9132.000000;0.259189
9131.000000;0.258983
9130.000000;0.258740
9129.000000;0.258410
9128.000000;0.258030
9127.000000;0.257762
9126.000000;0.257751
9125.000000;0.257923
9124.000000;0.258021
9123.000000;0.257889
9122.000000;0.257627
9121.000000;0.257400
9120.000000;0.257207
9119.000000;0.256943
9118.000000;0.256602
9117.000000;0.256287
9116.000000;0.256059
9115.000000;0.255889
9114.000000;0.255742
9113.000000;0.255586
9112.000000;0.255361
9111.000000;0.255051
9110.000000;0.254759
9109.000000;0.254602
9108.000000;0.254512
9107.000000;0.254295
9106.000000;0.253887
9105.000000;0.253446
9104.000000;0.253155
9103.000000;0.253040
9102.000000;0.253016
9101.000000;0.253010
9100.000000;0.252965
9099.000000;0.252814
9098.000000;0.252529
9097.000000;0.252168
9096.000000;0.251839
9095.000000;0.251615
9094.000000;0.251499
9093.000000;0.251420
9092.000000;0.251277
9091.000000;0.251011
9090.000000;0.250670
9089.000000;0.250358
9088.000000;0.250121
9087.000000;0.249932
9086.000000;0.249756
9085.000000;0.249581
9084.000000;0.249366
9083.000000;0.249055
9082.000000;0.248662
9081.000000;0.248288
9080.000000;0.248020
9079.000000;0.247834
9078.000000;0.247645
9077.000000;0.247427
9076.000000;0.247254
9075.000000;0.247231
9074.000000;0.247378
9073.000000;0.247584
9072.000000;0.247675
9071.000000;0.247540
9070.000000;0.247195
9069.000000;0.246741
9068.000000;0.246302
9067.000000;0.245999
9066.000000;0.245891
9065.000000;0.245893
9064.000000;0.245812
9063.000000;0.245547
9062.000000;0.245208
9061.000000;0.244954
9060.000000;0.244775
9059.000000;0.244547
9058.000000;0.244251
9057.000000;0.243995
9056.000000;0.243821
9055.000000;0.243642
9054.000000;0.243404
9053.000000;0.243202
