Criado como novo conjunto de dados;"e2410_daniel_v2.spp","23942.8 Secs"
cm-1;Abs
10000.000000;0.544406
9999.000000;0.543913
9998.000000;0.543431
9997.000000;0.542814
9996.000000;0.542077
9995.000000;0.541488
9994.000000;0.541162
9993.000000;0.540933
9992.000000;0.540632
9991.000000;0.540268
9990.000000;0.539836
9989.000000;0.539262
9988.000000;0.538600
9987.000000;0.538023
9986.000000;0.537554
9985.000000;0.537054
9984.000000;0.536504
9983.000000;0.536032
9982.000000;0.535633
9981.000000;0.535149
9980.000000;0.534566
9979.000000;0.534031
9978.000000;0.533557
9977.000000;0.533008
9976.000000;0.532433
9975.000000;0.532079
9974.000000;0.531978
9973.000000;0.531819
9972.000000;0.531338
9971.000000;0.530590
9970.000000;0.529731
9969.000000;0.528818
9968.000000;0.527919
9967.000000;0.527189
9966.000000;0.526725
9965.000000;0.526505
9964.000000;0.526511
9963.000000;0.526686
9962.000000;0.526778
9961.000000;0.526488
9960.000000;0.525814
9959.000000;0.525025
9958.000000;0.524284
9957.000000;0.523556
9956.000000;0.522878
9955.000000;0.522373
9954.000000;0.521965
9953.000000;0.521393
9952.000000;0.520609
9951.000000;0.519869
9950.000000;0.519362
9949.000000;0.519015
9948.000000;0.518719
9947.000000;0.518469
9946.000000;0.518182
9945.000000;0.517665
9944.000000;0.516911
9943.000000;0.516177
9942.000000;0.515639
9941.000000;0.515199
9940.000000;0.514727
9939.000000;0.514284
9938.000000;0.513963
9937.000000;0.513703
9936.000000;0.513361
9935.000000;0.512863
9934.000000;0.512228
9933.000000;0.511557
9932.000000;0.511028
9931.000000;0.510721
9930.000000;0.510453
9929.000000;0.509957
9928.000000;0.509222
9927.000000;0.508494
9926.000000;0.507929
9925.000000;0.507451
9924.000000;0.506963
9923.000000;0.506494
9922.000000;0.506138
9921.000000;0.505963
9920.000000;0.505968
9919.000000;0.505978
9918.000000;0.505673
9917.000000;0.504914
9916.000000;0.503946
9915.000000;0.503079
9914.000000;0.502308
9913.000000;0.501503
9912.000000;0.500820
9911.000000;0.500553
9910.000000;0.500652
9909.000000;0.500724
9908.000000;0.500500
9907.000000;0.499988
9906.000000;0.499226
9905.000000;0.498235
9904.000000;0.497231
9903.000000;0.496517
9902.000000;0.496108
9901.000000;0.495754
9900.000000;0.495330
9899.000000;0.494940
9898.000000;0.494622
9897.000000;0.494283
9896.000000;0.493916
9895.000000;0.493582
9894.000000;0.493169
9893.000000;0.492496
9892.000000;0.491661
9891.000000;0.490949
9890.000000;0.490392
9889.000000;0.489777
9888.000000;0.489089
9887.000000;0.488572
9886.000000;0.488284
9885.000000;0.487988
9884.000000;0.487585
9883.000000;0.487287
9882.000000;0.487228
9881.000000;0.487213
9880.000000;0.486994
9879.000000;0.486556
9878.000000;0.485985
9877.000000;0.485318
9876.000000;0.484618
9875.000000;0.483975
9874.000000;0.483344
9873.000000;0.482615
9872.000000;0.481852
9871.000000;0.481248
9870.000000;0.480801
9869.000000;0.480349
9868.000000;0.479924
9867.000000;0.479733
9866.000000;0.479715
9865.000000;0.479464
9864.000000;0.478756
9863.000000;0.477870
9862.000000;0.477216
9861.000000;0.476900
9860.000000;0.476746
9859.000000;0.476548
9858.000000;0.476165
9857.000000;0.475587
9856.000000;0.475005
9855.000000;0.474628
9854.000000;0.474391
9853.000000;0.474039
9852.000000;0.473514
9851.000000;0.473028
9850.000000;0.472691
9849.000000;0.472342
9848.000000;0.471819
9847.000000;0.471150
9846.000000;0.470432
9845.000000;0.469726
9844.000000;0.469149
9843.000000;0.468799
9842.000000;0.468554
9841.000000;0.468161
9840.000000;0.467567
9839.000000;0.466924
9838.000000;0.466262
9837.000000;0.465476
9836.000000;0.464644
9835.000000;0.464061
9834.000000;0.463843
9833.000000;0.463769
9832.000000;0.463571
9831.000000;0.463157
9830.000000;0.462517
9829.000000;0.461716
9828.000000;0.461017
9827.000000;0.460691
9826.000000;0.460603
9825.000000;0.460282
9824.000000;0.459518
9823.000000;0.458609
9822.000000;0.457919
9821.000000;0.457471
9820.000000;0.457106
9819.000000;0.456750
9818.000000;0.456376
9817.000000;0.455974
9816.000000;0.455670
9815.000000;0.455628
9814.000000;0.455693
9813.000000;0.455416
9812.000000;0.454599
9811.000000;0.453563
9810.000000;0.452707
9809.000000;0.452052
9808.000000;0.451401
9807.000000;0.450733
9806.000000;0.450182
9805.000000;0.449773
9804.000000;0.449394
9803.000000;0.448954
9802.000000;0.448462
9801.000000;0.448003
9800.000000;0.447703
9799.000000;0.447605
9798.000000;0.447533
9797.000000;0.447240
9796.000000;0.446721
9795.000000;0.446226
9794.000000;0.445895
9793.000000;0.445595
9792.000000;0.445177
9791.000000;0.444704
9790.000000;0.444293
9789.000000;0.443917
9788.000000;0.443481
9787.000000;0.443002
9786.000000;0.442558
9785.000000;0.442155
9784.000000;0.441715
9783.000000;0.441178
9782.000000;0.440572
9781.000000;0.440013
9780.000000;0.439596
9779.000000;0.439241
9778.000000;0.438721
9777.000000;0.437953
9776.000000;0.437160
9775.000000;0.436593
9774.000000;0.436202
9773.000000;0.435789
9772.000000;0.435348
9771.000000;0.435004
9770.000000;0.434703
9769.000000;0.434262
9768.000000;0.433689
9767.000000;0.433148
9766.000000;0.432627
9765.000000;0.431948
9764.000000;0.431154
9763.000000;0.430563
9762.000000;0.430336
9761.000000;0.430258
9760.000000;0.430038
9759.000000;0.429615
9758.000000;0.429090
9757.000000;0.428546
9756.000000;0.428040
9755.000000;0.427594
9754.000000;0.427135
9753.000000;0.426585
9752.000000;0.426035
9751.000000;0.425663
9750.000000;0.425462
9749.000000;0.425244
9748.000000;0.424904
9747.000000;0.424505
9746.000000;0.424094
9745.000000;0.423637
9744.000000;0.423136
9743.000000;0.422624
9742.000000;0.422039
9741.000000;0.421338
9740.000000;0.420686
9739.000000;0.420293
9738.000000;0.420070
9737.000000;0.419711
9736.000000;0.419131
9735.000000;0.418557
9734.000000;0.418171
9733.000000;0.417922
9732.000000;0.417714
9731.000000;0.417512
9730.000000;0.417194
9729.000000;0.416592
9728.000000;0.415765
9727.000000;0.415003
9726.000000;0.414471
9725.000000;0.414072
9724.000000;0.413696
9723.000000;0.413371
9722.000000;0.413104
9721.000000;0.412793
9720.000000;0.412398
9719.000000;0.411978
9718.000000;0.411515
9717.000000;0.410930
9716.000000;0.410325
9715.000000;0.409963
9714.000000;0.409900
9713.000000;0.409833
9712.000000;0.409436
9711.000000;0.408681
9710.000000;0.407764
9709.000000;0.406891
9708.000000;0.406210
9707.000000;0.405767
9706.000000;0.405460
9705.000000;0.405155
9704.000000;0.404860
9703.000000;0.404656
9702.000000;0.404466
9701.000000;0.404100
9700.000000;0.403527
9699.000000;0.402921
9698.000000;0.402408
9697.000000;0.401981
9696.000000;0.401659
9695.000000;0.401470
9694.000000;0.401268
9693.000000;0.400801
9692.000000;0.400042
9691.000000;0.399248
9690.000000;0.398632
9689.000000;0.398168
9688.000000;0.397767
9687.000000;0.397420
9686.000000;0.397123
9685.000000;0.396813
9684.000000;0.396459
9683.000000;0.396053
9682.000000;0.395543
9681.000000;0.394923
9680.000000;0.394377
9679.000000;0.394121
9678.000000;0.394108
9677.000000;0.394105
9676.000000;0.393994
9675.000000;0.393774
9674.000000;0.393321
9673.000000;0.392491
9672.000000;0.391485
9671.000000;0.390754
9670.000000;0.390443
9669.000000;0.390246
9668.000000;0.389879
9667.000000;0.389416
9666.000000;0.389014
9665.000000;0.388589
9664.000000;0.387964
9663.000000;0.387172
9662.000000;0.386424
9661.000000;0.385892
9660.000000;0.385624
9659.000000;0.385525
9658.000000;0.385381
9657.000000;0.385047
9656.000000;0.384634
9655.000000;0.384358
9654.000000;0.384193
9653.000000;0.383873
9652.000000;0.383282
9651.000000;0.382624
9650.000000;0.382132
9649.000000;0.381815
9648.000000;0.381548
9647.000000;0.381240
9646.000000;0.380833
9645.000000;0.380307
9644.000000;0.379759
9643.000000;0.379322
9642.000000;0.378986
9641.000000;0.378636
9640.000000;0.378264
9639.000000;0.377932
9638.000000;0.377559
9637.000000;0.376986
9636.000000;0.376289
9635.000000;0.375771
9634.000000;0.375552
9633.000000;0.375399
9632.000000;0.375036
9631.000000;0.374427
9630.000000;0.373690
9629.000000;0.372944
9628.000000;0.372331
9627.000000;0.371979
9626.000000;0.371855
9625.000000;0.371778
9624.000000;0.371628
9623.000000;0.371399
9622.000000;0.371020
9621.000000;0.370383
9620.000000;0.369566
9619.000000;0.368826
9618.000000;0.368289
9617.000000;0.367858
9616.000000;0.367452
9615.000000;0.367111
9614.000000;0.366812
9613.000000;0.366419
9612.000000;0.365935
9611.000000;0.365561
9610.000000;0.365384
9609.000000;0.365208
9608.000000;0.364829
9607.000000;0.364300
9606.000000;0.363795
9605.000000;0.363368
9604.000000;0.362978
9603.000000;0.362619
9602.000000;0.362280
9601.000000;0.361879
9600.000000;0.361360
9599.000000;0.360770
9598.000000;0.360184
9597.000000;0.359643
9596.000000;0.359216
9595.000000;0.358988
9594.000000;0.358925
9593.000000;0.358846
9592.000000;0.358584
9591.000000;0.358118
9590.000000;0.357515
9589.000000;0.356875
9588.000000;0.356322
9587.000000;0.355920
9586.000000;0.355584
9585.000000;0.355192
9584.000000;0.354769
9583.000000;0.354451
9582.000000;0.354265
9581.000000;0.354108
9580.000000;0.353920
9579.000000;0.353711
9578.000000;0.353421
9577.000000;0.352948
9576.000000;0.352353
9575.000000;0.351825
9574.000000;0.351413
9573.000000;0.350977
9572.000000;0.350443
9571.000000;0.349907
9570.000000;0.349437
9569.000000;0.348945
9568.000000;0.348354
9567.000000;0.347734
9566.000000;0.347197
9565.000000;0.346770
9564.000000;0.346448
9563.000000;0.346234
9562.000000;0.346064
9561.000000;0.345790
9560.000000;0.345309
9559.000000;0.344657
9558.000000;0.343959
9557.000000;0.343351
9556.000000;0.342933
9555.000000;0.342686
9554.000000;0.342458
9553.000000;0.342135
9552.000000;0.341781
9551.000000;0.341518
9550.000000;0.341315
9549.000000;0.341050
9548.000000;0.340717
9547.000000;0.340406
9546.000000;0.340108
9545.000000;0.339714
9544.000000;0.339190
9543.000000;0.338605
9542.000000;0.338019
9541.000000;0.337496
9540.000000;0.337192
9539.000000;0.337211
9538.000000;0.337382
9537.000000;0.337356
9536.000000;0.336958
9535.000000;0.336271
9534.000000;0.335457
9533.000000;0.334663
9532.000000;0.334088
9531.000000;0.333871
9530.000000;0.333883
9529.000000;0.333808
9528.000000;0.333488
9527.000000;0.333026
9526.000000;0.332561
9525.000000;0.332132
9524.000000;0.331769
9523.000000;0.331506
9522.000000;0.331249
9521.000000;0.330830
9520.000000;0.330243
9519.000000;0.329668
9518.000000;0.329241
9517.000000;0.328944
9516.000000;0.328722
9515.000000;0.328520
9514.000000;0.328207
9513.000000;0.327664
9512.000000;0.326983
9511.000000;0.326429
9510.000000;0.326136
9509.000000;0.326001
9508.000000;0.325873
9507.000000;0.325701
9506.000000;0.325465
9505.000000;0.325116
9504.000000;0.324669
9503.000000;0.324205
9502.000000;0.323762
9501.000000;0.323313
9500.000000;0.322861
9499.000000;0.322444
9498.000000;0.322044
9497.000000;0.321627
9496.000000;0.321224
9495.000000;0.320854
9494.000000;0.320408
9493.000000;0.319781
9492.000000;0.319082
9491.000000;0.318565
9490.000000;0.318336
9489.000000;0.318279
9488.000000;0.318237
9487.000000;0.318113
9486.000000;0.317835
9485.000000;0.317397
9484.000000;0.316945
9483.000000;0.316645
9482.000000;0.316477
9481.000000;0.316290
9480.000000;0.316029
9479.000000;0.315742
9478.000000;0.315416
9477.000000;0.314993
9476.000000;0.314514
9475.000000;0.314075
9474.000000;0.313651
9473.000000;0.313160
9472.000000;0.312662
9471.000000;0.312322
9470.000000;0.312172
9469.000000;0.312073
9468.000000;0.311904
9467.000000;0.311613
9466.000000;0.311134
9465.000000;0.310449
9464.000000;0.309716
9463.000000;0.309154
9462.000000;0.308772
9461.000000;0.308412
9460.000000;0.308006
9459.000000;0.307637
9458.000000;0.307368
9457.000000;0.307191
9456.000000;0.307110
9455.000000;0.307082
9454.000000;0.306924
9453.000000;0.306481
9452.000000;0.305866
9451.000000;0.305340
9450.000000;0.304967
9449.000000;0.304616
9448.000000;0.304235
9447.000000;0.303902
9446.000000;0.303608
9445.000000;0.303253
9444.000000;0.302854
9443.000000;0.302547
9442.000000;0.302332
9441.000000;0.302043
9440.000000;0.301601
9439.000000;0.301102
9438.000000;0.300630
9437.000000;0.300185
9436.000000;0.299805
9435.000000;0.299553
9434.000000;0.299353
9433.000000;0.299044
9432.000000;0.298620
9431.000000;0.298237
9430.000000;0.297969
9429.000000;0.297732
9428.000000;0.297484
9427.000000;0.297278
9426.000000;0.297094
9425.000000;0.296814
9424.000000;0.296392
9423.000000;0.295892
9422.000000;0.295347
9421.000000;0.294773
9420.000000;0.294302
9419.000000;0.294087
9418.000000;0.294047
9417.000000;0.293917
9416.000000;0.293594
9415.000000;0.293234
9414.000000;0.292984
9413.000000;0.292808
9412.000000;0.292609
9411.000000;0.292342
9410.000000;0.291959
9409.000000;0.291426
9408.000000;0.290857
9407.000000;0.290432
9406.000000;0.290170
9405.000000;0.289914
9404.000000;0.289575
9403.000000;0.289213
9402.000000;0.288868
9401.000000;0.288505
9400.000000;0.288158
9399.000000;0.287915
9398.000000;0.287720
9397.000000;0.287370
9396.000000;0.286780
9395.000000;0.286103
9394.000000;0.285529
9393.000000;0.285120
9392.000000;0.284868
9391.000000;0.284767
9390.000000;0.284753
9389.000000;0.284715
9388.000000;0.284620
9387.000000;0.284514
9386.000000;0.284376
9385.000000;0.284110
9384.000000;0.283689
9383.000000;0.283209
9382.000000;0.282783
9381.000000;0.282481
9380.000000;0.282320
9379.000000;0.282202
9378.000000;0.281894
9377.000000;0.281263
9376.000000;0.280496
9375.000000;0.279921
9374.000000;0.279621
9373.000000;0.279386
9372.000000;0.279041
9371.000000;0.278620
9370.000000;0.278243
9369.000000;0.277980
9368.000000;0.277844
9367.000000;0.277755
9366.000000;0.277537
9365.000000;0.277103
9364.000000;0.276624
9363.000000;0.276334
9362.000000;0.276195
9361.000000;0.275951
9360.000000;0.275506
9359.000000;0.275025
9358.000000;0.274665
9357.000000;0.274400
9356.000000;0.274147
9355.000000;0.273873
9354.000000;0.273534
9353.000000;0.273081
9352.000000;0.272563
9351.000000;0.272092
9350.000000;0.271702
9349.000000;0.271374
9348.000000;0.271167
9347.000000;0.271168
9346.000000;0.271302
9345.000000;0.271370
9344.000000;0.271268
9343.000000;0.271023
9342.000000;0.270667
9341.000000;0.270222
9340.000000;0.269788
9339.000000;0.269450
9338.000000;0.269128
9337.000000;0.268696
9336.000000;0.268206
9335.000000;0.267809
9334.000000;0.267508
9333.000000;0.267194
9332.000000;0.266873
9331.000000;0.266641
9330.000000;0.266459
9329.000000;0.266192
9328.000000;0.265859
9327.000000;0.265593
9326.000000;0.265379
9325.000000;0.265063
9324.000000;0.264630
9323.000000;0.264224
9322.000000;0.263889
9321.000000;0.263521
9320.000000;0.263105
9319.000000;0.262767
9318.000000;0.262536
9317.000000;0.262298
9316.000000;0.261999
9315.000000;0.261708
9314.000000;0.261449
9313.000000;0.261171
9312.000000;0.260914
9311.000000;0.260762
9310.000000;0.260635
9309.000000;0.260357
9308.000000;0.259969
9307.000000;0.259702
9306.000000;0.259607
9305.000000;0.259462
9304.000000;0.259110
9303.000000;0.258657
9302.000000;0.258247
9301.000000;0.257871
9300.000000;0.257508
9299.000000;0.257220
9298.000000;0.257005
9297.000000;0.256738
9296.000000;0.256361
9295.000000;0.255974
9294.000000;0.255646
9293.000000;0.255324
9292.000000;0.254988
9291.000000;0.254729
9290.000000;0.254586
9289.000000;0.254469
9288.000000;0.254322
9287.000000;0.254186
9286.000000;0.254037
9285.000000;0.253751
9284.000000;0.253307
9283.000000;0.252850
9282.000000;0.252485
9281.000000;0.252147
9280.000000;0.251778
9279.000000;0.251455
9278.000000;0.251245
9277.000000;0.251076
9276.000000;0.250852
9275.000000;0.250582
9274.000000;0.250302
9273.000000;0.250005
9272.000000;0.249714
9271.000000;0.249503
9270.000000;0.249392
9269.000000;0.249295
9268.000000;0.249129
9267.000000;0.248877
9266.000000;0.248527
9265.000000;0.248080
9264.000000;0.247628
9263.000000;0.247290
9262.000000;0.247036
9261.000000;0.246733
9260.000000;0.246376
9259.000000;0.246122
9258.000000;0.246053
9257.000000;0.246055
9256.000000;0.245977
9255.000000;0.245776
9254.000000;0.245458
9253.000000;0.245015
9252.000000;0.244504
9251.000000;0.244053
9250.000000;0.243743
9249.000000;0.243551
9248.000000;0.243430
9247.000000;0.243345
9246.000000;0.243232
9245.000000;0.243034
9244.000000;0.242778
9243.000000;0.242497
9242.000000;0.242125
9241.000000;0.241605
9240.000000;0.241072
9239.000000;0.240739
9238.000000;0.240614
9237.000000;0.240502
9236.000000;0.240293
9235.000000;0.240072
9234.000000;0.239896
9233.000000;0.239670
9232.000000;0.239291
9231.000000;0.238791
9230.000000;0.238291
9229.000000;0.237917
9228.000000;0.237767
9227.000000;0.237816
9226.000000;0.237874
9225.000000;0.237757
9224.000000;0.237503
9223.000000;0.237257
9222.000000;0.237012
9221.000000;0.236642
9220.000000;0.236165
9219.000000;0.235748
9218.000000;0.235442
9217.000000;0.235141
9216.000000;0.234827
9215.000000;0.234622
9214.000000;0.234539
9213.000000;0.234405
9212.000000;0.234118
9211.000000;0.233780
9210.000000;0.233506
9209.000000;0.233265
9208.000000;0.232995
9207.000000;0.232713
9206.000000;0.232455
9205.000000;0.232222
9204.000000;0.232067
9203.000000;0.232068
9202.000000;0.232184
9201.000000;0.232242
9200.000000;0.232136
9199.000000;0.231878
9198.000000;0.231473
9197.000000;0.230922
9196.000000;0.230370
9195.000000;0.230030
9194.000000;0.229906
9193.000000;0.229765
9192.000000;0.229457
9191.000000;0.229077
9190.000000;0.228739
9189.000000;0.228400
9188.000000;0.228023
9187.000000;0.227727
9186.000000;0.227623
9185.000000;0.227632
9184.000000;0.227584
9183.000000;0.227420
9182.000000;0.227188
9181.000000;0.226936
9180.000000;0.226695
9179.000000;0.226497
9178.000000;0.226334
9177.000000;0.226171
9176.000000;0.226035
9175.000000;0.225985
9174.000000;0.225970
9173.000000;0.225829
9172.000000;0.225473
9171.000000;0.224972
9170.000000;0.224431
9169.000000;0.223905
9168.000000;0.223456
9167.000000;0.223168
9166.000000;0.223041
9165.000000;0.222966
9164.000000;0.222855
9163.000000;0.222696
9162.000000;0.222478
9161.000000;0.222170
9160.000000;0.221815
9159.000000;0.221509
9158.000000;0.221268
9157.000000;0.221027
9156.000000;0.220788
9155.000000;0.220629
9154.000000;0.220544
9153.000000;0.220413
9152.000000;0.220173
9151.000000;0.219899
9150.000000;0.219667
9149.000000;0.219478
9148.000000;0.219353
9147.000000;0.219351
9146.000000;0.219406
9145.000000;0.219321
9144.000000;0.218989
9143.000000;0.218539
9142.000000;0.218158
9141.000000;0.217893
9140.000000;0.217685
9139.000000;0.217484
9138.000000;0.217264
9137.000000;0.216991
9136.000000;0.216663
9135.000000;0.216322
9134.000000;0.215993
9133.000000;0.215690
9132.000000;0.215481
9131.000000;0.215437
9130.000000;0.215486
9129.000000;0.215438
9128.000000;0.215197
9127.000000;0.214859
9126.000000;0.214543
9125.000000;0.214256
9124.000000;0.213975
9123.000000;0.213765
9122.000000;0.213712
9121.000000;0.213792
9120.000000;0.213866
9119.000000;0.213778
9118.000000;0.213439
9117.000000;0.212896
9116.000000;0.212333
9115.000000;0.211941
9114.000000;0.211761
9113.000000;0.211689
9112.000000;0.211614
9111.000000;0.211492
9110.000000;0.211300
9109.000000;0.211025
9108.000000;0.210709
9107.000000;0.210434
9106.000000;0.210225
9105.000000;0.210033
9104.000000;0.209828
9103.000000;0.209637
9102.000000;0.209485
9101.000000;0.209363
9100.000000;0.209254
9099.000000;0.209127
9098.000000;0.208941
9097.000000;0.208709
9096.000000;0.208514
9095.000000;0.208389
9094.000000;0.208240
9093.000000;0.207975
9092.000000;0.207662
9091.000000;0.207444
9090.000000;0.207351
9089.000000;0.207293
9088.000000;0.207202
9087.000000;0.207054
9086.000000;0.206810
9085.000000;0.206462
9084.000000;0.206094
9083.000000;0.205799
9082.000000;0.205548
9081.000000;0.205284
9080.000000;0.205068
9079.000000;0.204984
9078.000000;0.204942
9077.000000;0.204763
9076.000000;0.204466
9075.000000;0.204254
9074.000000;0.204214
9073.000000;0.204179
9072.000000;0.203959
9071.000000;0.203563
9070.000000;0.203143
9069.000000;0.202832
9068.000000;0.202672
9067.000000;0.202607
9066.000000;0.202511
9065.000000;0.202304
9064.000000;0.202055
9063.000000;0.201894
9062.000000;0.201838
9061.000000;0.201785
9060.000000;0.201672
9059.000000;0.201519
9058.000000;0.201345
9057.000000;0.201142
9056.000000;0.200924
9055.000000;0.200693
9054.000000;0.200394
9053.000000;0.200003
