Criado como novo conjunto de dados;"e2410_daniel_v2.spp","10802.6 Secs"
cm-1;Abs
10000.000000;0.285147
9999.000000;0.284912
9998.000000;0.284678
9997.000000;0.284444
9996.000000;0.284210
9995.000000;0.283976
9994.000000;0.283743
9993.000000;0.283508
9992.000000;0.283278
9991.000000;0.282932
9990.000000;0.282490
9989.000000;0.282023
9988.000000;0.281583
9987.000000;0.281184
9986.000000;0.280760
9985.000000;0.280205
9984.000000;0.279518
9983.000000;0.278848
9982.000000;0.278335
9981.000000;0.277964
9980.000000;0.277635
9979.000000;0.277291
9978.000000;0.276915
9977.000000;0.276457
9976.000000;0.275863
9975.000000;0.275154
9974.000000;0.274424
9973.000000;0.273761
9972.000000;0.273203
9971.000000;0.272724
9970.000000;0.272247
9969.000000;0.271727
9968.000000;0.271212
9967.000000;0.270770
9966.000000;0.270361
9965.000000;0.269882
9964.000000;0.269335
9963.000000;0.268858
9962.000000;0.268554
9961.000000;0.268352
9960.000000;0.268099
9959.000000;0.267686
9958.000000;0.267105
9957.000000;0.266456
9956.000000;0.265919
9955.000000;0.265614
9954.000000;0.265431
9953.000000;0.265112
9952.000000;0.264531
9951.000000;0.263843
9950.000000;0.263286
9949.000000;0.262915
9948.000000;0.262580
9947.000000;0.262082
9946.000000;0.261343
9945.000000;0.260482
9944.000000;0.259744
9943.000000;0.259282
9942.000000;0.258996
9941.000000;0.258663
9940.000000;0.258212
9939.000000;0.257765
9938.000000;0.257415
9937.000000;0.257094
9936.000000;0.256684
9935.000000;0.256159
9934.000000;0.255567
9933.000000;0.254979
9932.000000;0.254492
9931.000000;0.254165
9930.000000;0.253902
9929.000000;0.253503
9928.000000;0.252871
9927.000000;0.252119
9926.000000;0.251455
9925.000000;0.251011
9924.000000;0.250772
9923.000000;0.250570
9922.000000;0.250165
9921.000000;0.249459
9920.000000;0.248641
9919.000000;0.248010
9918.000000;0.247649
9917.000000;0.247378
9916.000000;0.247019
9915.000000;0.246555
9914.000000;0.246030
9913.000000;0.245457
9912.000000;0.244883
9911.000000;0.244399
9910.000000;0.244022
9909.000000;0.243684
9908.000000;0.243358
9907.000000;0.243072
9906.000000;0.242778
9905.000000;0.242349
9904.000000;0.241759
9903.000000;0.241128
9902.000000;0.240559
9901.000000;0.240049
9900.000000;0.239602
9899.000000;0.239254
9898.000000;0.238934
9897.000000;0.238454
9896.000000;0.237745
9895.000000;0.236967
9894.000000;0.236319
9893.000000;0.235837
9892.000000;0.235430
9891.000000;0.235003
9890.000000;0.234485
9889.000000;0.233869
9888.000000;0.233292
9887.000000;0.232934
9886.000000;0.232768
9885.000000;0.232526
9884.000000;0.231998
9883.000000;0.231260
9882.000000;0.230535
9881.000000;0.229952
9880.000000;0.229520
9879.000000;0.229200
9878.000000;0.228922
9877.000000;0.228600
9876.000000;0.228233
9875.000000;0.227888
9874.000000;0.227556
9873.000000;0.227108
9872.000000;0.226464
9871.000000;0.225705
9870.000000;0.224960
9869.000000;0.224287
9868.000000;0.223719
9867.000000;0.223308
9866.000000;0.223029
9865.000000;0.222742
9864.000000;0.222323
9863.000000;0.221792
9862.000000;0.221255
9861.000000;0.220794
9860.000000;0.220461
9859.000000;0.220251
9858.000000;0.220038
9857.000000;0.219652
9856.000000;0.219062
9855.000000;0.218408
9854.000000;0.217815
9853.000000;0.217290
9852.000000;0.216834
9851.000000;0.216498
9850.000000;0.216237
9849.000000;0.215861
9848.000000;0.215235
9847.000000;0.214456
9846.000000;0.213744
9845.000000;0.213231
9844.000000;0.212905
9843.000000;0.212665
9842.000000;0.212353
9841.000000;0.211850
9840.000000;0.211208
9839.000000;0.210607
9838.000000;0.210130
9837.000000;0.209675
9836.000000;0.209131
9835.000000;0.208540
9834.000000;0.208015
9833.000000;0.207608
9832.000000;0.207332
9831.000000;0.207180
9830.000000;0.207060
9829.000000;0.206819
9828.000000;0.206401
9827.000000;0.205892
9826.000000;0.205359
9825.000000;0.204761
9824.000000;0.204104
9823.000000;0.203520
9822.000000;0.203101
9821.000000;0.202761
9820.000000;0.202379
9819.000000;0.201957
9818.000000;0.201537
9817.000000;0.201066
9816.000000;0.200487
9815.000000;0.199883
9814.000000;0.199394
9813.000000;0.199028
9812.000000;0.198675
9811.000000;0.198252
9810.000000;0.197748
9809.000000;0.197182
9808.000000;0.196610
9807.000000;0.196125
9806.000000;0.195751
9805.000000;0.195378
9804.000000;0.194877
9803.000000;0.194238
9802.000000;0.193558
9801.000000;0.192936
9800.000000;0.192441
9799.000000;0.192114
9798.000000;0.191920
9797.000000;0.191745
9796.000000;0.191479
9795.000000;0.191092
9794.000000;0.190594
9793.000000;0.190007
9792.000000;0.189421
9791.000000;0.188955
9790.000000;0.188615
9789.000000;0.188255
9788.000000;0.187768
9787.000000;0.187230
9786.000000;0.186787
9785.000000;0.186469
9784.000000;0.186192
9783.000000;0.185861
9782.000000;0.185421
9781.000000;0.184855
9780.000000;0.184231
9779.000000;0.183677
9778.000000;0.183234
9777.000000;0.182791
9776.000000;0.182238
9775.000000;0.181624
9774.000000;0.181076
9773.000000;0.180629
9772.000000;0.180217
9771.000000;0.179813
9770.000000;0.179450
9769.000000;0.179128
9768.000000;0.178772
9767.000000;0.178319
9766.000000;0.177792
9765.000000;0.177274
9764.000000;0.176808
9763.000000;0.176357
9762.000000;0.175844
9761.000000;0.175254
9760.000000;0.174668
9759.000000;0.174154
9758.000000;0.173680
9757.000000;0.173189
9756.000000;0.172720
9755.000000;0.172366
9754.000000;0.172117
9753.000000;0.171853
9752.000000;0.171499
9751.000000;0.171101
9750.000000;0.170717
9749.000000;0.170325
9748.000000;0.169880
9747.000000;0.169370
9746.000000;0.168806
9745.000000;0.168223
9744.000000;0.167702
9743.000000;0.167296
9742.000000;0.166930
9741.000000;0.166489
9740.000000;0.166000
9739.000000;0.165620
9738.000000;0.165395
9737.000000;0.165169
9736.000000;0.164774
9735.000000;0.164215
9734.000000;0.163609
9733.000000;0.163052
9732.000000;0.162607
9731.000000;0.162320
9730.000000;0.162155
9729.000000;0.161981
9728.000000;0.161695
9727.000000;0.161301
9726.000000;0.160844
9725.000000;0.160335
9724.000000;0.159795
9723.000000;0.159278
9722.000000;0.158812
9721.000000;0.158363
9720.000000;0.157911
9719.000000;0.157479
9718.000000;0.157050
9717.000000;0.156551
9716.000000;0.155968
9715.000000;0.155428
9714.000000;0.155068
9713.000000;0.154882
9712.000000;0.154714
9711.000000;0.154388
9710.000000;0.153825
9709.000000;0.153099
9708.000000;0.152401
9707.000000;0.151889
9706.000000;0.151555
9705.000000;0.151275
9704.000000;0.150957
9703.000000;0.150584
9702.000000;0.150146
9701.000000;0.149651
9700.000000;0.149193
9699.000000;0.148856
9698.000000;0.148552
9697.000000;0.148094
9696.000000;0.147458
9695.000000;0.146832
9694.000000;0.146356
9693.000000;0.145954
9692.000000;0.145497
9691.000000;0.144989
9690.000000;0.144514
9689.000000;0.144106
9688.000000;0.143760
9687.000000;0.143482
9686.000000;0.143235
9685.000000;0.142923
9684.000000;0.142524
9683.000000;0.142148
9682.000000;0.141890
9681.000000;0.141699
9680.000000;0.141451
9679.000000;0.141088
9678.000000;0.140600
9677.000000;0.139983
9676.000000;0.139279
9675.000000;0.138602
9674.000000;0.138031
9673.000000;0.137525
9672.000000;0.137033
9671.000000;0.136606
9670.000000;0.136302
9669.000000;0.136041
9668.000000;0.135662
9667.000000;0.135119
9666.000000;0.134530
9665.000000;0.134048
9664.000000;0.133728
9663.000000;0.133517
9662.000000;0.133317
9661.000000;0.133044
9660.000000;0.132675
9659.000000;0.132234
9658.000000;0.131746
9657.000000;0.131225
9656.000000;0.130699
9655.000000;0.130206
9654.000000;0.129739
9653.000000;0.129257
9652.000000;0.128756
9651.000000;0.128287
9650.000000;0.127887
9649.000000;0.127535
9648.000000;0.127197
9647.000000;0.126877
9646.000000;0.126588
9645.000000;0.126315
9644.000000;0.126011
9643.000000;0.125626
9642.000000;0.125153
9641.000000;0.124666
9640.000000;0.124273
9639.000000;0.123976
9638.000000;0.123663
9637.000000;0.123273
9636.000000;0.122886
9635.000000;0.122559
9634.000000;0.122159
9633.000000;0.121522
9632.000000;0.120718
9631.000000;0.120006
9630.000000;0.119535
9629.000000;0.119242
9628.000000;0.119027
9627.000000;0.118843
9626.000000;0.118620
9625.000000;0.118265
9624.000000;0.117808
9623.000000;0.117400
9622.000000;0.117098
9621.000000;0.116798
9620.000000;0.116415
9619.000000;0.115992
9618.000000;0.115580
9617.000000;0.115143
9616.000000;0.114659
9615.000000;0.114189
9614.000000;0.113763
9613.000000;0.113317
9612.000000;0.112817
9611.000000;0.112343
9610.000000;0.111960
9609.000000;0.111619
9608.000000;0.111255
9607.000000;0.110882
9606.000000;0.110529
9605.000000;0.110159
9604.000000;0.109749
9603.000000;0.109353
9602.000000;0.109002
9601.000000;0.108634
9600.000000;0.108197
9599.000000;0.107742
9598.000000;0.107354
9597.000000;0.107035
9596.000000;0.106738
9595.000000;0.106440
9594.000000;0.106129
9593.000000;0.105763
9592.000000;0.105335
9591.000000;0.104890
9590.000000;0.104463
9589.000000;0.104027
9588.000000;0.103576
9587.000000;0.103179
9586.000000;0.102896
9585.000000;0.102698
9584.000000;0.102499
9583.000000;0.102220
9582.000000;0.101793
9581.000000;0.101179
9580.000000;0.100445
9579.000000;0.099754
9578.000000;0.099230
9577.000000;0.098869
9576.000000;0.098600
9575.000000;0.098360
9574.000000;0.098108
9573.000000;0.097819
9572.000000;0.097521
9571.000000;0.097243
9570.000000;0.096936
9569.000000;0.096496
9568.000000;0.095899
9567.000000;0.095239
9566.000000;0.094626
9565.000000;0.094133
9564.000000;0.093816
9563.000000;0.093671
9562.000000;0.093544
9561.000000;0.093234
9560.000000;0.092729
9559.000000;0.092232
9558.000000;0.091907
9557.000000;0.091704
9556.000000;0.091489
9555.000000;0.091195
9554.000000;0.090820
9553.000000;0.090383
9552.000000;0.089975
9551.000000;0.089710
9550.000000;0.089539
9549.000000;0.089241
9548.000000;0.088684
9547.000000;0.088012
9546.000000;0.087460
9545.000000;0.087077
9544.000000;0.086750
9543.000000;0.086407
9542.000000;0.086062
9541.000000;0.085714
9540.000000;0.085309
9539.000000;0.084823
9538.000000;0.084288
9537.000000;0.083756
9536.000000;0.083271
9535.000000;0.082880
9534.000000;0.082608
9533.000000;0.082449
9532.000000;0.082377
9531.000000;0.082327
9530.000000;0.082169
9529.000000;0.081783
9528.000000;0.081203
9527.000000;0.080608
9526.000000;0.080134
9525.000000;0.079765
9524.000000;0.079421
9523.000000;0.079081
9522.000000;0.078758
9521.000000;0.078435
9520.000000;0.078084
9519.000000;0.077711
9518.000000;0.077330
9517.000000;0.076939
9516.000000;0.076547
9515.000000;0.076172
9514.000000;0.075809
9513.000000;0.075432
9512.000000;0.075051
9511.000000;0.074680
9510.000000;0.074274
9509.000000;0.073794
9508.000000;0.073334
9507.000000;0.073055
9506.000000;0.072948
9505.000000;0.072785
9504.000000;0.072387
9503.000000;0.071838
9502.000000;0.071352
9501.000000;0.071026
9500.000000;0.070775
9499.000000;0.070467
9498.000000;0.070038
9497.000000;0.069535
9496.000000;0.069088
9495.000000;0.068791
9494.000000;0.068598
9493.000000;0.068363
9492.000000;0.068019
9491.000000;0.067622
9490.000000;0.067231
9489.000000;0.066838
9488.000000;0.066450
9487.000000;0.066104
9486.000000;0.065787
9485.000000;0.065434
9484.000000;0.065061
9483.000000;0.064760
9482.000000;0.064529
9481.000000;0.064221
9480.000000;0.063744
9479.000000;0.063181
9478.000000;0.062644
9477.000000;0.062138
9476.000000;0.061667
9475.000000;0.061337
9474.000000;0.061203
9473.000000;0.061130
9472.000000;0.060941
9471.000000;0.060658
9470.000000;0.060428
9469.000000;0.060257
9468.000000;0.059981
9467.000000;0.059504
9466.000000;0.058936
9465.000000;0.058460
9464.000000;0.058142
9463.000000;0.057901
9462.000000;0.057609
9461.000000;0.057206
9460.000000;0.056757
9459.000000;0.056394
9458.000000;0.056170
9457.000000;0.055989
9456.000000;0.055703
9455.000000;0.055272
9454.000000;0.054804
9453.000000;0.054429
9452.000000;0.054177
9451.000000;0.053953
9450.000000;0.053631
9449.000000;0.053196
9448.000000;0.052761
9447.000000;0.052433
9446.000000;0.052184
9445.000000;0.051898
9444.000000;0.051529
9443.000000;0.051127
9442.000000;0.050723
9441.000000;0.050290
9440.000000;0.049835
9439.000000;0.049424
9438.000000;0.049087
9437.000000;0.048778
9436.000000;0.048464
9435.000000;0.048171
9434.000000;0.047904
9433.000000;0.047600
9432.000000;0.047219
9431.000000;0.046809
9430.000000;0.046454
9429.000000;0.046196
9428.000000;0.046031
9427.000000;0.045915
9426.000000;0.045749
9425.000000;0.045446
9424.000000;0.045036
9423.000000;0.044637
9422.000000;0.044297
9421.000000;0.043959
9420.000000;0.043592
9419.000000;0.043249
9418.000000;0.042963
9417.000000;0.042676
9416.000000;0.042333
9415.000000;0.041969
9414.000000;0.041639
9413.000000;0.041341
9412.000000;0.041047
9411.000000;0.040749
9410.000000;0.040426
9409.000000;0.040033
9408.000000;0.039577
9407.000000;0.039141
9406.000000;0.038789
9405.000000;0.038507
9404.000000;0.038258
9403.000000;0.038018
9402.000000;0.037746
9401.000000;0.037398
9400.000000;0.037014
9399.000000;0.036696
9398.000000;0.036470
9397.000000;0.036254
9396.000000;0.035999
9395.000000;0.035747
9394.000000;0.035513
9393.000000;0.035225
9392.000000;0.034842
9391.000000;0.034436
9390.000000;0.034086
9389.000000;0.033782
9388.000000;0.033498
9387.000000;0.033267
9386.000000;0.033088
9385.000000;0.032859
9384.000000;0.032499
9383.000000;0.032063
9382.000000;0.031650
9381.000000;0.031261
9380.000000;0.030845
9379.000000;0.030425
9378.000000;0.030068
9377.000000;0.029777
9376.000000;0.029495
9375.000000;0.029203
9374.000000;0.028922
9373.000000;0.028644
9372.000000;0.028342
9371.000000;0.028016
9370.000000;0.027695
9369.000000;0.027409
9368.000000;0.027182
9367.000000;0.027024
9366.000000;0.026876
9365.000000;0.026630
9364.000000;0.026244
9363.000000;0.025807
9362.000000;0.025426
9361.000000;0.025111
9360.000000;0.024803
9359.000000;0.024471
9358.000000;0.024114
9357.000000;0.023736
9356.000000;0.023359
9355.000000;0.023025
9354.000000;0.022749
9353.000000;0.022479
9352.000000;0.022178
9351.000000;0.021871
9350.000000;0.021603
9349.000000;0.021374
9348.000000;0.021167
9347.000000;0.020965
9346.000000;0.020726
9345.000000;0.020390
9344.000000;0.019980
9343.000000;0.019612
9342.000000;0.019361
9341.000000;0.019163
9340.000000;0.018910
9339.000000;0.018591
9338.000000;0.018276
9337.000000;0.018011
9336.000000;0.017800
9335.000000;0.017641
9334.000000;0.017509
9333.000000;0.017326
9332.000000;0.017030
9331.000000;0.016662
9330.000000;0.016316
9329.000000;0.016036
9328.000000;0.015772
9327.000000;0.015450
9326.000000;0.015053
9325.000000;0.014646
9324.000000;0.014335
9323.000000;0.014165
9322.000000;0.014048
9321.000000;0.013839
9320.000000;0.013502
9319.000000;0.013134
9318.000000;0.012827
9317.000000;0.012556
9316.000000;0.012249
9315.000000;0.011891
9314.000000;0.011516
9313.000000;0.011144
9312.000000;0.010786
9311.000000;0.010470
9310.000000;0.010220
9309.000000;0.010026
9308.000000;0.009863
9307.000000;0.009706
9306.000000;0.009513
9305.000000;0.009237
9304.000000;0.008878
9303.000000;0.008495
9302.000000;0.008141
9301.000000;0.007831
9300.000000;0.007565
9299.000000;0.007338
9298.000000;0.007109
9297.000000;0.006828
9296.000000;0.006503
9295.000000;0.006199
9294.000000;0.005942
9293.000000;0.005691
9292.000000;0.005415
9291.000000;0.005141
9290.000000;0.004897
9289.000000;0.004668
9288.000000;0.004426
9287.000000;0.004162
9286.000000;0.003876
9285.000000;0.003587
9284.000000;0.003354
9283.000000;0.003209
9282.000000;0.003067
9281.000000;0.002786
9280.000000;0.002340
9279.000000;0.001856
9278.000000;0.001460
9277.000000;0.001173
9276.000000;0.000967
9275.000000;0.000824
9274.000000;0.000702
9273.000000;0.000510
9272.000000;0.000214
9271.000000;-0.000135
9270.000000;-0.000483
9269.000000;-0.000838
9268.000000;-0.001186
9267.000000;-0.001454
9266.000000;-0.001607
9265.000000;-0.001715
9264.000000;-0.001863
9263.000000;-0.002051
9262.000000;-0.002241
9261.000000;-0.002434
9260.000000;-0.002650
9259.000000;-0.002875
9258.000000;-0.003094
9257.000000;-0.003332
9256.000000;-0.003606
9255.000000;-0.003894
9254.000000;-0.004183
9253.000000;-0.004515
9252.000000;-0.004920
9251.000000;-0.005360
9250.000000;-0.005750
9249.000000;-0.006023
9248.000000;-0.006146
9247.000000;-0.006149
9246.000000;-0.006158
9245.000000;-0.006328
9244.000000;-0.006700
9243.000000;-0.007159
9242.000000;-0.007562
9241.000000;-0.007859
9240.000000;-0.008075
9239.000000;-0.008254
9238.000000;-0.008461
9237.000000;-0.008763
9236.000000;-0.009139
9235.000000;-0.009478
9234.000000;-0.009712
9233.000000;-0.009899
9232.000000;-0.010137
9231.000000;-0.010439
9230.000000;-0.010746
9229.000000;-0.011014
9228.000000;-0.011228
9227.000000;-0.011391
9226.000000;-0.011525
9225.000000;-0.011666
9224.000000;-0.011810
9223.000000;-0.011921
9222.000000;-0.012006
9221.000000;-0.012134
9220.000000;-0.012358
9219.000000;-0.012668
9218.000000;-0.013031
9217.000000;-0.013421
9216.000000;-0.013784
9215.000000;-0.014053
9214.000000;-0.014239
9213.000000;-0.014442
9212.000000;-0.014726
9211.000000;-0.015051
9210.000000;-0.015336
9209.000000;-0.015541
9208.000000;-0.015668
9207.000000;-0.015751
9206.000000;-0.015868
9205.000000;-0.016088
9204.000000;-0.016374
9203.000000;-0.016608
9202.000000;-0.016762
9201.000000;-0.016943
9200.000000;-0.017249
9199.000000;-0.017656
9198.000000;-0.018070
9197.000000;-0.018423
9196.000000;-0.018670
9195.000000;-0.018791
9194.000000;-0.018848
9193.000000;-0.018956
9192.000000;-0.019146
9191.000000;-0.019335
9190.000000;-0.019498
9189.000000;-0.019746
9188.000000;-0.020155
9187.000000;-0.020619
9186.000000;-0.020968
9185.000000;-0.021191
9184.000000;-0.021405
9183.000000;-0.021669
9182.000000;-0.021920
9181.000000;-0.022099
9180.000000;-0.022243
9179.000000;-0.022433
9178.000000;-0.022691
9177.000000;-0.022955
9176.000000;-0.023124
9175.000000;-0.023175
9174.000000;-0.023212
9173.000000;-0.023371
9172.000000;-0.023669
9171.000000;-0.024021
9170.000000;-0.024382
9169.000000;-0.024775
9168.000000;-0.025142
9167.000000;-0.025323
9166.000000;-0.025250
9165.000000;-0.025090
9164.000000;-0.025086
9163.000000;-0.025323
9162.000000;-0.025706
9161.000000;-0.026115
9160.000000;-0.026463
9159.000000;-0.026699
9158.000000;-0.026836
9157.000000;-0.026972
9156.000000;-0.027186
9155.000000;-0.027438
9154.000000;-0.027637
9153.000000;-0.027787
9152.000000;-0.027976
9151.000000;-0.028250
9150.000000;-0.028565
9149.000000;-0.028862
9148.000000;-0.029122
9147.000000;-0.029351
9146.000000;-0.029568
9145.000000;-0.029794
9144.000000;-0.030029
9143.000000;-0.030236
9142.000000;-0.030402
9141.000000;-0.030567
9140.000000;-0.030782
9139.000000;-0.031037
9138.000000;-0.031275
9137.000000;-0.031450
9136.000000;-0.031557
9135.000000;-0.031633
9134.000000;-0.031758
9133.000000;-0.031998
9132.000000;-0.032320
9131.000000;-0.032610
9130.000000;-0.032803
9129.000000;-0.032950
9128.000000;-0.033120
9127.000000;-0.033306
9126.000000;-0.033494
9125.000000;-0.033730
9124.000000;-0.034050
9123.000000;-0.034372
9122.000000;-0.034558
9121.000000;-0.034579
9120.000000;-0.034541
9119.000000;-0.034570
9118.000000;-0.034722
9117.000000;-0.034994
9116.000000;-0.035363
9115.000000;-0.035775
9114.000000;-0.036166
9113.000000;-0.036489
9112.000000;-0.036724
9111.000000;-0.036861
9110.000000;-0.036917
9109.000000;-0.036956
9108.000000;-0.037060
9107.000000;-0.037276
9106.000000;-0.037596
9105.000000;-0.037970
9104.000000;-0.038317
9103.000000;-0.038548
9102.000000;-0.038630
9101.000000;-0.038624
9100.000000;-0.038636
9099.000000;-0.038740
9098.000000;-0.038933
9097.000000;-0.039172
9096.000000;-0.039410
9095.000000;-0.039623
9094.000000;-0.039812
9093.000000;-0.039986
9092.000000;-0.040144
9091.000000;-0.040287
9090.000000;-0.040441
9089.000000;-0.040648
9088.000000;-0.040921
9087.000000;-0.041231
9086.000000;-0.041525
9085.000000;-0.041755
9084.000000;-0.041901
9083.000000;-0.041980
9082.000000;-0.042040
9081.000000;-0.042117
9080.000000;-0.042226
9079.000000;-0.042387
9078.000000;-0.042632
9077.000000;-0.042931
9076.000000;-0.043177
9075.000000;-0.043294
9074.000000;-0.043351
9073.000000;-0.043474
9072.000000;-0.043691
9071.000000;-0.043922
9070.000000;-0.044123
9069.000000;-0.044326
9068.000000;-0.044548
9067.000000;-0.044755
9066.000000;-0.044929
9065.000000;-0.045102
9064.000000;-0.045287
9063.000000;-0.045457
