Criado como novo conjunto de dados;"e2410_daniel_v2.spp","100267.1 Secs"
cm-1;Abs
10000.000000;0.124906
9999.000000;0.125697
9998.000000;0.126482
9997.000000;0.127282
9996.000000;0.128031
9995.000000;0.128791
9994.000000;0.129632
9993.000000;0.130334
9992.000000;0.130693
9991.000000;0.130823
9990.000000;0.131072
9989.000000;0.131659
9988.000000;0.132515
9987.000000;0.133415
9986.000000;0.134188
9985.000000;0.134802
9984.000000;0.135347
9983.000000;0.135919
9982.000000;0.136516
9981.000000;0.137056
9980.000000;0.137525
9979.000000;0.138036
9978.000000;0.138707
9977.000000;0.139507
9976.000000;0.140284
9975.000000;0.140922
9974.000000;0.141423
9973.000000;0.141866
9972.000000;0.142328
9971.000000;0.142863
9970.000000;0.143492
9969.000000;0.144204
9968.000000;0.144959
9967.000000;0.145716
9966.000000;0.146457
9965.000000;0.147206
9964.000000;0.148007
9963.000000;0.148860
9962.000000;0.149681
9961.000000;0.150346
9960.000000;0.150785
9959.000000;0.151067
9958.000000;0.151392
9957.000000;0.151994
9956.000000;0.152951
9955.000000;0.154065
9954.000000;0.154991
9953.000000;0.155560
9952.000000;0.155947
9951.000000;0.156462
9950.000000;0.157226
9949.000000;0.158135
9948.000000;0.159044
9947.000000;0.159873
9946.000000;0.160567
9945.000000;0.161108
9944.000000;0.161569
9943.000000;0.162062
9942.000000;0.162597
9941.000000;0.163119
9940.000000;0.163655
9939.000000;0.164306
9938.000000;0.165062
9937.000000;0.165773
9936.000000;0.166366
9935.000000;0.166973
9934.000000;0.167764
9933.000000;0.168742
9932.000000;0.169765
9931.000000;0.170685
9930.000000;0.171434
9929.000000;0.172047
9928.000000;0.172645
9927.000000;0.173326
9926.000000;0.174038
9925.000000;0.174653
9924.000000;0.175188
9923.000000;0.175823
9922.000000;0.176655
9921.000000;0.177568
9920.000000;0.178439
9919.000000;0.179302
9918.000000;0.180183
9917.000000;0.180926
9916.000000;0.181373
9915.000000;0.181664
9914.000000;0.182126
9913.000000;0.182876
9912.000000;0.183682
9911.000000;0.184242
9910.000000;0.184499
9909.000000;0.184647
9908.000000;0.184968
9907.000000;0.185666
9906.000000;0.186759
9905.000000;0.188042
9904.000000;0.189240
9903.000000;0.190242
9902.000000;0.191147
9901.000000;0.192062
9900.000000;0.192938
9899.000000;0.193652
9898.000000;0.194193
9897.000000;0.194679
9896.000000;0.195226
9895.000000;0.195873
9894.000000;0.196607
9893.000000;0.197399
9892.000000;0.198207
9891.000000;0.199010
9890.000000;0.199864
9889.000000;0.200844
9888.000000;0.201902
9887.000000;0.202815
9886.000000;0.203386
9885.000000;0.203688
9884.000000;0.204045
9883.000000;0.204719
9882.000000;0.205691
9881.000000;0.206747
9880.000000;0.207706
9879.000000;0.208507
9878.000000;0.209143
9877.000000;0.209631
9876.000000;0.210044
9875.000000;0.210514
9874.000000;0.211176
9873.000000;0.212094
9872.000000;0.213209
9871.000000;0.214317
9870.000000;0.215186
9869.000000;0.215777
9868.000000;0.216291
9867.000000;0.216921
9866.000000;0.217642
9865.000000;0.218349
9864.000000;0.219115
9863.000000;0.220132
9862.000000;0.221397
9861.000000;0.222642
9860.000000;0.223620
9859.000000;0.224317
9858.000000;0.224871
9857.000000;0.225430
9856.000000;0.226144
9855.000000;0.227135
9854.000000;0.228340
9853.000000;0.229475
9852.000000;0.230279
9851.000000;0.230759
9850.000000;0.231143
9849.000000;0.231650
9848.000000;0.232372
9847.000000;0.233302
9846.000000;0.234359
9845.000000;0.235417
9844.000000;0.236354
9843.000000;0.237096
9842.000000;0.237633
9841.000000;0.238056
9840.000000;0.238535
9839.000000;0.239178
9838.000000;0.239907
9837.000000;0.240578
9836.000000;0.241231
9835.000000;0.242063
9834.000000;0.243117
9833.000000;0.244160
9832.000000;0.244982
9831.000000;0.245678
9830.000000;0.246504
9829.000000;0.247545
9828.000000;0.248660
9827.000000;0.249678
9826.000000;0.250503
9825.000000;0.251100
9824.000000;0.251545
9823.000000;0.252087
9822.000000;0.252976
9821.000000;0.254184
9820.000000;0.255390
9819.000000;0.256294
9818.000000;0.256885
9817.000000;0.257386
9816.000000;0.258031
9815.000000;0.258944
9814.000000;0.260153
9813.000000;0.261596
9812.000000;0.263117
9811.000000;0.264520
9810.000000;0.265684
9809.000000;0.266616
9808.000000;0.267381
9807.000000;0.268021
9806.000000;0.268585
9805.000000;0.269185
9804.000000;0.269917
9803.000000;0.270729
9802.000000;0.271485
9801.000000;0.272203
9800.000000;0.273077
9799.000000;0.274166
9798.000000;0.275201
9797.000000;0.275882
9796.000000;0.276287
9795.000000;0.276772
9794.000000;0.277511
9793.000000;0.278360
9792.000000;0.279176
9791.000000;0.280028
9790.000000;0.280972
9789.000000;0.281859
9788.000000;0.282514
9787.000000;0.283000
9786.000000;0.283553
9785.000000;0.284326
9784.000000;0.285290
9783.000000;0.286327
9782.000000;0.287362
9781.000000;0.288406
9780.000000;0.289531
9779.000000;0.290739
9778.000000;0.291881
9777.000000;0.292807
9776.000000;0.293592
9775.000000;0.294457
9774.000000;0.295443
9773.000000;0.296351
9772.000000;0.297079
9771.000000;0.297837
9770.000000;0.298881
9769.000000;0.300184
9768.000000;0.301489
9767.000000;0.302587
9766.000000;0.303411
9765.000000;0.303979
9764.000000;0.304404
9763.000000;0.304903
9762.000000;0.305629
9761.000000;0.306525
9760.000000;0.307419
9759.000000;0.308205
9758.000000;0.308866
9757.000000;0.309443
9756.000000;0.310075
9755.000000;0.310955
9754.000000;0.312097
9753.000000;0.313259
9752.000000;0.314245
9751.000000;0.315190
9750.000000;0.316355
9749.000000;0.317711
9748.000000;0.318931
9747.000000;0.319792
9746.000000;0.320398
9745.000000;0.320966
9744.000000;0.321579
9743.000000;0.322206
9742.000000;0.322878
9741.000000;0.323721
9740.000000;0.324822
9739.000000;0.326070
9738.000000;0.327192
9737.000000;0.328021
9736.000000;0.328738
9735.000000;0.329707
9734.000000;0.331007
9733.000000;0.332319
9732.000000;0.333370
9731.000000;0.334298
9730.000000;0.335359
9729.000000;0.336420
9728.000000;0.337103
9727.000000;0.337387
9726.000000;0.337738
9725.000000;0.338534
9724.000000;0.339637
9723.000000;0.340694
9722.000000;0.341645
9721.000000;0.342712
9720.000000;0.343998
9719.000000;0.345342
9718.000000;0.346567
9717.000000;0.347674
9716.000000;0.348712
9715.000000;0.349583
9714.000000;0.350099
9713.000000;0.350248
9712.000000;0.350315
9711.000000;0.350680
9710.000000;0.351523
9709.000000;0.352749
9708.000000;0.354166
9707.000000;0.355647
9706.000000;0.357116
9705.000000;0.358463
9704.000000;0.359573
9703.000000;0.360438
9702.000000;0.361165
9701.000000;0.361874
9700.000000;0.362623
9699.000000;0.363427
9698.000000;0.364346
9697.000000;0.365492
9696.000000;0.366925
9695.000000;0.368513
9694.000000;0.369960
9693.000000;0.371045
9692.000000;0.371816
9691.000000;0.372481
9690.000000;0.373153
9689.000000;0.373841
9688.000000;0.374624
9687.000000;0.375621
9686.000000;0.376753
9685.000000;0.377740
9684.000000;0.378462
9683.000000;0.379147
9682.000000;0.380037
9681.000000;0.381028
9680.000000;0.381838
9679.000000;0.382444
9678.000000;0.383119
9677.000000;0.384070
9676.000000;0.385208
9675.000000;0.386335
9674.000000;0.387368
9673.000000;0.388335
9672.000000;0.389265
9671.000000;0.390178
9670.000000;0.391134
9669.000000;0.392228
9668.000000;0.393492
9667.000000;0.394783
9666.000000;0.395815
9665.000000;0.396391
9664.000000;0.396648
9663.000000;0.396985
9662.000000;0.397700
9661.000000;0.398785
9660.000000;0.400076
9659.000000;0.401458
9658.000000;0.402768
9657.000000;0.403685
9656.000000;0.403962
9655.000000;0.403790
9654.000000;0.403731
9653.000000;0.404262
9652.000000;0.405480
9651.000000;0.407188
9650.000000;0.409072
9649.000000;0.410783
9648.000000;0.412051
9647.000000;0.412847
9646.000000;0.413386
9645.000000;0.413910
9644.000000;0.414529
9643.000000;0.415286
9642.000000;0.416241
9641.000000;0.417392
9640.000000;0.418589
9639.000000;0.419628
9638.000000;0.420467
9637.000000;0.421306
9636.000000;0.422396
9635.000000;0.423726
9634.000000;0.424945
9633.000000;0.425662
9632.000000;0.425874
9631.000000;0.426001
9630.000000;0.426460
9629.000000;0.427259
9628.000000;0.428092
9627.000000;0.428746
9626.000000;0.429302
9625.000000;0.429972
9624.000000;0.430892
9623.000000;0.432092
9622.000000;0.433524
9621.000000;0.435045
9620.000000;0.436425
9619.000000;0.437456
9618.000000;0.438060
9617.000000;0.438329
9616.000000;0.438506
9615.000000;0.438895
9614.000000;0.439682
9613.000000;0.440766
9612.000000;0.441809
9611.000000;0.442525
9610.000000;0.442959
9609.000000;0.443466
9608.000000;0.444373
9607.000000;0.445674
9606.000000;0.447045
9605.000000;0.448176
9604.000000;0.449022
9603.000000;0.449727
9602.000000;0.450400
9601.000000;0.451056
9600.000000;0.451732
9599.000000;0.452500
9598.000000;0.453365
9597.000000;0.454265
9596.000000;0.455205
9595.000000;0.456268
9594.000000;0.457393
9593.000000;0.458314
9592.000000;0.458815
9591.000000;0.459003
9590.000000;0.459222
9589.000000;0.459790
9588.000000;0.460825
9587.000000;0.462203
9586.000000;0.463560
9585.000000;0.464497
9584.000000;0.464953
9583.000000;0.465307
9582.000000;0.465979
9581.000000;0.467000
9580.000000;0.468104
9579.000000;0.469146
9578.000000;0.470210
9577.000000;0.471331
9576.000000;0.472341
9575.000000;0.473076
9574.000000;0.473572
9573.000000;0.474004
9572.000000;0.474525
9571.000000;0.475201
9570.000000;0.476010
9569.000000;0.476823
9568.000000;0.477497
9567.000000;0.478047
9566.000000;0.478668
9565.000000;0.479533
9564.000000;0.480583
9563.000000;0.481577
9562.000000;0.482318
9561.000000;0.482834
9560.000000;0.483329
9559.000000;0.483973
9558.000000;0.484763
9557.000000;0.485603
9556.000000;0.486449
9555.000000;0.487263
9554.000000;0.487857
9553.000000;0.487978
9552.000000;0.487686
9551.000000;0.487470
9550.000000;0.487805
9549.000000;0.488637
9548.000000;0.489468
9547.000000;0.489957
9546.000000;0.490273
9545.000000;0.490795
9544.000000;0.491637
9543.000000;0.492547
9542.000000;0.493232
9541.000000;0.493661
9540.000000;0.494055
9539.000000;0.494601
9538.000000;0.495244
9537.000000;0.495794
9536.000000;0.496201
9535.000000;0.496598
9534.000000;0.497069
9533.000000;0.497530
9532.000000;0.497911
9531.000000;0.498342
9530.000000;0.498956
9529.000000;0.499631
9528.000000;0.500103
9527.000000;0.500322
9526.000000;0.500534
9525.000000;0.501019
9524.000000;0.501889
9523.000000;0.503058
9522.000000;0.504238
9521.000000;0.504995
9520.000000;0.505077
9519.000000;0.504744
9518.000000;0.504579
9517.000000;0.504918
9516.000000;0.505593
9515.000000;0.506276
9514.000000;0.506868
9513.000000;0.507471
9512.000000;0.508187
9511.000000;0.509045
9510.000000;0.509968
9509.000000;0.510711
9508.000000;0.510963
9507.000000;0.510696
9506.000000;0.510263
9505.000000;0.510064
9504.000000;0.510193
9503.000000;0.510530
9502.000000;0.510999
9501.000000;0.511584
9500.000000;0.512205
9499.000000;0.512778
9498.000000;0.513291
9497.000000;0.513649
9496.000000;0.513582
9495.000000;0.512974
9494.000000;0.512189
9493.000000;0.511811
9492.000000;0.512077
9491.000000;0.512812
9490.000000;0.513838
9489.000000;0.515089
9488.000000;0.516255
9487.000000;0.516752
9486.000000;0.516328
9485.000000;0.515478
9484.000000;0.514968
9483.000000;0.515056
9482.000000;0.515401
9481.000000;0.515578
9480.000000;0.515485
9479.000000;0.515311
9478.000000;0.515364
9477.000000;0.515891
9476.000000;0.516824
9475.000000;0.517656
9474.000000;0.517793
9473.000000;0.517164
9472.000000;0.516331
9471.000000;0.515936
9470.000000;0.516147
9469.000000;0.516698
9468.000000;0.517254
9467.000000;0.517605
9466.000000;0.517629
9465.000000;0.517293
9464.000000;0.516769
9463.000000;0.516420
9462.000000;0.516569
9461.000000;0.517208
9460.000000;0.517948
9459.000000;0.518294
9458.000000;0.518038
9457.000000;0.517419
9456.000000;0.516876
9455.000000;0.516681
9454.000000;0.516815
9453.000000;0.517132
9452.000000;0.517494
9451.000000;0.517763
9450.000000;0.517812
9449.000000;0.517665
9448.000000;0.517562
9447.000000;0.517740
9446.000000;0.518158
9445.000000;0.518480
9444.000000;0.518370
9443.000000;0.517787
9442.000000;0.516981
9441.000000;0.516250
9440.000000;0.515714
9439.000000;0.515330
9438.000000;0.515058
9437.000000;0.514931
9436.000000;0.514951
9435.000000;0.515027
9434.000000;0.515077
9433.000000;0.515086
9432.000000;0.514972
9431.000000;0.514532
9430.000000;0.513725
9429.000000;0.512914
9428.000000;0.512562
9427.000000;0.512646
9426.000000;0.512651
9425.000000;0.512267
9424.000000;0.511842
9423.000000;0.511931
9422.000000;0.512578
9421.000000;0.513265
9420.000000;0.513467
9419.000000;0.513097
9418.000000;0.512503
9417.000000;0.512207
9416.000000;0.512554
9415.000000;0.513348
9414.000000;0.513850
9413.000000;0.513413
9412.000000;0.512185
9411.000000;0.510992
9410.000000;0.510468
9409.000000;0.510472
9408.000000;0.510384
9407.000000;0.509763
9406.000000;0.508629
9405.000000;0.507304
9404.000000;0.506186
9403.000000;0.505598
9402.000000;0.505651
9401.000000;0.506167
9400.000000;0.506778
9399.000000;0.507137
9398.000000;0.507071
9397.000000;0.506613
9396.000000;0.505933
9395.000000;0.505248
9394.000000;0.504792
9393.000000;0.504821
9392.000000;0.505484
9391.000000;0.506556
9390.000000;0.507372
9389.000000;0.507304
9388.000000;0.506382
9387.000000;0.505259
9386.000000;0.504456
9385.000000;0.503847
9384.000000;0.503015
9383.000000;0.501942
9382.000000;0.501081
9381.000000;0.500804
9380.000000;0.500977
9379.000000;0.501085
9378.000000;0.500680
9377.000000;0.499676
9376.000000;0.498376
9375.000000;0.497288
9374.000000;0.496788
9373.000000;0.496844
9372.000000;0.497038
9371.000000;0.496910
9370.000000;0.496325
9369.000000;0.495514
9368.000000;0.494792
9367.000000;0.494282
9366.000000;0.493887
9365.000000;0.493494
9364.000000;0.493114
9363.000000;0.492791
9362.000000;0.492411
9361.000000;0.491706
9360.000000;0.490525
9359.000000;0.489049
9358.000000;0.487666
9357.000000;0.486669
9356.000000;0.486134
9355.000000;0.486009
9354.000000;0.486208
9353.000000;0.486589
9352.000000;0.486930
9351.000000;0.486998
9350.000000;0.486648
9349.000000;0.485886
9348.000000;0.484856
9347.000000;0.483797
9346.000000;0.482937
9345.000000;0.482380
9344.000000;0.482070
9343.000000;0.481809
9342.000000;0.481352
9341.000000;0.480554
9340.000000;0.479522
9339.000000;0.478592
9338.000000;0.478049
9337.000000;0.477830
9336.000000;0.477565
9335.000000;0.476925
9334.000000;0.475919
9333.000000;0.474861
9332.000000;0.474118
9331.000000;0.473844
9330.000000;0.473842
9329.000000;0.473643
9328.000000;0.472869
9327.000000;0.471604
9326.000000;0.470343
9325.000000;0.469470
9324.000000;0.468881
9323.000000;0.468220
9322.000000;0.467407
9321.000000;0.466768
9320.000000;0.466608
9319.000000;0.466812
9318.000000;0.466950
9317.000000;0.466710
9316.000000;0.466137
9315.000000;0.465494
9314.000000;0.464955
9313.000000;0.464443
9312.000000;0.463752
9311.000000;0.462845
9310.000000;0.461991
9309.000000;0.461525
9308.000000;0.461456
9307.000000;0.461389
9306.000000;0.460912
9305.000000;0.460007
9304.000000;0.458995
9303.000000;0.458119
9302.000000;0.457301
9301.000000;0.456333
9300.000000;0.455205
9299.000000;0.454155
9298.000000;0.453412
9297.000000;0.452961
9296.000000;0.452581
9295.000000;0.452080
9294.000000;0.451463
9293.000000;0.450886
9292.000000;0.450493
9291.000000;0.450284
9290.000000;0.450115
9289.000000;0.449794
9288.000000;0.449198
9287.000000;0.448323
9286.000000;0.447255
9285.000000;0.446116
9284.000000;0.445021
9283.000000;0.444047
9282.000000;0.443199
9281.000000;0.442422
9280.000000;0.441678
9279.000000;0.441046
9278.000000;0.440673
9277.000000;0.440527
9276.000000;0.440295
9275.000000;0.439641
9274.000000;0.438583
9273.000000;0.437468
9272.000000;0.436566
9271.000000;0.435865
9270.000000;0.435309
9269.000000;0.434978
9268.000000;0.434827
9267.000000;0.434450
9266.000000;0.433467
9265.000000;0.432126
9264.000000;0.431152
9263.000000;0.430894
9262.000000;0.430916
9261.000000;0.430594
9260.000000;0.429887
9259.000000;0.429261
9258.000000;0.428985
9257.000000;0.428817
9256.000000;0.428340
9255.000000;0.427370
9254.000000;0.425996
9253.000000;0.424460
9252.000000;0.423073
9251.000000;0.422088
9250.000000;0.421506
9249.000000;0.421091
9248.000000;0.420622
9247.000000;0.420061
9246.000000;0.419474
9245.000000;0.418895
9244.000000;0.418344
9243.000000;0.417854
9242.000000;0.417388
9241.000000;0.416850
9240.000000;0.416220
9239.000000;0.415586
9238.000000;0.414967
9237.000000;0.414233
9236.000000;0.413304
9235.000000;0.412348
9234.000000;0.411625
9233.000000;0.411210
9232.000000;0.410971
9231.000000;0.410781
9230.000000;0.410554
9229.000000;0.410128
9228.000000;0.409324
9227.000000;0.408185
9226.000000;0.407011
9225.000000;0.406063
9224.000000;0.405303
9223.000000;0.404481
9222.000000;0.403435
9221.000000;0.402258
9220.000000;0.401204
9219.000000;0.400489
9218.000000;0.400152
9217.000000;0.400092
9216.000000;0.400186
9215.000000;0.400320
9214.000000;0.400283
9213.000000;0.399769
9212.000000;0.398649
9211.000000;0.397233
9210.000000;0.396099
9209.000000;0.395608
9208.000000;0.395652
9207.000000;0.395862
9206.000000;0.395934
9205.000000;0.395705
9204.000000;0.395092
9203.000000;0.394091
9202.000000;0.392821
9201.000000;0.391459
9200.000000;0.390152
9199.000000;0.388988
9198.000000;0.387992
9197.000000;0.387116
9196.000000;0.386310
9195.000000;0.385650
9194.000000;0.385306
9193.000000;0.385284
9192.000000;0.385273
9191.000000;0.384895
9190.000000;0.384138
9189.000000;0.383406
9188.000000;0.383073
9187.000000;0.383029
9186.000000;0.382772
9185.000000;0.381976
9184.000000;0.380902
9183.000000;0.380138
9182.000000;0.379932
9181.000000;0.379901
9180.000000;0.379464
9179.000000;0.378440
9178.000000;0.377113
9177.000000;0.375831
9176.000000;0.374773
9175.000000;0.374032
9174.000000;0.373629
9173.000000;0.373372
9172.000000;0.372948
9171.000000;0.372282
9170.000000;0.371630
9169.000000;0.371170
9168.000000;0.370726
9167.000000;0.370062
9166.000000;0.369289
9165.000000;0.368731
9164.000000;0.368469
9163.000000;0.368245
9162.000000;0.367768
9161.000000;0.366943
9160.000000;0.365854
9159.000000;0.364687
9158.000000;0.363660
9157.000000;0.362873
9156.000000;0.362236
9155.000000;0.361649
9154.000000;0.361173
9153.000000;0.360898
9152.000000;0.360743
9151.000000;0.360552
9150.000000;0.360312
9149.000000;0.360096
9148.000000;0.359846
9147.000000;0.359434
9146.000000;0.358863
9145.000000;0.358193
9144.000000;0.357337
9143.000000;0.356224
9142.000000;0.355112
9141.000000;0.354394
9140.000000;0.354062
9139.000000;0.353677
9138.000000;0.352986
9137.000000;0.352241
9136.000000;0.351749
9135.000000;0.351413
9134.000000;0.350928
9133.000000;0.350220
9132.000000;0.349426
9131.000000;0.348620
9130.000000;0.347791
9129.000000;0.347017
9128.000000;0.346432
9127.000000;0.346072
9126.000000;0.345905
9125.000000;0.345917
9124.000000;0.346023
9123.000000;0.345984
9122.000000;0.345585
9121.000000;0.344891
9120.000000;0.344157
9119.000000;0.343521
9118.000000;0.342893
9117.000000;0.342098
9116.000000;0.341045
9115.000000;0.339828
9114.000000;0.338759
9113.000000;0.338204
9112.000000;0.338254
9111.000000;0.338610
9110.000000;0.338855
9109.000000;0.338734
9108.000000;0.338116
9107.000000;0.336905
9106.000000;0.335228
9105.000000;0.333553
9104.000000;0.332336
9103.000000;0.331603
9102.000000;0.331101
9101.000000;0.330783
9100.000000;0.330859
9099.000000;0.331361
9098.000000;0.331946
9097.000000;0.332181
9096.000000;0.331880
9095.000000;0.331123
9094.000000;0.330166
9093.000000;0.329363
9092.000000;0.328956
9091.000000;0.328815
9090.000000;0.328539
9089.000000;0.327886
9088.000000;0.326958
9087.000000;0.325926
9086.000000;0.324807
9085.000000;0.323652
9084.000000;0.322726
9083.000000;0.322276
9082.000000;0.322220
9081.000000;0.322243
9080.000000;0.322147
9079.000000;0.321947
9078.000000;0.321648
9077.000000;0.321154
9076.000000;0.320453
9075.000000;0.319739
9074.000000;0.319228
9073.000000;0.318889
9072.000000;0.318456
9071.000000;0.317732
9070.000000;0.316821
9069.000000;0.316039
9068.000000;0.315595
9067.000000;0.315452
9066.000000;0.315440
9065.000000;0.315402
9064.000000;0.315170
9063.000000;0.314575
9062.000000;0.313655
9061.000000;0.312763
9060.000000;0.312268
9059.000000;0.312135
9058.000000;0.311968
9057.000000;0.311495
9056.000000;0.310838
9055.000000;0.310262
9054.000000;0.309819
9053.000000;0.309348
