Criado como novo conjunto de dados;"e2410_daniel_v2.spp","25923.3 Secs"
cm-1;Abs
10000.000000;0.534743
9999.000000;0.534524
9998.000000;0.534325
9997.000000;0.534081
9996.000000;0.533636
9995.000000;0.532864
9994.000000;0.531891
9993.000000;0.531017
9992.000000;0.530401
9991.000000;0.530003
9990.000000;0.529759
9989.000000;0.529618
9988.000000;0.529437
9987.000000;0.529084
9986.000000;0.528628
9985.000000;0.528211
9984.000000;0.527767
9983.000000;0.527099
9982.000000;0.526217
9981.000000;0.525362
9980.000000;0.524687
9979.000000;0.524184
9978.000000;0.523864
9977.000000;0.523755
9976.000000;0.523709
9975.000000;0.523485
9974.000000;0.523050
9973.000000;0.522536
9972.000000;0.521925
9971.000000;0.521074
9970.000000;0.520070
9969.000000;0.519240
9968.000000;0.518721
9967.000000;0.518291
9966.000000;0.517735
9965.000000;0.517115
9964.000000;0.516608
9963.000000;0.516288
9962.000000;0.516156
9961.000000;0.516150
9960.000000;0.516064
9959.000000;0.515652
9958.000000;0.514922
9957.000000;0.514143
9956.000000;0.513493
9955.000000;0.512894
9954.000000;0.512214
9953.000000;0.511482
9952.000000;0.510810
9951.000000;0.510275
9950.000000;0.509894
9949.000000;0.509580
9948.000000;0.509149
9947.000000;0.508519
9946.000000;0.507850
9945.000000;0.507312
9944.000000;0.506808
9943.000000;0.506154
9942.000000;0.505449
9941.000000;0.504943
9940.000000;0.504627
9939.000000;0.504275
9938.000000;0.503856
9937.000000;0.503559
9936.000000;0.503373
9935.000000;0.503039
9934.000000;0.502493
9933.000000;0.502005
9932.000000;0.501740
9931.000000;0.501503
9930.000000;0.501041
9929.000000;0.500349
9928.000000;0.499561
9927.000000;0.498766
9926.000000;0.498074
9925.000000;0.497606
9924.000000;0.497309
9923.000000;0.496980
9922.000000;0.496562
9921.000000;0.496209
9920.000000;0.495973
9919.000000;0.495674
9918.000000;0.495175
9917.000000;0.494555
9916.000000;0.493915
9915.000000;0.493235
9914.000000;0.492515
9913.000000;0.491844
9912.000000;0.491210
9911.000000;0.490484
9910.000000;0.489711
9909.000000;0.489181
9908.000000;0.489052
9907.000000;0.489078
9906.000000;0.488864
9905.000000;0.488261
9904.000000;0.487412
9903.000000;0.486546
9902.000000;0.485871
9901.000000;0.485491
9900.000000;0.485315
9899.000000;0.485099
9898.000000;0.484665
9897.000000;0.484025
9896.000000;0.483290
9895.000000;0.482571
9894.000000;0.481990
9893.000000;0.481622
9892.000000;0.481393
9891.000000;0.481167
9890.000000;0.480920
9889.000000;0.480716
9888.000000;0.480512
9887.000000;0.480180
9886.000000;0.479699
9885.000000;0.479142
9884.000000;0.478507
9883.000000;0.477778
9882.000000;0.477117
9881.000000;0.476733
9880.000000;0.476525
9879.000000;0.476127
9878.000000;0.475390
9877.000000;0.474595
9876.000000;0.474069
9875.000000;0.473791
9874.000000;0.473504
9873.000000;0.473049
9872.000000;0.472466
9871.000000;0.471890
9870.000000;0.471420
9869.000000;0.471032
9868.000000;0.470582
9867.000000;0.469997
9866.000000;0.469422
9865.000000;0.469049
9864.000000;0.468834
9863.000000;0.468539
9862.000000;0.468040
9861.000000;0.467408
9860.000000;0.466734
9859.000000;0.466072
9858.000000;0.465547
9857.000000;0.465282
9856.000000;0.465174
9855.000000;0.464954
9854.000000;0.464489
9853.000000;0.463867
9852.000000;0.463181
9851.000000;0.462451
9850.000000;0.461752
9849.000000;0.461202
9848.000000;0.460787
9847.000000;0.460391
9846.000000;0.460028
9845.000000;0.459818
9844.000000;0.459736
9843.000000;0.459580
9842.000000;0.459232
9841.000000;0.458751
9840.000000;0.458188
9839.000000;0.457541
9838.000000;0.456906
9837.000000;0.456422
9836.000000;0.455995
9835.000000;0.455324
9834.000000;0.454343
9833.000000;0.453417
9832.000000;0.452944
9831.000000;0.452899
9830.000000;0.452890
9829.000000;0.452577
9828.000000;0.451944
9827.000000;0.451234
9826.000000;0.450690
9825.000000;0.450329
9824.000000;0.449962
9823.000000;0.449456
9822.000000;0.448893
9821.000000;0.448391
9820.000000;0.447900
9819.000000;0.447318
9818.000000;0.446714
9817.000000;0.446200
9816.000000;0.445712
9815.000000;0.445128
9814.000000;0.444565
9813.000000;0.444257
9812.000000;0.444156
9811.000000;0.443936
9810.000000;0.443409
9809.000000;0.442714
9808.000000;0.442049
9807.000000;0.441443
9806.000000;0.440871
9805.000000;0.440366
9804.000000;0.439952
9803.000000;0.439597
9802.000000;0.439287
9801.000000;0.439010
9800.000000;0.438666
9799.000000;0.438149
9798.000000;0.437523
9797.000000;0.436953
9796.000000;0.436490
9795.000000;0.436063
9794.000000;0.435650
9793.000000;0.435285
9792.000000;0.434939
9791.000000;0.434583
9790.000000;0.434292
9789.000000;0.434088
9788.000000;0.433751
9787.000000;0.433063
9786.000000;0.432189
9785.000000;0.431513
9784.000000;0.431123
9783.000000;0.430743
9782.000000;0.430187
9781.000000;0.429583
9780.000000;0.429062
9779.000000;0.428538
9778.000000;0.427917
9777.000000;0.427295
9776.000000;0.426807
9775.000000;0.426451
9774.000000;0.426162
9773.000000;0.425920
9772.000000;0.425697
9771.000000;0.425432
9770.000000;0.425112
9769.000000;0.424747
9768.000000;0.424304
9767.000000;0.423767
9766.000000;0.423253
9765.000000;0.422852
9764.000000;0.422416
9763.000000;0.421721
9762.000000;0.420840
9761.000000;0.420105
9760.000000;0.419686
9759.000000;0.419431
9758.000000;0.419137
9757.000000;0.418752
9756.000000;0.418272
9755.000000;0.417690
9754.000000;0.417108
9753.000000;0.416692
9752.000000;0.416457
9751.000000;0.416277
9750.000000;0.416113
9749.000000;0.416008
9748.000000;0.415834
9747.000000;0.415307
9746.000000;0.414372
9745.000000;0.413335
9744.000000;0.412514
9743.000000;0.411928
9742.000000;0.411438
9741.000000;0.410988
9740.000000;0.410593
9739.000000;0.410243
9738.000000;0.409929
9737.000000;0.409673
9736.000000;0.409446
9735.000000;0.409151
9734.000000;0.408752
9733.000000;0.408308
9732.000000;0.407852
9731.000000;0.407342
9730.000000;0.406739
9729.000000;0.406067
9728.000000;0.405384
9727.000000;0.404775
9726.000000;0.404331
9725.000000;0.404037
9724.000000;0.403716
9723.000000;0.403244
9722.000000;0.402740
9721.000000;0.402396
9720.000000;0.402182
9719.000000;0.401911
9718.000000;0.401539
9717.000000;0.401169
9716.000000;0.400797
9715.000000;0.400289
9714.000000;0.399635
9713.000000;0.399006
9712.000000;0.398527
9711.000000;0.398156
9710.000000;0.397797
9709.000000;0.397380
9708.000000;0.396843
9707.000000;0.396206
9706.000000;0.395646
9705.000000;0.395318
9704.000000;0.395133
9703.000000;0.394879
9702.000000;0.394510
9701.000000;0.394110
9700.000000;0.393641
9699.000000;0.392979
9698.000000;0.392187
9697.000000;0.391481
9696.000000;0.390918
9695.000000;0.390361
9694.000000;0.389775
9693.000000;0.389310
9692.000000;0.389062
9691.000000;0.388940
9690.000000;0.388826
9689.000000;0.388653
9688.000000;0.388323
9687.000000;0.387741
9686.000000;0.387006
9685.000000;0.386383
9684.000000;0.386022
9683.000000;0.385848
9682.000000;0.385707
9681.000000;0.385476
9680.000000;0.385067
9679.000000;0.384490
9678.000000;0.383924
9677.000000;0.383519
9676.000000;0.383184
9675.000000;0.382736
9674.000000;0.382218
9673.000000;0.381842
9672.000000;0.381649
9671.000000;0.381468
9670.000000;0.381191
9669.000000;0.380850
9668.000000;0.380427
9667.000000;0.379849
9666.000000;0.379169
9665.000000;0.378534
9664.000000;0.377947
9663.000000;0.377320
9662.000000;0.376734
9661.000000;0.376377
9660.000000;0.376204
9659.000000;0.375926
9658.000000;0.375392
9657.000000;0.374739
9656.000000;0.374139
9655.000000;0.373629
9654.000000;0.373244
9653.000000;0.373044
9652.000000;0.372938
9651.000000;0.372706
9650.000000;0.372268
9649.000000;0.371755
9648.000000;0.371276
9647.000000;0.370831
9646.000000;0.370452
9645.000000;0.370187
9644.000000;0.369910
9643.000000;0.369422
9642.000000;0.368790
9641.000000;0.368318
9640.000000;0.368090
9639.000000;0.367808
9638.000000;0.367209
9637.000000;0.366414
9636.000000;0.365721
9635.000000;0.365259
9634.000000;0.364973
9633.000000;0.364778
9632.000000;0.364580
9631.000000;0.364292
9630.000000;0.363922
9629.000000;0.363555
9628.000000;0.363195
9627.000000;0.362760
9626.000000;0.362245
9625.000000;0.361735
9624.000000;0.361236
9623.000000;0.360679
9622.000000;0.360116
9621.000000;0.359703
9620.000000;0.359444
9619.000000;0.359145
9618.000000;0.358677
9617.000000;0.358108
9616.000000;0.357520
9615.000000;0.356896
9614.000000;0.356270
9613.000000;0.355782
9612.000000;0.355490
9611.000000;0.355272
9610.000000;0.354991
9609.000000;0.354633
9608.000000;0.354228
9607.000000;0.353788
9606.000000;0.353365
9605.000000;0.353011
9604.000000;0.352657
9603.000000;0.352184
9602.000000;0.351648
9601.000000;0.351252
9600.000000;0.351056
9599.000000;0.350889
9598.000000;0.350586
9597.000000;0.350160
9596.000000;0.349675
9595.000000;0.349128
9594.000000;0.348535
9593.000000;0.347971
9592.000000;0.347489
9591.000000;0.347116
9590.000000;0.346920
9589.000000;0.346920
9588.000000;0.346937
9587.000000;0.346716
9586.000000;0.346226
9585.000000;0.345651
9584.000000;0.345090
9583.000000;0.344486
9582.000000;0.343867
9581.000000;0.343392
9580.000000;0.343081
9579.000000;0.342733
9578.000000;0.342237
9577.000000;0.341748
9576.000000;0.341442
9575.000000;0.341259
9574.000000;0.341026
9573.000000;0.340697
9572.000000;0.340336
9571.000000;0.339983
9570.000000;0.339640
9569.000000;0.339285
9568.000000;0.338852
9567.000000;0.338301
9566.000000;0.337735
9565.000000;0.337312
9564.000000;0.337013
9563.000000;0.336640
9562.000000;0.336103
9561.000000;0.335553
9560.000000;0.335149
9559.000000;0.334841
9558.000000;0.334473
9557.000000;0.333990
9556.000000;0.333478
9555.000000;0.333065
9554.000000;0.332839
9553.000000;0.332765
9552.000000;0.332670
9551.000000;0.332386
9550.000000;0.331929
9549.000000;0.331436
9548.000000;0.330956
9547.000000;0.330430
9546.000000;0.329843
9545.000000;0.329278
9544.000000;0.328796
9543.000000;0.328422
9542.000000;0.328203
9541.000000;0.328142
9540.000000;0.328078
9539.000000;0.327817
9538.000000;0.327374
9537.000000;0.326920
9536.000000;0.326507
9535.000000;0.326032
9534.000000;0.325491
9533.000000;0.325042
9532.000000;0.324762
9531.000000;0.324527
9530.000000;0.324190
9529.000000;0.323730
9528.000000;0.323189
9527.000000;0.322606
9526.000000;0.322062
9525.000000;0.321629
9524.000000;0.321251
9523.000000;0.320820
9522.000000;0.320386
9521.000000;0.320118
9520.000000;0.320031
9519.000000;0.319922
9518.000000;0.319643
9517.000000;0.319241
9516.000000;0.318798
9515.000000;0.318302
9514.000000;0.317745
9513.000000;0.317213
9512.000000;0.316777
9511.000000;0.316418
9510.000000;0.316108
9509.000000;0.315848
9508.000000;0.315597
9507.000000;0.315293
9506.000000;0.314980
9505.000000;0.314756
9504.000000;0.314578
9503.000000;0.314249
9502.000000;0.313671
9501.000000;0.312964
9500.000000;0.312300
9499.000000;0.311751
9498.000000;0.311340
9497.000000;0.311093
9496.000000;0.310972
9495.000000;0.310851
9494.000000;0.310642
9493.000000;0.310344
9492.000000;0.309954
9491.000000;0.309455
9490.000000;0.308902
9489.000000;0.308414
9488.000000;0.308022
9487.000000;0.307628
9486.000000;0.307145
9485.000000;0.306618
9484.000000;0.306157
9483.000000;0.305826
9482.000000;0.305588
9481.000000;0.305304
9480.000000;0.304834
9479.000000;0.304222
9478.000000;0.303729
9477.000000;0.303557
9476.000000;0.303592
9475.000000;0.303547
9474.000000;0.303295
9473.000000;0.302928
9472.000000;0.302534
9471.000000;0.302096
9470.000000;0.301617
9469.000000;0.301148
9468.000000;0.300705
9467.000000;0.300281
9466.000000;0.299932
9465.000000;0.299711
9464.000000;0.299529
9463.000000;0.299239
9462.000000;0.298832
9461.000000;0.298417
9460.000000;0.298026
9459.000000;0.297632
9458.000000;0.297303
9457.000000;0.297145
9456.000000;0.297068
9455.000000;0.296827
9454.000000;0.296315
9453.000000;0.295666
9452.000000;0.295028
9451.000000;0.294426
9450.000000;0.293875
9449.000000;0.293431
9448.000000;0.293083
9447.000000;0.292728
9446.000000;0.292344
9445.000000;0.292039
9444.000000;0.291875
9443.000000;0.291761
9442.000000;0.291580
9441.000000;0.291325
9440.000000;0.291058
9439.000000;0.290810
9438.000000;0.290561
9437.000000;0.290270
9436.000000;0.289925
9435.000000;0.289580
9434.000000;0.289310
9433.000000;0.289087
9432.000000;0.288769
9431.000000;0.288298
9430.000000;0.287778
9429.000000;0.287294
9428.000000;0.286783
9427.000000;0.286222
9426.000000;0.285779
9425.000000;0.285581
9424.000000;0.285470
9423.000000;0.285206
9422.000000;0.284827
9421.000000;0.284556
9420.000000;0.284421
9419.000000;0.284223
9418.000000;0.283865
9417.000000;0.283456
9416.000000;0.283091
9415.000000;0.282752
9414.000000;0.282433
9413.000000;0.282139
9412.000000;0.281779
9411.000000;0.281277
9410.000000;0.280775
9409.000000;0.280504
9408.000000;0.280449
9407.000000;0.280351
9406.000000;0.280046
9405.000000;0.279595
9404.000000;0.279086
9403.000000;0.278554
9402.000000;0.278106
9401.000000;0.277873
9400.000000;0.277780
9399.000000;0.277588
9398.000000;0.277204
9397.000000;0.276747
9396.000000;0.276295
9395.000000;0.275814
9394.000000;0.275378
9393.000000;0.275178
9392.000000;0.275202
9391.000000;0.275142
9390.000000;0.274754
9389.000000;0.274131
9388.000000;0.273525
9387.000000;0.273049
9386.000000;0.272674
9385.000000;0.272356
9384.000000;0.272064
9383.000000;0.271774
9382.000000;0.271517
9381.000000;0.271332
9380.000000;0.271151
9379.000000;0.270846
9378.000000;0.270412
9377.000000;0.269974
9376.000000;0.269592
9375.000000;0.269214
9374.000000;0.268826
9373.000000;0.268503
9372.000000;0.268280
9371.000000;0.268131
9370.000000;0.268068
9369.000000;0.268111
9368.000000;0.268126
9367.000000;0.267912
9366.000000;0.267456
9365.000000;0.266949
9364.000000;0.266503
9363.000000;0.266051
9362.000000;0.265559
9361.000000;0.265125
9360.000000;0.264811
9359.000000;0.264550
9358.000000;0.264291
9357.000000;0.264090
9356.000000;0.263953
9355.000000;0.263756
9354.000000;0.263407
9353.000000;0.262962
9352.000000;0.262520
9351.000000;0.262119
9350.000000;0.261773
9349.000000;0.261491
9348.000000;0.261198
9347.000000;0.260775
9346.000000;0.260227
9345.000000;0.259709
9344.000000;0.259339
9343.000000;0.259091
9342.000000;0.258878
9341.000000;0.258622
9340.000000;0.258244
9339.000000;0.257748
9338.000000;0.257320
9337.000000;0.257167
9336.000000;0.257223
9335.000000;0.257188
9334.000000;0.256905
9333.000000;0.256537
9332.000000;0.256303
9331.000000;0.256197
9330.000000;0.256065
9329.000000;0.255800
9328.000000;0.255405
9327.000000;0.254948
9326.000000;0.254540
9325.000000;0.254264
9324.000000;0.254067
9323.000000;0.253821
9322.000000;0.253494
9321.000000;0.253158
9320.000000;0.252836
9319.000000;0.252470
9318.000000;0.252053
9317.000000;0.251657
9316.000000;0.251313
9315.000000;0.251000
9314.000000;0.250757
9313.000000;0.250652
9312.000000;0.250611
9311.000000;0.250446
9310.000000;0.250091
9309.000000;0.249661
9308.000000;0.249254
9307.000000;0.248846
9306.000000;0.248435
9305.000000;0.248106
9304.000000;0.247896
9303.000000;0.247715
9302.000000;0.247478
9301.000000;0.247189
9300.000000;0.246865
9299.000000;0.246511
9298.000000;0.246197
9297.000000;0.246004
9296.000000;0.245866
9295.000000;0.245600
9294.000000;0.245171
9293.000000;0.244753
9292.000000;0.244479
9291.000000;0.244268
9290.000000;0.244009
9289.000000;0.243755
9288.000000;0.243615
9287.000000;0.243547
9286.000000;0.243386
9285.000000;0.243030
9284.000000;0.242529
9283.000000;0.242020
9282.000000;0.241631
9281.000000;0.241396
9280.000000;0.241227
9279.000000;0.241007
9278.000000;0.240717
9277.000000;0.240438
9276.000000;0.240224
9275.000000;0.240057
9274.000000;0.239902
9273.000000;0.239732
9272.000000;0.239491
9271.000000;0.239131
9270.000000;0.238706
9269.000000;0.238336
9268.000000;0.238092
9267.000000;0.237970
9266.000000;0.237928
9265.000000;0.237877
9264.000000;0.237671
9263.000000;0.237239
9262.000000;0.236702
9261.000000;0.236244
9260.000000;0.235904
9259.000000;0.235602
9258.000000;0.235318
9257.000000;0.235107
9256.000000;0.234939
9255.000000;0.234698
9254.000000;0.234346
9253.000000;0.233955
9252.000000;0.233574
9251.000000;0.233201
9250.000000;0.232883
9249.000000;0.232688
9248.000000;0.232584
9247.000000;0.232446
9246.000000;0.232217
9245.000000;0.231929
9244.000000;0.231597
9243.000000;0.231209
9242.000000;0.230821
9241.000000;0.230524
9240.000000;0.230308
9239.000000;0.230083
9238.000000;0.229810
9237.000000;0.229501
9236.000000;0.229132
9235.000000;0.228702
9234.000000;0.228340
9233.000000;0.228183
9232.000000;0.228169
9231.000000;0.228101
9230.000000;0.227920
9229.000000;0.227728
9228.000000;0.227547
9227.000000;0.227283
9226.000000;0.226931
9225.000000;0.226641
9224.000000;0.226504
9223.000000;0.226431
9222.000000;0.226296
9221.000000;0.226056
9220.000000;0.225693
9219.000000;0.225192
9218.000000;0.224633
9217.000000;0.224168
9216.000000;0.223862
9215.000000;0.223662
9214.000000;0.223532
9213.000000;0.223476
9212.000000;0.223422
9211.000000;0.223248
9210.000000;0.222969
9209.000000;0.222746
9208.000000;0.222655
9207.000000;0.222564
9206.000000;0.222310
9205.000000;0.221869
9204.000000;0.221336
9203.000000;0.220841
9202.000000;0.220520
9201.000000;0.220449
9200.000000;0.220539
9199.000000;0.220586
9198.000000;0.220458
9197.000000;0.220166
9196.000000;0.219769
9195.000000;0.219330
9194.000000;0.218957
9193.000000;0.218740
9192.000000;0.218624
9191.000000;0.218467
9190.000000;0.218224
9189.000000;0.217962
9188.000000;0.217694
9187.000000;0.217351
9186.000000;0.216942
9185.000000;0.216593
9184.000000;0.216385
9183.000000;0.216274
9182.000000;0.216187
9181.000000;0.216082
9180.000000;0.215892
9179.000000;0.215570
9178.000000;0.215209
9177.000000;0.214987
9176.000000;0.214934
9175.000000;0.214876
9174.000000;0.214653
9173.000000;0.214278
9172.000000;0.213859
9171.000000;0.213501
9170.000000;0.213294
9169.000000;0.213269
9168.000000;0.213312
9167.000000;0.213230
9166.000000;0.212960
9165.000000;0.212598
9164.000000;0.212222
9163.000000;0.211794
9162.000000;0.211295
9161.000000;0.210814
9160.000000;0.210454
9159.000000;0.210225
9158.000000;0.210086
9157.000000;0.209992
9156.000000;0.209873
9155.000000;0.209662
9154.000000;0.209376
9153.000000;0.209102
9152.000000;0.208895
9151.000000;0.208754
9150.000000;0.208662
9149.000000;0.208571
9148.000000;0.208374
9147.000000;0.208020
9146.000000;0.207634
9145.000000;0.207395
9144.000000;0.207302
9143.000000;0.207198
9142.000000;0.207013
9141.000000;0.206828
9140.000000;0.206699
9139.000000;0.206563
9138.000000;0.206361
9137.000000;0.206108
9136.000000;0.205811
9135.000000;0.205432
9134.000000;0.204999
9133.000000;0.204621
9132.000000;0.204354
9131.000000;0.204155
9130.000000;0.203985
9129.000000;0.203875
9128.000000;0.203841
9127.000000;0.203821
9126.000000;0.203728
9125.000000;0.203517
9124.000000;0.203206
9123.000000;0.202891
9122.000000;0.202704
9121.000000;0.202654
9120.000000;0.202565
9119.000000;0.202270
9118.000000;0.201844
9117.000000;0.201493
9116.000000;0.201261
9115.000000;0.201011
9114.000000;0.200666
9113.000000;0.200313
9112.000000;0.200038
9111.000000;0.199831
9110.000000;0.199686
9109.000000;0.199623
9108.000000;0.199594
9107.000000;0.199495
9106.000000;0.199303
9105.000000;0.199099
9104.000000;0.198923
9103.000000;0.198752
9102.000000;0.198611
9101.000000;0.198557
9100.000000;0.198534
9099.000000;0.198395
9098.000000;0.198125
9097.000000;0.197869
9096.000000;0.197705
9095.000000;0.197534
9094.000000;0.197260
9093.000000;0.196937
9092.000000;0.196665
9091.000000;0.196461
9090.000000;0.196296
9089.000000;0.196176
9088.000000;0.196091
9087.000000;0.195975
9086.000000;0.195787
9085.000000;0.195568
9084.000000;0.195367
9083.000000;0.195169
9082.000000;0.194930
9081.000000;0.194630
9080.000000;0.194290
9079.000000;0.193969
9078.000000;0.193753
9077.000000;0.193670
9076.000000;0.193621
9075.000000;0.193467
9074.000000;0.193184
9073.000000;0.192865
9072.000000;0.192586
9071.000000;0.192360
9070.000000;0.192191
9069.000000;0.192071
9068.000000;0.191945
9067.000000;0.191758
9066.000000;0.191533
9065.000000;0.191321
9064.000000;0.191126
9063.000000;0.190953
9062.000000;0.190872
9061.000000;0.190889
9060.000000;0.190833
9059.000000;0.190542
9058.000000;0.190102
9057.000000;0.189750
9056.000000;0.189549
9055.000000;0.189359
9054.000000;0.189112
9053.000000;0.188908
