Criado como novo conjunto de dados;"e2410_daniel_v2.spp","80826.3 Secs"
cm-1;Abs
10000.000000;1.035084
9999.000000;1.033867
9998.000000;1.032810
9997.000000;1.032144
9996.000000;1.031577
9995.000000;1.030890
9994.000000;1.030331
9993.000000;1.030091
9992.000000;1.029815
9991.000000;1.029044
9990.000000;1.027844
9989.000000;1.026633
9988.000000;1.025615
9987.000000;1.024751
9986.000000;1.024140
9985.000000;1.024002
9984.000000;1.024278
9983.000000;1.024524
9982.000000;1.024317
9981.000000;1.023630
9980.000000;1.022752
9979.000000;1.021924
9978.000000;1.021142
9977.000000;1.020311
9976.000000;1.019534
9975.000000;1.019124
9974.000000;1.019256
9973.000000;1.019698
9972.000000;1.020010
9971.000000;1.019940
9970.000000;1.019565
9969.000000;1.019097
9968.000000;1.018680
9967.000000;1.018303
9966.000000;1.017775
9965.000000;1.016882
9964.000000;1.015713
9963.000000;1.014708
9962.000000;1.014214
9961.000000;1.014112
9960.000000;1.014025
9959.000000;1.013751
9958.000000;1.013271
9957.000000;1.012530
9956.000000;1.011529
9955.000000;1.010534
9954.000000;1.009850
9953.000000;1.009422
9952.000000;1.008945
9951.000000;1.008337
9950.000000;1.007788
9949.000000;1.007370
9948.000000;1.006939
9947.000000;1.006423
9946.000000;1.005914
9945.000000;1.005428
9944.000000;1.004874
9943.000000;1.004311
9942.000000;1.003938
9941.000000;1.003780
9940.000000;1.003632
9939.000000;1.003376
9938.000000;1.003088
9937.000000;1.002772
9936.000000;1.002269
9935.000000;1.001495
9934.000000;1.000578
9933.000000;0.999664
9932.000000;0.998809
9931.000000;0.998078
9930.000000;0.997521
9929.000000;0.996999
9928.000000;0.996275
9927.000000;0.995346
9926.000000;0.994496
9925.000000;0.993964
9924.000000;0.993761
9923.000000;0.993807
9922.000000;0.993976
9921.000000;0.993953
9920.000000;0.993343
9919.000000;0.992093
9918.000000;0.990624
9917.000000;0.989439
9916.000000;0.988735
9915.000000;0.988418
9914.000000;0.988286
9913.000000;0.988107
9912.000000;0.987726
9911.000000;0.987205
9910.000000;0.986739
9909.000000;0.986403
9908.000000;0.986119
9907.000000;0.985845
9906.000000;0.985583
9905.000000;0.985185
9904.000000;0.984416
9903.000000;0.983310
9902.000000;0.982272
9901.000000;0.981725
9900.000000;0.981794
9899.000000;0.982322
9898.000000;0.982974
9897.000000;0.983272
9896.000000;0.982801
9895.000000;0.981559
9894.000000;0.979962
9893.000000;0.978442
9892.000000;0.977192
9891.000000;0.976314
9890.000000;0.975956
9889.000000;0.976107
9888.000000;0.976425
9887.000000;0.976477
9886.000000;0.976108
9885.000000;0.975495
9884.000000;0.974907
9883.000000;0.974489
9882.000000;0.974212
9881.000000;0.973906
9880.000000;0.973391
9879.000000;0.972650
9878.000000;0.971891
9877.000000;0.971380
9876.000000;0.971212
9875.000000;0.971214
9874.000000;0.971062
9873.000000;0.970519
9872.000000;0.969599
9871.000000;0.968510
9870.000000;0.967436
9869.000000;0.966430
9868.000000;0.965514
9867.000000;0.964747
9866.000000;0.964155
9865.000000;0.963678
9864.000000;0.963245
9863.000000;0.962829
9862.000000;0.962429
9861.000000;0.962107
9860.000000;0.962023
9859.000000;0.962237
9858.000000;0.962414
9857.000000;0.962009
9856.000000;0.960891
9855.000000;0.959538
9854.000000;0.958471
9853.000000;0.957735
9852.000000;0.957124
9851.000000;0.956638
9850.000000;0.956374
9849.000000;0.956182
9848.000000;0.955803
9847.000000;0.955270
9846.000000;0.954848
9845.000000;0.954644
9844.000000;0.954550
9843.000000;0.954479
9842.000000;0.954366
9841.000000;0.953978
9840.000000;0.953052
9839.000000;0.951638
9838.000000;0.950101
9837.000000;0.948824
9836.000000;0.948095
9835.000000;0.948113
9834.000000;0.948758
9833.000000;0.949403
9832.000000;0.949317
9831.000000;0.948351
9830.000000;0.947025
9829.000000;0.945929
9828.000000;0.945289
9827.000000;0.945029
9826.000000;0.944918
9825.000000;0.944653
9824.000000;0.944087
9823.000000;0.943471
9822.000000;0.943211
9821.000000;0.943322
9820.000000;0.943381
9819.000000;0.943042
9818.000000;0.942360
9817.000000;0.941541
9816.000000;0.940640
9815.000000;0.939653
9814.000000;0.938672
9813.000000;0.937815
9812.000000;0.937130
9811.000000;0.936631
9810.000000;0.936294
9809.000000;0.935957
9808.000000;0.935395
9807.000000;0.934586
9806.000000;0.933777
9805.000000;0.933205
9804.000000;0.932849
9803.000000;0.932509
9802.000000;0.932061
9801.000000;0.931602
9800.000000;0.931351
9799.000000;0.931389
9798.000000;0.931467
9797.000000;0.931187
9796.000000;0.930444
9795.000000;0.929576
9794.000000;0.928956
9793.000000;0.928593
9792.000000;0.928267
9791.000000;0.927883
9790.000000;0.927463
9789.000000;0.926946
9788.000000;0.926280
9787.000000;0.925631
9786.000000;0.925213
9785.000000;0.924926
9784.000000;0.924463
9783.000000;0.923764
9782.000000;0.923103
9781.000000;0.922706
9780.000000;0.922526
9779.000000;0.922422
9778.000000;0.922327
9777.000000;0.922154
9776.000000;0.921751
9775.000000;0.921044
9774.000000;0.920110
9773.000000;0.919101
9772.000000;0.918214
9771.000000;0.917659
9770.000000;0.917459
9769.000000;0.917312
9768.000000;0.916890
9767.000000;0.916250
9766.000000;0.915732
9765.000000;0.915442
9764.000000;0.915088
9763.000000;0.914383
9762.000000;0.913423
9761.000000;0.912585
9760.000000;0.912186
9759.000000;0.912235
9758.000000;0.912375
9757.000000;0.912081
9756.000000;0.911133
9755.000000;0.909897
9754.000000;0.908981
9753.000000;0.908613
9752.000000;0.908520
9751.000000;0.908369
9750.000000;0.908103
9749.000000;0.907819
9748.000000;0.907556
9747.000000;0.907235
9746.000000;0.906676
9745.000000;0.905688
9744.000000;0.904361
9743.000000;0.903212
9742.000000;0.902752
9741.000000;0.902893
9740.000000;0.903029
9739.000000;0.902767
9738.000000;0.902256
9737.000000;0.901744
9736.000000;0.901174
9735.000000;0.900442
9734.000000;0.899774
9733.000000;0.899489
9732.000000;0.899511
9731.000000;0.899399
9730.000000;0.898877
9729.000000;0.898114
9728.000000;0.897468
9727.000000;0.897105
9726.000000;0.896923
9725.000000;0.896725
9724.000000;0.896400
9723.000000;0.895940
9722.000000;0.895362
9721.000000;0.894666
9720.000000;0.893904
9719.000000;0.893229
9718.000000;0.892792
9717.000000;0.892593
9716.000000;0.892472
9715.000000;0.892258
9714.000000;0.891886
9713.000000;0.891400
9712.000000;0.890878
9711.000000;0.890343
9710.000000;0.889710
9709.000000;0.888864
9708.000000;0.887857
9707.000000;0.886933
9706.000000;0.886312
9705.000000;0.885966
9704.000000;0.885692
9703.000000;0.885331
9702.000000;0.884849
9701.000000;0.884291
9700.000000;0.883760
9699.000000;0.883387
9698.000000;0.883218
9697.000000;0.883147
9696.000000;0.883044
9695.000000;0.882880
9694.000000;0.882623
9693.000000;0.882099
9692.000000;0.881177
9691.000000;0.880065
9690.000000;0.879236
9689.000000;0.878953
9688.000000;0.878963
9687.000000;0.878775
9686.000000;0.878178
9685.000000;0.877422
9684.000000;0.876880
9683.000000;0.876629
9682.000000;0.876424
9681.000000;0.876065
9680.000000;0.875627
9679.000000;0.875241
9678.000000;0.874796
9677.000000;0.874054
9676.000000;0.873043
9675.000000;0.872103
9674.000000;0.871508
9673.000000;0.871196
9672.000000;0.870932
9671.000000;0.870557
9670.000000;0.870027
9669.000000;0.869372
9668.000000;0.868729
9667.000000;0.868293
9666.000000;0.868114
9665.000000;0.868062
9664.000000;0.868011
9663.000000;0.867930
9662.000000;0.867747
9661.000000;0.867335
9660.000000;0.866712
9659.000000;0.866089
9658.000000;0.865598
9657.000000;0.865115
9656.000000;0.864482
9655.000000;0.863738
9654.000000;0.863056
9653.000000;0.862572
9652.000000;0.862364
9651.000000;0.862409
9650.000000;0.862458
9649.000000;0.862149
9648.000000;0.861367
9647.000000;0.860355
9646.000000;0.859380
9645.000000;0.858485
9644.000000;0.857661
9643.000000;0.857007
9642.000000;0.856572
9641.000000;0.856230
9640.000000;0.855887
9639.000000;0.855607
9638.000000;0.855397
9637.000000;0.855096
9636.000000;0.854641
9635.000000;0.854214
9634.000000;0.853918
9633.000000;0.853563
9632.000000;0.853013
9631.000000;0.852480
9630.000000;0.852188
9629.000000;0.851942
9628.000000;0.851367
9627.000000;0.850469
9626.000000;0.849634
9625.000000;0.849179
9624.000000;0.849149
9623.000000;0.849437
9622.000000;0.849789
9621.000000;0.849790
9620.000000;0.849170
9619.000000;0.848132
9618.000000;0.847147
9617.000000;0.846446
9616.000000;0.845900
9615.000000;0.845337
9614.000000;0.844748
9613.000000;0.844222
9612.000000;0.843866
9611.000000;0.843775
9610.000000;0.843876
9609.000000;0.843840
9608.000000;0.843309
9607.000000;0.842248
9606.000000;0.840990
9605.000000;0.839989
9604.000000;0.839556
9603.000000;0.839674
9602.000000;0.839922
9601.000000;0.839745
9600.000000;0.838973
9599.000000;0.837978
9598.000000;0.837242
9597.000000;0.836917
9596.000000;0.836876
9595.000000;0.836938
9594.000000;0.836891
9593.000000;0.836547
9592.000000;0.835984
9591.000000;0.835518
9590.000000;0.835259
9589.000000;0.834945
9588.000000;0.834429
9587.000000;0.834003
9586.000000;0.833920
9585.000000;0.833881
9584.000000;0.833430
9583.000000;0.832647
9582.000000;0.832027
9581.000000;0.831768
9580.000000;0.831602
9579.000000;0.831263
9578.000000;0.830741
9577.000000;0.830091
9576.000000;0.829350
9575.000000;0.828648
9574.000000;0.828118
9573.000000;0.827673
9572.000000;0.827146
9571.000000;0.826592
9570.000000;0.826197
9569.000000;0.825933
9568.000000;0.825601
9567.000000;0.825164
9566.000000;0.824759
9565.000000;0.824413
9564.000000;0.824022
9563.000000;0.823588
9562.000000;0.823181
9561.000000;0.822716
9560.000000;0.822058
9559.000000;0.821353
9558.000000;0.820918
9557.000000;0.820779
9556.000000;0.820617
9555.000000;0.820197
9554.000000;0.819580
9553.000000;0.818885
9552.000000;0.818100
9551.000000;0.817241
9550.000000;0.816460
9549.000000;0.815912
9548.000000;0.815621
9547.000000;0.815507
9546.000000;0.815437
9545.000000;0.815290
9544.000000;0.815086
9543.000000;0.814971
9542.000000;0.814931
9541.000000;0.814668
9540.000000;0.813994
9539.000000;0.813209
9538.000000;0.812781
9537.000000;0.812748
9536.000000;0.812745
9535.000000;0.812521
9534.000000;0.812106
9533.000000;0.811503
9532.000000;0.810630
9531.000000;0.809650
9530.000000;0.808980
9529.000000;0.808822
9528.000000;0.808904
9527.000000;0.808801
9526.000000;0.808329
9525.000000;0.807591
9524.000000;0.806860
9523.000000;0.806462
9522.000000;0.806517
9521.000000;0.806708
9520.000000;0.806505
9519.000000;0.805743
9518.000000;0.804806
9517.000000;0.804156
9516.000000;0.803838
9515.000000;0.803525
9514.000000;0.802907
9513.000000;0.801954
9512.000000;0.800926
9511.000000;0.800159
9510.000000;0.799773
9509.000000;0.799570
9508.000000;0.799301
9507.000000;0.798962
9506.000000;0.798707
9505.000000;0.798530
9504.000000;0.798260
9503.000000;0.797843
9502.000000;0.797443
9501.000000;0.797248
9500.000000;0.797310
9499.000000;0.797562
9498.000000;0.797818
9497.000000;0.797787
9496.000000;0.797297
9495.000000;0.796504
9494.000000;0.795737
9493.000000;0.795158
9492.000000;0.794709
9491.000000;0.794359
9490.000000;0.794175
9489.000000;0.794147
9488.000000;0.794125
9487.000000;0.793958
9486.000000;0.793569
9485.000000;0.792930
9484.000000;0.792110
9483.000000;0.791311
9482.000000;0.790687
9481.000000;0.790152
9480.000000;0.789532
9479.000000;0.788837
9478.000000;0.788197
9477.000000;0.787609
9476.000000;0.786988
9475.000000;0.786433
9474.000000;0.786190
9473.000000;0.786310
9472.000000;0.786542
9471.000000;0.786598
9470.000000;0.786373
9469.000000;0.785883
9468.000000;0.785233
9467.000000;0.784646
9466.000000;0.784343
9465.000000;0.784314
9464.000000;0.784308
9463.000000;0.784084
9462.000000;0.783557
9461.000000;0.782758
9460.000000;0.781823
9459.000000;0.781002
9458.000000;0.780499
9457.000000;0.780289
9456.000000;0.780227
9455.000000;0.780243
9454.000000;0.780259
9453.000000;0.780009
9452.000000;0.779268
9451.000000;0.778276
9450.000000;0.777626
9449.000000;0.777628
9448.000000;0.777991
9447.000000;0.778203
9446.000000;0.778024
9445.000000;0.777520
9444.000000;0.776817
9443.000000;0.776004
9442.000000;0.775209
9441.000000;0.774575
9440.000000;0.774177
9439.000000;0.773969
9438.000000;0.773805
9437.000000;0.773528
9436.000000;0.773093
9435.000000;0.772595
9434.000000;0.772119
9433.000000;0.771641
9432.000000;0.771137
9431.000000;0.770699
9430.000000;0.770396
9429.000000;0.770116
9428.000000;0.769695
9427.000000;0.769170
9426.000000;0.768745
9425.000000;0.768511
9424.000000;0.768348
9423.000000;0.768070
9422.000000;0.767573
9421.000000;0.766895
9420.000000;0.766231
9419.000000;0.765811
9418.000000;0.765654
9417.000000;0.765524
9416.000000;0.765278
9415.000000;0.765088
9414.000000;0.765140
9413.000000;0.765232
9412.000000;0.764960
9411.000000;0.764239
9410.000000;0.763375
9409.000000;0.762634
9408.000000;0.762039
9407.000000;0.761591
9406.000000;0.761381
9405.000000;0.761390
9404.000000;0.761419
9403.000000;0.761325
9402.000000;0.761143
9401.000000;0.760889
9400.000000;0.760430
9399.000000;0.759676
9398.000000;0.758773
9397.000000;0.757973
9396.000000;0.757390
9395.000000;0.756968
9394.000000;0.756613
9393.000000;0.756296
9392.000000;0.756047
9391.000000;0.755888
9390.000000;0.755761
9389.000000;0.755557
9388.000000;0.755254
9387.000000;0.754937
9386.000000;0.754631
9385.000000;0.754197
9384.000000;0.753536
9383.000000;0.752816
9382.000000;0.752349
9381.000000;0.752252
9380.000000;0.752354
9379.000000;0.752401
9378.000000;0.752227
9377.000000;0.751774
9376.000000;0.751105
9375.000000;0.750407
9374.000000;0.749854
9373.000000;0.749468
9372.000000;0.749176
9371.000000;0.748948
9370.000000;0.748754
9369.000000;0.748458
9368.000000;0.747925
9367.000000;0.747241
9366.000000;0.746676
9365.000000;0.746410
9364.000000;0.746368
9363.000000;0.746327
9362.000000;0.746124
9361.000000;0.745774
9360.000000;0.745418
9359.000000;0.745143
9358.000000;0.744830
9357.000000;0.744304
9356.000000;0.743645
9355.000000;0.743173
9354.000000;0.743019
9353.000000;0.742907
9352.000000;0.742509
9351.000000;0.741871
9350.000000;0.741296
9349.000000;0.740955
9348.000000;0.740805
9347.000000;0.740751
9346.000000;0.740662
9345.000000;0.740335
9344.000000;0.739698
9343.000000;0.738994
9342.000000;0.738548
9341.000000;0.738389
9340.000000;0.738298
9339.000000;0.738142
9338.000000;0.737936
9337.000000;0.737640
9336.000000;0.737161
9335.000000;0.736557
9334.000000;0.735997
9333.000000;0.735546
9332.000000;0.735164
9331.000000;0.734916
9330.000000;0.734911
9329.000000;0.735060
9328.000000;0.735106
9327.000000;0.734928
9326.000000;0.734591
9325.000000;0.734108
9324.000000;0.733408
9323.000000;0.732609
9322.000000;0.732048
9321.000000;0.731934
9320.000000;0.732125
9319.000000;0.732340
9318.000000;0.732436
9317.000000;0.732384
9316.000000;0.732139
9315.000000;0.731685
9314.000000;0.731123
9313.000000;0.730594
9312.000000;0.730119
9311.000000;0.729594
9310.000000;0.728928
9309.000000;0.728167
9308.000000;0.727501
9307.000000;0.727108
9306.000000;0.726954
9305.000000;0.726802
9304.000000;0.726472
9303.000000;0.726060
9302.000000;0.725796
9301.000000;0.725754
9300.000000;0.725804
9299.000000;0.725815
9298.000000;0.725760
9297.000000;0.725645
9296.000000;0.725433
9295.000000;0.725056
9294.000000;0.724464
9293.000000;0.723696
9292.000000;0.722959
9291.000000;0.722522
9290.000000;0.722463
9289.000000;0.722566
9288.000000;0.722551
9287.000000;0.722314
9286.000000;0.721927
9285.000000;0.721521
9284.000000;0.721253
9283.000000;0.721217
9282.000000;0.721250
9281.000000;0.720981
9280.000000;0.720248
9279.000000;0.719335
9278.000000;0.718631
9277.000000;0.718195
9276.000000;0.717863
9275.000000;0.717620
9274.000000;0.717583
9273.000000;0.717691
9272.000000;0.717683
9271.000000;0.717412
9270.000000;0.716978
9269.000000;0.716549
9268.000000;0.716207
9267.000000;0.715952
9266.000000;0.715679
9265.000000;0.715205
9264.000000;0.714495
9263.000000;0.713831
9262.000000;0.713546
9261.000000;0.713612
9260.000000;0.713674
9259.000000;0.713480
9258.000000;0.713098
9257.000000;0.712711
9256.000000;0.712416
9255.000000;0.712229
9254.000000;0.712107
9253.000000;0.711929
9252.000000;0.711597
9251.000000;0.711187
9250.000000;0.710852
9249.000000;0.710602
9248.000000;0.710337
9247.000000;0.710091
9246.000000;0.710032
9245.000000;0.710178
9244.000000;0.710280
9243.000000;0.710062
9242.000000;0.709487
9241.000000;0.708727
9240.000000;0.707985
9239.000000;0.707376
9238.000000;0.706913
9237.000000;0.706555
9236.000000;0.706293
9235.000000;0.706144
9234.000000;0.706034
9233.000000;0.705763
9232.000000;0.705209
9231.000000;0.704475
9230.000000;0.703751
9229.000000;0.703135
9228.000000;0.702690
9227.000000;0.702556
9226.000000;0.702782
9225.000000;0.703097
9224.000000;0.703084
9223.000000;0.702585
9222.000000;0.701807
9221.000000;0.701061
9220.000000;0.700549
9219.000000;0.700357
9218.000000;0.700450
9217.000000;0.700619
9216.000000;0.700601
9215.000000;0.700329
9214.000000;0.699963
9213.000000;0.699690
9212.000000;0.699556
9211.000000;0.699488
9210.000000;0.699349
9209.000000;0.699028
9208.000000;0.698558
9207.000000;0.698135
9206.000000;0.697909
9205.000000;0.697806
9204.000000;0.697668
9203.000000;0.697488
9202.000000;0.697347
9201.000000;0.697190
9200.000000;0.696851
9199.000000;0.696306
9198.000000;0.695727
9197.000000;0.695280
9196.000000;0.694993
9195.000000;0.694849
9194.000000;0.694854
9193.000000;0.694977
9192.000000;0.695121
9191.000000;0.695190
9190.000000;0.695125
9189.000000;0.694880
9188.000000;0.694428
9187.000000;0.693814
9186.000000;0.693137
9185.000000;0.692510
9184.000000;0.692056
9183.000000;0.691873
9182.000000;0.691920
9181.000000;0.692004
9180.000000;0.691947
9179.000000;0.691739
9178.000000;0.691470
9177.000000;0.691198
9176.000000;0.690929
9175.000000;0.690647
9174.000000;0.690290
9173.000000;0.689794
9172.000000;0.689223
9171.000000;0.688756
9170.000000;0.688488
9169.000000;0.688344
9168.000000;0.688271
9167.000000;0.688339
9166.000000;0.688547
9165.000000;0.688686
9164.000000;0.688529
9163.000000;0.688042
9162.000000;0.687296
9161.000000;0.686353
9160.000000;0.685399
9159.000000;0.684783
9158.000000;0.684691
9157.000000;0.684892
9156.000000;0.685012
9155.000000;0.684952
9154.000000;0.684848
9153.000000;0.684727
9152.000000;0.684489
9151.000000;0.684159
9150.000000;0.683896
9149.000000;0.683742
9148.000000;0.683563
9147.000000;0.683234
9146.000000;0.682729
9145.000000;0.682064
9144.000000;0.681318
9143.000000;0.680691
9142.000000;0.680367
9141.000000;0.680338
9140.000000;0.680467
9139.000000;0.680689
9138.000000;0.680990
9137.000000;0.681262
9136.000000;0.681318
9135.000000;0.681068
9134.000000;0.680567
9133.000000;0.679982
9132.000000;0.679546
9131.000000;0.679434
9130.000000;0.679539
9129.000000;0.679510
9128.000000;0.679182
9127.000000;0.678809
9126.000000;0.678689
9125.000000;0.678714
9124.000000;0.678510
9123.000000;0.677933
9122.000000;0.677172
9121.000000;0.676453
9120.000000;0.675880
9119.000000;0.675491
9118.000000;0.675239
9117.000000;0.674969
9116.000000;0.674590
9115.000000;0.674242
9114.000000;0.674085
9113.000000;0.674042
9112.000000;0.673945
9111.000000;0.673827
9110.000000;0.673799
9109.000000;0.673743
9108.000000;0.673441
9107.000000;0.672970
9106.000000;0.672653
9105.000000;0.672607
9104.000000;0.672594
9103.000000;0.672367
9102.000000;0.671909
9101.000000;0.671336
9100.000000;0.670785
9099.000000;0.670432
9098.000000;0.670364
9097.000000;0.670411
9096.000000;0.670315
9095.000000;0.670065
9094.000000;0.669859
9093.000000;0.669726
9092.000000;0.669476
9091.000000;0.669063
9090.000000;0.668732
9089.000000;0.668711
9088.000000;0.668947
9087.000000;0.669218
9086.000000;0.669313
9085.000000;0.669052
9084.000000;0.668384
9083.000000;0.667549
9082.000000;0.666963
9081.000000;0.666814
9080.000000;0.666925
9079.000000;0.667027
9078.000000;0.667010
9077.000000;0.666843
9076.000000;0.666479
9075.000000;0.665966
9074.000000;0.665502
9073.000000;0.665231
9072.000000;0.665115
9071.000000;0.665063
9070.000000;0.665061
9069.000000;0.665092
9068.000000;0.665051
9067.000000;0.664869
9066.000000;0.664617
9065.000000;0.664417
9064.000000;0.664300
9063.000000;0.664209
9062.000000;0.664071
9061.000000;0.663840
9060.000000;0.663524
9059.000000;0.663219
9058.000000;0.663016
9057.000000;0.662859
9056.000000;0.662573
9055.000000;0.662086
9054.000000;0.661528
9053.000000;0.661083
