Criado como novo conjunto de dados;"e2410_daniel_v2.spp","97206.9 Secs"
cm-1;Abs
10000.000000;0.112484
9999.000000;0.113301
9998.000000;0.114209
9997.000000;0.115012
9996.000000;0.115481
9995.000000;0.115658
9994.000000;0.115801
9993.000000;0.116146
9992.000000;0.116720
9991.000000;0.117452
9990.000000;0.118266
9989.000000;0.119063
9988.000000;0.119719
9987.000000;0.120233
9986.000000;0.120779
9985.000000;0.121494
9984.000000;0.122274
9983.000000;0.122897
9982.000000;0.123306
9981.000000;0.123663
9980.000000;0.124140
9979.000000;0.124757
9978.000000;0.125429
9977.000000;0.126077
9976.000000;0.126676
9975.000000;0.127257
9974.000000;0.127882
9973.000000;0.128567
9972.000000;0.129244
9971.000000;0.129853
9970.000000;0.130461
9969.000000;0.131195
9968.000000;0.132058
9967.000000;0.132894
9966.000000;0.133566
9965.000000;0.134106
9964.000000;0.134637
9963.000000;0.135211
9962.000000;0.135776
9961.000000;0.136278
9960.000000;0.136747
9959.000000;0.137289
9958.000000;0.138009
9957.000000;0.138915
9956.000000;0.139860
9955.000000;0.140617
9954.000000;0.141070
9953.000000;0.141359
9952.000000;0.141780
9951.000000;0.142530
9950.000000;0.143523
9949.000000;0.144482
9948.000000;0.145187
9947.000000;0.145643
9946.000000;0.146009
9945.000000;0.146437
9944.000000;0.147010
9943.000000;0.147790
9942.000000;0.148816
9941.000000;0.150004
9940.000000;0.151109
9939.000000;0.151895
9938.000000;0.152326
9937.000000;0.152585
9936.000000;0.152904
9935.000000;0.153427
9934.000000;0.154184
9933.000000;0.155103
9932.000000;0.156019
9931.000000;0.156776
9930.000000;0.157363
9929.000000;0.157921
9928.000000;0.158595
9927.000000;0.159392
9926.000000;0.160225
9925.000000;0.161026
9924.000000;0.161779
9923.000000;0.162462
9922.000000;0.163017
9921.000000;0.163424
9920.000000;0.163768
9919.000000;0.164208
9918.000000;0.164850
9917.000000;0.165638
9916.000000;0.166406
9915.000000;0.167062
9914.000000;0.167690
9913.000000;0.168438
9912.000000;0.169310
9911.000000;0.170156
9910.000000;0.170875
9909.000000;0.171558
9908.000000;0.172353
9907.000000;0.173245
9906.000000;0.174044
9905.000000;0.174591
9904.000000;0.174929
9903.000000;0.175269
9902.000000;0.175830
9901.000000;0.176680
9900.000000;0.177689
9899.000000;0.178620
9898.000000;0.179323
9897.000000;0.179859
9896.000000;0.180400
9895.000000;0.181039
9894.000000;0.181734
9893.000000;0.182449
9892.000000;0.183243
9891.000000;0.184167
9890.000000;0.185119
9889.000000;0.185904
9888.000000;0.186451
9887.000000;0.186918
9886.000000;0.187531
9885.000000;0.188341
9884.000000;0.189210
9883.000000;0.190012
9882.000000;0.190794
9881.000000;0.191677
9880.000000;0.192655
9879.000000;0.193585
9878.000000;0.194368
9877.000000;0.195045
9876.000000;0.195690
9875.000000;0.196299
9874.000000;0.196849
9873.000000;0.197388
9872.000000;0.197986
9871.000000;0.198646
9870.000000;0.199348
9869.000000;0.200146
9868.000000;0.201089
9867.000000;0.202081
9866.000000;0.202922
9865.000000;0.203523
9864.000000;0.203984
9863.000000;0.204445
9862.000000;0.204974
9861.000000;0.205617
9860.000000;0.206419
9859.000000;0.207347
9858.000000;0.208295
9857.000000;0.209249
9856.000000;0.210317
9855.000000;0.211536
9854.000000;0.212729
9853.000000;0.213688
9852.000000;0.214405
9851.000000;0.215011
9850.000000;0.215587
9849.000000;0.216188
9848.000000;0.216960
9847.000000;0.218048
9846.000000;0.219358
9845.000000;0.220580
9844.000000;0.221497
9843.000000;0.222150
9842.000000;0.222691
9841.000000;0.223214
9840.000000;0.223772
9839.000000;0.224438
9838.000000;0.225239
9837.000000;0.226105
9836.000000;0.226942
9835.000000;0.227687
9834.000000;0.228292
9833.000000;0.228726
9832.000000;0.229053
9831.000000;0.229429
9830.000000;0.229969
9829.000000;0.230676
9828.000000;0.231531
9827.000000;0.232561
9826.000000;0.233746
9825.000000;0.234952
9824.000000;0.236026
9823.000000;0.236915
9822.000000;0.237628
9821.000000;0.238168
9820.000000;0.238577
9819.000000;0.239008
9818.000000;0.239654
9817.000000;0.240616
9816.000000;0.241858
9815.000000;0.243212
9814.000000;0.244403
9813.000000;0.245178
9812.000000;0.245561
9811.000000;0.245883
9810.000000;0.246454
9809.000000;0.247237
9808.000000;0.247994
9807.000000;0.248685
9806.000000;0.249523
9805.000000;0.250628
9804.000000;0.251827
9803.000000;0.252909
9802.000000;0.253900
9801.000000;0.254940
9800.000000;0.255984
9799.000000;0.256809
9798.000000;0.257290
9797.000000;0.257557
9796.000000;0.257847
9795.000000;0.258346
9794.000000;0.259159
9793.000000;0.260311
9792.000000;0.261661
9791.000000;0.262890
9790.000000;0.263740
9789.000000;0.264269
9788.000000;0.264811
9787.000000;0.265630
9786.000000;0.266659
9785.000000;0.267618
9784.000000;0.268356
9783.000000;0.269000
9782.000000;0.269762
9781.000000;0.270673
9780.000000;0.271573
9779.000000;0.272352
9778.000000;0.273093
9777.000000;0.273920
9776.000000;0.274796
9775.000000;0.275577
9774.000000;0.276266
9773.000000;0.277049
9772.000000;0.278020
9771.000000;0.278993
9770.000000;0.279711
9769.000000;0.280177
9768.000000;0.280638
9767.000000;0.281286
9766.000000;0.282130
9765.000000;0.283156
9764.000000;0.284380
9763.000000;0.285698
9762.000000;0.286855
9761.000000;0.287731
9760.000000;0.288509
9759.000000;0.289404
9758.000000;0.290331
9757.000000;0.291055
9756.000000;0.291606
9755.000000;0.292345
9754.000000;0.293565
9753.000000;0.295178
9752.000000;0.296801
9751.000000;0.298070
9750.000000;0.298862
9749.000000;0.299370
9748.000000;0.299953
9747.000000;0.300810
9746.000000;0.301770
9745.000000;0.302559
9744.000000;0.303225
9743.000000;0.304094
9742.000000;0.305254
9741.000000;0.306341
9740.000000;0.306981
9739.000000;0.307291
9738.000000;0.307734
9737.000000;0.308603
9736.000000;0.309835
9735.000000;0.311242
9734.000000;0.312672
9733.000000;0.313928
9732.000000;0.314744
9731.000000;0.315011
9730.000000;0.314965
9729.000000;0.315059
9728.000000;0.315636
9727.000000;0.316724
9726.000000;0.318080
9725.000000;0.319375
9724.000000;0.320368
9723.000000;0.321002
9722.000000;0.321440
9721.000000;0.322013
9720.000000;0.322998
9719.000000;0.324339
9718.000000;0.325629
9717.000000;0.326525
9716.000000;0.327134
9715.000000;0.327866
9714.000000;0.328899
9713.000000;0.329986
9712.000000;0.330822
9711.000000;0.331418
9710.000000;0.332020
9709.000000;0.332829
9708.000000;0.333925
9707.000000;0.335297
9706.000000;0.336752
9705.000000;0.337906
9704.000000;0.338495
9703.000000;0.338714
9702.000000;0.339095
9701.000000;0.340020
9700.000000;0.341413
9699.000000;0.342872
9698.000000;0.343998
9697.000000;0.344634
9696.000000;0.344947
9695.000000;0.345288
9694.000000;0.345913
9693.000000;0.346837
9692.000000;0.347953
9691.000000;0.349202
9690.000000;0.350514
9689.000000;0.351710
9688.000000;0.352652
9687.000000;0.353458
9686.000000;0.354380
9685.000000;0.355435
9684.000000;0.356350
9683.000000;0.356930
9682.000000;0.357338
9681.000000;0.357918
9680.000000;0.358824
9679.000000;0.359928
9678.000000;0.360986
9677.000000;0.361802
9676.000000;0.362286
9675.000000;0.362473
9674.000000;0.362553
9673.000000;0.362824
9672.000000;0.363579
9671.000000;0.364956
9670.000000;0.366848
9669.000000;0.368900
9668.000000;0.370655
9667.000000;0.371793
9666.000000;0.372337
9665.000000;0.372647
9664.000000;0.373187
9663.000000;0.374168
9662.000000;0.375365
9661.000000;0.376343
9660.000000;0.376877
9659.000000;0.377137
9658.000000;0.377435
9657.000000;0.377903
9656.000000;0.378490
9655.000000;0.379186
9654.000000;0.380088
9653.000000;0.381242
9652.000000;0.382517
9651.000000;0.383698
9650.000000;0.384661
9649.000000;0.385478
9648.000000;0.386371
9647.000000;0.387539
9646.000000;0.389003
9645.000000;0.390586
9644.000000;0.392074
9643.000000;0.393330
9642.000000;0.394270
9641.000000;0.394821
9640.000000;0.395019
9639.000000;0.395091
9638.000000;0.395341
9637.000000;0.395941
9636.000000;0.396859
9635.000000;0.397968
9634.000000;0.399158
9633.000000;0.400394
9632.000000;0.401682
9631.000000;0.402949
9630.000000;0.403997
9629.000000;0.404697
9628.000000;0.405224
9627.000000;0.405918
9626.000000;0.406817
9625.000000;0.407564
9624.000000;0.407941
9623.000000;0.408311
9622.000000;0.409246
9621.000000;0.410799
9620.000000;0.412437
9619.000000;0.413677
9618.000000;0.414543
9617.000000;0.415351
9616.000000;0.416305
9615.000000;0.417415
9614.000000;0.418561
9613.000000;0.419499
9612.000000;0.419963
9611.000000;0.419918
9610.000000;0.419684
9609.000000;0.419709
9608.000000;0.420279
9607.000000;0.421412
9606.000000;0.422891
9605.000000;0.424323
9604.000000;0.425354
9603.000000;0.425958
9602.000000;0.426433
9601.000000;0.427024
9600.000000;0.427662
9599.000000;0.428166
9598.000000;0.428587
9597.000000;0.429145
9596.000000;0.429913
9595.000000;0.430752
9594.000000;0.431604
9593.000000;0.432641
9592.000000;0.433999
9591.000000;0.435453
9590.000000;0.436548
9589.000000;0.437081
9588.000000;0.437374
9587.000000;0.437940
9586.000000;0.438913
9585.000000;0.439938
9584.000000;0.440633
9583.000000;0.441048
9582.000000;0.441546
9581.000000;0.442331
9580.000000;0.443256
9579.000000;0.444070
9578.000000;0.444708
9577.000000;0.445260
9576.000000;0.445773
9575.000000;0.446162
9574.000000;0.446336
9573.000000;0.446379
9572.000000;0.446587
9571.000000;0.447275
9570.000000;0.448481
9569.000000;0.449895
9568.000000;0.451140
9567.000000;0.452105
9566.000000;0.452935
9565.000000;0.453767
9564.000000;0.454616
9563.000000;0.455466
9562.000000;0.456299
9561.000000;0.457003
9560.000000;0.457403
9559.000000;0.457481
9558.000000;0.457462
9557.000000;0.457630
9556.000000;0.458131
9555.000000;0.458972
9554.000000;0.460064
9553.000000;0.461215
9552.000000;0.462180
9551.000000;0.462813
9550.000000;0.463115
9549.000000;0.463158
9548.000000;0.463083
9547.000000;0.463194
9546.000000;0.463846
9545.000000;0.465098
9544.000000;0.466556
9543.000000;0.467665
9542.000000;0.468139
9541.000000;0.468085
9540.000000;0.467878
9539.000000;0.467967
9538.000000;0.468635
9537.000000;0.469742
9536.000000;0.470830
9535.000000;0.471639
9534.000000;0.472421
9533.000000;0.473528
9532.000000;0.474752
9531.000000;0.475404
9530.000000;0.475150
9529.000000;0.474543
9528.000000;0.474506
9527.000000;0.475379
9526.000000;0.476621
9525.000000;0.477386
9524.000000;0.477287
9523.000000;0.476634
9522.000000;0.476086
9521.000000;0.476150
9520.000000;0.476885
9519.000000;0.477917
9518.000000;0.478734
9517.000000;0.479101
9516.000000;0.479249
9515.000000;0.479603
9514.000000;0.480292
9513.000000;0.481024
9512.000000;0.481471
9511.000000;0.481649
9510.000000;0.481797
9509.000000;0.482005
9508.000000;0.482185
9507.000000;0.482360
9506.000000;0.482692
9505.000000;0.483140
9504.000000;0.483357
9503.000000;0.483184
9502.000000;0.483065
9501.000000;0.483651
9500.000000;0.484974
9499.000000;0.486265
9498.000000;0.486750
9497.000000;0.486516
9496.000000;0.486416
9495.000000;0.487136
9494.000000;0.488483
9493.000000;0.489614
9492.000000;0.489890
9491.000000;0.489452
9490.000000;0.488966
9489.000000;0.488941
9488.000000;0.489375
9487.000000;0.489958
9486.000000;0.490446
9485.000000;0.490775
9484.000000;0.490968
9483.000000;0.491073
9482.000000;0.491202
9481.000000;0.491460
9480.000000;0.491784
9479.000000;0.491914
9478.000000;0.491643
9477.000000;0.491127
9476.000000;0.490861
9475.000000;0.491223
9474.000000;0.492044
9473.000000;0.492729
9472.000000;0.492879
9471.000000;0.492697
9470.000000;0.492673
9469.000000;0.492970
9468.000000;0.493297
9467.000000;0.493357
9466.000000;0.493169
9465.000000;0.492890
9464.000000;0.492524
9463.000000;0.491997
9462.000000;0.491409
9461.000000;0.491049
9460.000000;0.491164
9459.000000;0.491766
9458.000000;0.492613
9457.000000;0.493338
9456.000000;0.493702
9455.000000;0.493843
9454.000000;0.494202
9453.000000;0.495035
9452.000000;0.496014
9451.000000;0.496440
9450.000000;0.495948
9449.000000;0.494938
9448.000000;0.494253
9447.000000;0.494408
9446.000000;0.495102
9445.000000;0.495517
9444.000000;0.495180
9443.000000;0.494481
9442.000000;0.494221
9441.000000;0.494648
9440.000000;0.495194
9439.000000;0.495213
9438.000000;0.494754
9437.000000;0.494366
9436.000000;0.494342
9435.000000;0.494457
9434.000000;0.494386
9433.000000;0.494072
9432.000000;0.493648
9431.000000;0.493262
9430.000000;0.493045
9429.000000;0.493037
9428.000000;0.493033
9427.000000;0.492709
9426.000000;0.492087
9425.000000;0.491710
9424.000000;0.492129
9423.000000;0.493259
9422.000000;0.494392
9421.000000;0.494857
9420.000000;0.494579
9419.000000;0.493980
9418.000000;0.493494
9417.000000;0.493231
9416.000000;0.493023
9415.000000;0.492667
9414.000000;0.492092
9413.000000;0.491423
9412.000000;0.490949
9411.000000;0.490946
9410.000000;0.491375
9409.000000;0.491733
9408.000000;0.491403
9407.000000;0.490278
9406.000000;0.488938
9405.000000;0.488099
9404.000000;0.487957
9403.000000;0.488161
9402.000000;0.488292
9401.000000;0.488203
9400.000000;0.487983
9399.000000;0.487792
9398.000000;0.487763
9397.000000;0.487881
9396.000000;0.487944
9395.000000;0.487774
9394.000000;0.487432
9393.000000;0.487074
9392.000000;0.486668
9391.000000;0.486130
9390.000000;0.485685
9389.000000;0.485710
9388.000000;0.486072
9387.000000;0.485993
9386.000000;0.484899
9385.000000;0.483181
9384.000000;0.481789
9383.000000;0.481197
9382.000000;0.481084
9381.000000;0.480929
9380.000000;0.480558
9379.000000;0.480125
9378.000000;0.479846
9377.000000;0.479885
9376.000000;0.480272
9375.000000;0.480834
9374.000000;0.481296
9373.000000;0.481515
9372.000000;0.481497
9371.000000;0.481209
9370.000000;0.480574
9369.000000;0.479723
9368.000000;0.479002
9367.000000;0.478597
9366.000000;0.478305
9365.000000;0.477846
9364.000000;0.477249
9363.000000;0.476760
9362.000000;0.476458
9361.000000;0.476187
9360.000000;0.475823
9359.000000;0.475390
9358.000000;0.474872
9357.000000;0.474134
9356.000000;0.473160
9355.000000;0.472210
9354.000000;0.471588
9353.000000;0.471314
9352.000000;0.471178
9351.000000;0.471066
9350.000000;0.471019
9349.000000;0.470938
9348.000000;0.470491
9347.000000;0.469481
9346.000000;0.468205
9345.000000;0.467198
9344.000000;0.466677
9343.000000;0.466416
9342.000000;0.466150
9341.000000;0.465868
9340.000000;0.465592
9339.000000;0.465113
9338.000000;0.464185
9337.000000;0.462907
9336.000000;0.461703
9335.000000;0.460907
9334.000000;0.460526
9333.000000;0.460385
9332.000000;0.460383
9331.000000;0.460534
9330.000000;0.460823
9329.000000;0.461068
9328.000000;0.460966
9327.000000;0.460369
9326.000000;0.459499
9325.000000;0.458782
9324.000000;0.458384
9323.000000;0.458036
9322.000000;0.457432
9321.000000;0.456629
9320.000000;0.455897
9319.000000;0.455311
9318.000000;0.454762
9317.000000;0.454295
9316.000000;0.454095
9315.000000;0.454064
9314.000000;0.453765
9313.000000;0.452940
9312.000000;0.451895
9311.000000;0.451144
9310.000000;0.450847
9309.000000;0.450759
9308.000000;0.450588
9307.000000;0.450180
9306.000000;0.449421
9305.000000;0.448238
9304.000000;0.446777
9303.000000;0.445447
9302.000000;0.444669
9301.000000;0.444556
9300.000000;0.444810
9299.000000;0.444908
9298.000000;0.444494
9297.000000;0.443668
9296.000000;0.442837
9295.000000;0.442270
9294.000000;0.441881
9293.000000;0.441467
9292.000000;0.440963
9291.000000;0.440329
9290.000000;0.439383
9289.000000;0.438043
9288.000000;0.436669
9287.000000;0.435852
9286.000000;0.435745
9285.000000;0.435788
9284.000000;0.435267
9283.000000;0.434062
9282.000000;0.432757
9281.000000;0.432030
9280.000000;0.432055
9279.000000;0.432452
9278.000000;0.432707
9277.000000;0.432583
9276.000000;0.432133
9275.000000;0.431431
9274.000000;0.430450
9273.000000;0.429224
9272.000000;0.427980
9271.000000;0.426952
9270.000000;0.426175
9269.000000;0.425555
9268.000000;0.425066
9267.000000;0.424707
9266.000000;0.424309
9265.000000;0.423644
9264.000000;0.422763
9263.000000;0.422014
9262.000000;0.421626
9261.000000;0.421431
9260.000000;0.421089
9259.000000;0.420457
9258.000000;0.419639
9257.000000;0.418823
9256.000000;0.418170
9255.000000;0.417756
9254.000000;0.417470
9253.000000;0.417044
9252.000000;0.416339
9251.000000;0.415562
9250.000000;0.415050
9249.000000;0.414856
9248.000000;0.414636
9247.000000;0.413964
9246.000000;0.412680
9245.000000;0.410995
9244.000000;0.409377
9243.000000;0.408311
9242.000000;0.408027
9241.000000;0.408359
9240.000000;0.408871
9239.000000;0.409152
9238.000000;0.408998
9237.000000;0.408403
9236.000000;0.407452
9235.000000;0.406208
9234.000000;0.404697
9233.000000;0.403045
9232.000000;0.401625
9231.000000;0.400892
9230.000000;0.400955
9229.000000;0.401381
9228.000000;0.401558
9227.000000;0.401202
9226.000000;0.400420
9225.000000;0.399429
9224.000000;0.398419
9223.000000;0.397596
9222.000000;0.397073
9221.000000;0.396683
9220.000000;0.396115
9219.000000;0.395303
9218.000000;0.394483
9217.000000;0.393820
9216.000000;0.393193
9215.000000;0.392482
9214.000000;0.391824
9213.000000;0.391423
9212.000000;0.391229
9211.000000;0.390990
9210.000000;0.390551
9209.000000;0.389947
9208.000000;0.389293
9207.000000;0.388715
9206.000000;0.388310
9205.000000;0.388017
9204.000000;0.387591
9203.000000;0.386888
9202.000000;0.386100
9201.000000;0.385508
9200.000000;0.385054
9199.000000;0.384394
9198.000000;0.383412
9197.000000;0.382445
9196.000000;0.381876
9195.000000;0.381659
9194.000000;0.381398
9193.000000;0.380798
9192.000000;0.379915
9191.000000;0.379017
9190.000000;0.378323
9189.000000;0.377861
9188.000000;0.377491
9187.000000;0.377025
9186.000000;0.376366
9185.000000;0.375551
9184.000000;0.374712
9183.000000;0.374021
9182.000000;0.373621
9181.000000;0.373492
9180.000000;0.373384
9179.000000;0.372991
9178.000000;0.372234
9177.000000;0.371280
9176.000000;0.370284
9175.000000;0.369279
9174.000000;0.368384
9173.000000;0.367901
9172.000000;0.367993
9171.000000;0.368324
9170.000000;0.368283
9169.000000;0.367627
9168.000000;0.366723
9167.000000;0.366042
9166.000000;0.365605
9165.000000;0.365072
9164.000000;0.364282
9163.000000;0.363473
9162.000000;0.362917
9161.000000;0.362528
9160.000000;0.361964
9159.000000;0.361060
9158.000000;0.359998
9157.000000;0.359032
9156.000000;0.358185
9155.000000;0.357292
9154.000000;0.356306
9153.000000;0.355435
9152.000000;0.354953
9151.000000;0.354935
9150.000000;0.355205
9149.000000;0.355508
9148.000000;0.355662
9147.000000;0.355571
9146.000000;0.355153
9145.000000;0.354359
9144.000000;0.353300
9143.000000;0.352280
9142.000000;0.351599
9141.000000;0.351242
9140.000000;0.350846
9139.000000;0.350035
9138.000000;0.348816
9137.000000;0.347585
9136.000000;0.346741
9135.000000;0.346348
9134.000000;0.346143
9133.000000;0.345828
9132.000000;0.345335
9131.000000;0.344847
9130.000000;0.344576
9129.000000;0.344507
9128.000000;0.344374
9127.000000;0.343961
9126.000000;0.343357
9125.000000;0.342819
9124.000000;0.342398
9123.000000;0.341863
9122.000000;0.341058
9121.000000;0.340167
9120.000000;0.339469
9119.000000;0.338973
9118.000000;0.338477
9117.000000;0.337962
9116.000000;0.337671
9115.000000;0.337734
9114.000000;0.337893
9113.000000;0.337734
9112.000000;0.337112
9111.000000;0.336212
9110.000000;0.335272
9109.000000;0.334383
9108.000000;0.333532
9107.000000;0.332665
9106.000000;0.331693
9105.000000;0.330555
9104.000000;0.329392
9103.000000;0.328543
9102.000000;0.328246
9101.000000;0.328369
9100.000000;0.328535
9099.000000;0.328493
9098.000000;0.328257
9097.000000;0.327889
9096.000000;0.327333
9095.000000;0.326580
9094.000000;0.325890
9093.000000;0.325622
9092.000000;0.325802
9091.000000;0.325983
9090.000000;0.325636
9089.000000;0.324644
9088.000000;0.323366
9087.000000;0.322283
9086.000000;0.321659
9085.000000;0.321452
9084.000000;0.321408
9083.000000;0.321220
9082.000000;0.320685
9081.000000;0.319837
9080.000000;0.318952
9079.000000;0.318359
9078.000000;0.318203
9077.000000;0.318310
9076.000000;0.318301
9075.000000;0.317858
9074.000000;0.316953
9073.000000;0.315844
9072.000000;0.314865
9071.000000;0.314210
9070.000000;0.313873
9069.000000;0.313717
9068.000000;0.313565
9067.000000;0.313270
9066.000000;0.312781
9065.000000;0.312169
9064.000000;0.311606
9063.000000;0.311277
9062.000000;0.311235
9061.000000;0.311302
9060.000000;0.311150
9059.000000;0.310570
9058.000000;0.309704
9057.000000;0.308922
9056.000000;0.308435
9055.000000;0.308108
9054.000000;0.307698
9053.000000;0.307169
