Criado como novo conjunto de dados;"e2410_daniel_v2.spp","35283.8 Secs"
cm-1;Abs
10000.000000;0.483210
9999.000000;0.482775
9998.000000;0.482313
9997.000000;0.481940
9996.000000;0.481668
9995.000000;0.481301
9994.000000;0.480666
9993.000000;0.479817
9992.000000;0.478958
9991.000000;0.478242
9990.000000;0.477683
9989.000000;0.477161
9988.000000;0.476537
9987.000000;0.475802
9986.000000;0.475097
9985.000000;0.474563
9984.000000;0.474238
9983.000000;0.474105
9982.000000;0.474119
9981.000000;0.474105
9980.000000;0.473806
9979.000000;0.473147
9978.000000;0.472332
9977.000000;0.471585
9976.000000;0.470908
9975.000000;0.470225
9974.000000;0.469607
9973.000000;0.469184
9972.000000;0.468901
9971.000000;0.468543
9970.000000;0.467981
9969.000000;0.467250
9968.000000;0.466449
9967.000000;0.465669
9966.000000;0.464994
9965.000000;0.464444
9964.000000;0.463931
9963.000000;0.463374
9962.000000;0.462852
9961.000000;0.462542
9960.000000;0.462521
9959.000000;0.462680
9958.000000;0.462804
9957.000000;0.462705
9956.000000;0.462321
9955.000000;0.461752
9954.000000;0.461153
9953.000000;0.460566
9952.000000;0.459906
9951.000000;0.459116
9950.000000;0.458253
9949.000000;0.457417
9948.000000;0.456683
9947.000000;0.456135
9946.000000;0.455847
9945.000000;0.455751
9944.000000;0.455622
9943.000000;0.455261
9942.000000;0.454657
9941.000000;0.453939
9940.000000;0.453248
9939.000000;0.452669
9938.000000;0.452195
9937.000000;0.451722
9936.000000;0.451168
9935.000000;0.450602
9934.000000;0.450154
9933.000000;0.449815
9932.000000;0.449455
9931.000000;0.449010
9930.000000;0.448514
9929.000000;0.447965
9928.000000;0.447340
9927.000000;0.446749
9926.000000;0.446374
9925.000000;0.446205
9924.000000;0.446014
9923.000000;0.445621
9922.000000;0.445043
9921.000000;0.444369
9920.000000;0.443684
9919.000000;0.443134
9918.000000;0.442824
9917.000000;0.442573
9916.000000;0.442031
9915.000000;0.441124
9914.000000;0.440159
9913.000000;0.439412
9912.000000;0.438841
9911.000000;0.438325
9910.000000;0.437911
9909.000000;0.437644
9908.000000;0.437390
9907.000000;0.437008
9906.000000;0.436543
9905.000000;0.436072
9904.000000;0.435511
9903.000000;0.434779
9902.000000;0.433986
9901.000000;0.433309
9900.000000;0.432802
9899.000000;0.432461
9898.000000;0.432311
9897.000000;0.432276
9896.000000;0.432114
9895.000000;0.431661
9894.000000;0.431026
9893.000000;0.430399
9892.000000;0.429837
9891.000000;0.429348
9890.000000;0.429012
9889.000000;0.428812
9888.000000;0.428509
9887.000000;0.427906
9886.000000;0.427126
9885.000000;0.426448
9884.000000;0.425962
9883.000000;0.425550
9882.000000;0.425082
9881.000000;0.424478
9880.000000;0.423688
9879.000000;0.422794
9878.000000;0.422027
9877.000000;0.421533
9876.000000;0.421223
9875.000000;0.420969
9874.000000;0.420780
9873.000000;0.420637
9872.000000;0.420338
9871.000000;0.419748
9870.000000;0.419064
9869.000000;0.418594
9868.000000;0.418346
9867.000000;0.418065
9866.000000;0.417587
9865.000000;0.416958
9864.000000;0.416286
9863.000000;0.415668
9862.000000;0.415202
9861.000000;0.414879
9860.000000;0.414507
9859.000000;0.413929
9858.000000;0.413248
9857.000000;0.412694
9856.000000;0.412327
9855.000000;0.412042
9854.000000;0.411757
9853.000000;0.411415
9852.000000;0.410899
9851.000000;0.410161
9850.000000;0.409373
9849.000000;0.408742
9848.000000;0.408231
9847.000000;0.407679
9846.000000;0.407125
9845.000000;0.406771
9844.000000;0.406631
9843.000000;0.406454
9842.000000;0.406047
9841.000000;0.405469
9840.000000;0.404868
9839.000000;0.404298
9838.000000;0.403761
9837.000000;0.403268
9836.000000;0.402819
9835.000000;0.402389
9834.000000;0.401980
9833.000000;0.401594
9832.000000;0.401169
9831.000000;0.400655
9830.000000;0.400140
9829.000000;0.399781
9828.000000;0.399573
9827.000000;0.399304
9826.000000;0.398770
9825.000000;0.397981
9824.000000;0.397149
9823.000000;0.396501
9822.000000;0.396109
9821.000000;0.395844
9820.000000;0.395516
9819.000000;0.395079
9818.000000;0.394658
9817.000000;0.394336
9816.000000;0.394027
9815.000000;0.393602
9814.000000;0.393071
9813.000000;0.392517
9812.000000;0.391954
9811.000000;0.391345
9810.000000;0.390748
9809.000000;0.390285
9808.000000;0.389978
9807.000000;0.389689
9806.000000;0.389237
9805.000000;0.388565
9804.000000;0.387809
9803.000000;0.387200
9802.000000;0.386832
9801.000000;0.386538
9800.000000;0.386094
9799.000000;0.385522
9798.000000;0.385052
9797.000000;0.384754
9796.000000;0.384428
9795.000000;0.383919
9794.000000;0.383344
9793.000000;0.382869
9792.000000;0.382461
9791.000000;0.382021
9790.000000;0.381609
9789.000000;0.381326
9788.000000;0.381086
9787.000000;0.380703
9786.000000;0.380149
9785.000000;0.379540
9784.000000;0.378940
9783.000000;0.378337
9782.000000;0.377757
9781.000000;0.377228
9780.000000;0.376665
9779.000000;0.375963
9778.000000;0.375195
9777.000000;0.374562
9776.000000;0.374167
9775.000000;0.373938
9774.000000;0.373750
9773.000000;0.373507
9772.000000;0.373132
9771.000000;0.372611
9770.000000;0.372042
9769.000000;0.371548
9768.000000;0.371127
9767.000000;0.370678
9766.000000;0.370135
9765.000000;0.369531
9764.000000;0.368953
9763.000000;0.368504
9762.000000;0.368237
9761.000000;0.368043
9760.000000;0.367694
9759.000000;0.367081
9758.000000;0.366352
9757.000000;0.365729
9756.000000;0.365263
9755.000000;0.364871
9754.000000;0.364498
9753.000000;0.364111
9752.000000;0.363614
9751.000000;0.362947
9750.000000;0.362217
9749.000000;0.361622
9748.000000;0.361238
9747.000000;0.361006
9746.000000;0.360856
9745.000000;0.360732
9744.000000;0.360530
9743.000000;0.360161
9742.000000;0.359676
9741.000000;0.359187
9740.000000;0.358705
9739.000000;0.358148
9738.000000;0.357519
9737.000000;0.356939
9736.000000;0.356465
9735.000000;0.355987
9734.000000;0.355379
9733.000000;0.354690
9732.000000;0.354119
9731.000000;0.353790
9730.000000;0.353594
9729.000000;0.353295
9728.000000;0.352812
9727.000000;0.352313
9726.000000;0.351958
9725.000000;0.351636
9724.000000;0.351113
9723.000000;0.350387
9722.000000;0.349711
9721.000000;0.349221
9720.000000;0.348773
9719.000000;0.348226
9718.000000;0.347682
9717.000000;0.347319
9716.000000;0.347126
9715.000000;0.346973
9714.000000;0.346790
9713.000000;0.346558
9712.000000;0.346216
9711.000000;0.345759
9710.000000;0.345319
9709.000000;0.345001
9708.000000;0.344703
9707.000000;0.344240
9706.000000;0.343590
9705.000000;0.342894
9704.000000;0.342290
9703.000000;0.341838
9702.000000;0.341552
9701.000000;0.341345
9700.000000;0.341023
9699.000000;0.340462
9698.000000;0.339761
9697.000000;0.339125
9696.000000;0.338637
9695.000000;0.338233
9694.000000;0.337830
9693.000000;0.337380
9692.000000;0.336863
9691.000000;0.336335
9690.000000;0.335908
9689.000000;0.335604
9688.000000;0.335288
9687.000000;0.334855
9686.000000;0.334387
9685.000000;0.334025
9684.000000;0.333782
9683.000000;0.333574
9682.000000;0.333352
9681.000000;0.333074
9680.000000;0.332635
9679.000000;0.331986
9678.000000;0.331242
9677.000000;0.330562
9676.000000;0.329972
9675.000000;0.329411
9674.000000;0.328882
9673.000000;0.328417
9672.000000;0.327995
9671.000000;0.327601
9670.000000;0.327297
9669.000000;0.327087
9668.000000;0.326809
9667.000000;0.326317
9666.000000;0.325707
9665.000000;0.325208
9664.000000;0.324891
9663.000000;0.324630
9662.000000;0.324291
9661.000000;0.323828
9660.000000;0.323244
9659.000000;0.322603
9658.000000;0.322041
9657.000000;0.321638
9656.000000;0.321305
9655.000000;0.320908
9654.000000;0.320444
9653.000000;0.319972
9652.000000;0.319473
9651.000000;0.318927
9650.000000;0.318466
9649.000000;0.318242
9648.000000;0.318174
9647.000000;0.318001
9646.000000;0.317568
9645.000000;0.316929
9644.000000;0.316204
9643.000000;0.315487
9642.000000;0.314889
9641.000000;0.314504
9640.000000;0.314296
9639.000000;0.314137
9638.000000;0.313944
9637.000000;0.313681
9636.000000;0.313259
9635.000000;0.312619
9634.000000;0.311878
9633.000000;0.311259
9632.000000;0.310844
9631.000000;0.310529
9630.000000;0.310222
9629.000000;0.309944
9628.000000;0.309712
9627.000000;0.309463
9626.000000;0.309130
9625.000000;0.308707
9624.000000;0.308201
9623.000000;0.307624
9622.000000;0.307039
9621.000000;0.306514
9620.000000;0.306044
9619.000000;0.305582
9618.000000;0.305138
9617.000000;0.304735
9616.000000;0.304316
9615.000000;0.303802
9614.000000;0.303262
9613.000000;0.302876
9612.000000;0.302703
9611.000000;0.302595
9610.000000;0.302384
9609.000000;0.302044
9608.000000;0.301631
9607.000000;0.301169
9606.000000;0.300652
9605.000000;0.300109
9604.000000;0.299597
9603.000000;0.299149
9602.000000;0.298755
9601.000000;0.298376
9600.000000;0.297962
9599.000000;0.297497
9598.000000;0.297016
9597.000000;0.296572
9596.000000;0.296203
9595.000000;0.295937
9594.000000;0.295766
9593.000000;0.295580
9592.000000;0.295213
9591.000000;0.294615
9590.000000;0.293933
9589.000000;0.293362
9588.000000;0.292955
9587.000000;0.292643
9586.000000;0.292355
9585.000000;0.292039
9584.000000;0.291638
9583.000000;0.291167
9582.000000;0.290745
9581.000000;0.290474
9580.000000;0.290284
9579.000000;0.290014
9578.000000;0.289596
9577.000000;0.289092
9576.000000;0.288572
9575.000000;0.288074
9574.000000;0.287622
9573.000000;0.287212
9572.000000;0.286787
9571.000000;0.286318
9570.000000;0.285864
9569.000000;0.285477
9568.000000;0.285116
9567.000000;0.284742
9566.000000;0.284427
9565.000000;0.284215
9564.000000;0.283957
9563.000000;0.283450
9562.000000;0.282737
9561.000000;0.282084
9560.000000;0.281659
9559.000000;0.281370
9558.000000;0.281049
9557.000000;0.280659
9556.000000;0.280262
9555.000000;0.279898
9554.000000;0.279563
9553.000000;0.279235
9552.000000;0.278872
9551.000000;0.278450
9550.000000;0.278033
9549.000000;0.277720
9548.000000;0.277516
9547.000000;0.277297
9546.000000;0.276942
9545.000000;0.276462
9544.000000;0.275971
9543.000000;0.275581
9542.000000;0.275320
9541.000000;0.275102
9540.000000;0.274770
9539.000000;0.274248
9538.000000;0.273634
9537.000000;0.273107
9536.000000;0.272735
9535.000000;0.272426
9534.000000;0.272062
9533.000000;0.271610
9532.000000;0.271118
9531.000000;0.270656
9530.000000;0.270268
9529.000000;0.269922
9528.000000;0.269517
9527.000000;0.268999
9526.000000;0.268452
9525.000000;0.268011
9524.000000;0.267697
9523.000000;0.267411
9522.000000;0.267080
9521.000000;0.266730
9520.000000;0.266388
9519.000000;0.266015
9518.000000;0.265564
9517.000000;0.265074
9516.000000;0.264650
9515.000000;0.264359
9514.000000;0.264180
9513.000000;0.264010
9512.000000;0.263737
9511.000000;0.263315
9510.000000;0.262784
9509.000000;0.262229
9508.000000;0.261728
9507.000000;0.261349
9506.000000;0.261139
9505.000000;0.261062
9504.000000;0.260980
9503.000000;0.260738
9502.000000;0.260291
9501.000000;0.259719
9500.000000;0.259158
9499.000000;0.258703
9498.000000;0.258340
9497.000000;0.257944
9496.000000;0.257403
9495.000000;0.256789
9494.000000;0.256326
9493.000000;0.256141
9492.000000;0.256088
9491.000000;0.255905
9490.000000;0.255498
9489.000000;0.255000
9488.000000;0.254576
9487.000000;0.254281
9486.000000;0.254076
9485.000000;0.253882
9484.000000;0.253617
9483.000000;0.253247
9482.000000;0.252834
9481.000000;0.252474
9480.000000;0.252177
9479.000000;0.251878
9478.000000;0.251548
9477.000000;0.251237
9476.000000;0.250975
9475.000000;0.250678
9474.000000;0.250223
9473.000000;0.249602
9472.000000;0.248970
9471.000000;0.248523
9470.000000;0.248304
9469.000000;0.248144
9468.000000;0.247798
9467.000000;0.247178
9466.000000;0.246441
9465.000000;0.245842
9464.000000;0.245520
9463.000000;0.245407
9462.000000;0.245325
9461.000000;0.245139
9460.000000;0.244857
9459.000000;0.244566
9458.000000;0.244284
9457.000000;0.243909
9456.000000;0.243357
9455.000000;0.242730
9454.000000;0.242240
9453.000000;0.241976
9452.000000;0.241814
9451.000000;0.241583
9450.000000;0.241255
9449.000000;0.240901
9448.000000;0.240562
9447.000000;0.240212
9446.000000;0.239818
9445.000000;0.239387
9444.000000;0.238971
9443.000000;0.238622
9442.000000;0.238315
9441.000000;0.237933
9440.000000;0.237391
9439.000000;0.236799
9438.000000;0.236382
9437.000000;0.236213
9436.000000;0.236105
9435.000000;0.235847
9434.000000;0.235439
9433.000000;0.235044
9432.000000;0.234764
9431.000000;0.234559
9430.000000;0.234317
9429.000000;0.233953
9428.000000;0.233452
9427.000000;0.232894
9426.000000;0.232396
9425.000000;0.231994
9424.000000;0.231633
9423.000000;0.231285
9422.000000;0.231006
9421.000000;0.230821
9420.000000;0.230637
9419.000000;0.230342
9418.000000;0.229928
9417.000000;0.229455
9416.000000;0.228952
9415.000000;0.228439
9414.000000;0.227996
9413.000000;0.227704
9412.000000;0.227554
9411.000000;0.227456
9410.000000;0.227319
9409.000000;0.227064
9408.000000;0.226635
9407.000000;0.226064
9406.000000;0.225502
9405.000000;0.225080
9404.000000;0.224777
9403.000000;0.224469
9402.000000;0.224105
9401.000000;0.223747
9400.000000;0.223479
9399.000000;0.223306
9398.000000;0.223139
9397.000000;0.222848
9396.000000;0.222367
9395.000000;0.221805
9394.000000;0.221393
9393.000000;0.221255
9392.000000;0.221269
9391.000000;0.221201
9390.000000;0.220941
9389.000000;0.220550
9388.000000;0.220129
9387.000000;0.219727
9386.000000;0.219348
9385.000000;0.218983
9384.000000;0.218625
9383.000000;0.218302
9382.000000;0.218077
9381.000000;0.217967
9380.000000;0.217888
9379.000000;0.217712
9378.000000;0.217372
9377.000000;0.216886
9376.000000;0.216325
9375.000000;0.215798
9374.000000;0.215397
9373.000000;0.215122
9372.000000;0.214883
9371.000000;0.214622
9370.000000;0.214376
9369.000000;0.214191
9368.000000;0.214029
9367.000000;0.213823
9366.000000;0.213562
9365.000000;0.213252
9364.000000;0.212855
9363.000000;0.212363
9362.000000;0.211876
9361.000000;0.211516
9360.000000;0.211285
9359.000000;0.211071
9358.000000;0.210781
9357.000000;0.210416
9356.000000;0.210033
9355.000000;0.209704
9354.000000;0.209472
9353.000000;0.209282
9352.000000;0.208991
9351.000000;0.208511
9350.000000;0.207935
9349.000000;0.207450
9348.000000;0.207136
9347.000000;0.206913
9346.000000;0.206670
9345.000000;0.206373
9344.000000;0.206062
9343.000000;0.205785
9342.000000;0.205548
9341.000000;0.205290
9340.000000;0.204927
9339.000000;0.204459
9338.000000;0.204001
9337.000000;0.203662
9336.000000;0.203418
9335.000000;0.203164
9334.000000;0.202871
9333.000000;0.202618
9332.000000;0.202469
9331.000000;0.202381
9330.000000;0.202233
9329.000000;0.201926
9328.000000;0.201454
9327.000000;0.200912
9326.000000;0.200444
9325.000000;0.200145
9324.000000;0.199995
9323.000000;0.199894
9322.000000;0.199724
9321.000000;0.199410
9320.000000;0.198951
9319.000000;0.198434
9318.000000;0.197982
9317.000000;0.197661
9316.000000;0.197458
9315.000000;0.197323
9314.000000;0.197196
9313.000000;0.196988
9312.000000;0.196612
9311.000000;0.196084
9310.000000;0.195532
9309.000000;0.195074
9308.000000;0.194725
9307.000000;0.194448
9306.000000;0.194229
9305.000000;0.194045
9304.000000;0.193827
9303.000000;0.193514
9302.000000;0.193127
9301.000000;0.192751
9300.000000;0.192470
9299.000000;0.192342
9298.000000;0.192363
9297.000000;0.192409
9296.000000;0.192274
9295.000000;0.191863
9294.000000;0.191294
9293.000000;0.190764
9292.000000;0.190333
9291.000000;0.189929
9290.000000;0.189512
9289.000000;0.189141
9288.000000;0.188867
9287.000000;0.188658
9286.000000;0.188455
9285.000000;0.188245
9284.000000;0.188041
9283.000000;0.187820
9282.000000;0.187523
9281.000000;0.187141
9280.000000;0.186754
9279.000000;0.186479
9278.000000;0.186341
9277.000000;0.186228
9276.000000;0.186002
9275.000000;0.185648
9274.000000;0.185281
9273.000000;0.184996
9272.000000;0.184784
9271.000000;0.184576
9270.000000;0.184304
9269.000000;0.183933
9268.000000;0.183486
9267.000000;0.183083
9266.000000;0.182851
9265.000000;0.182769
9264.000000;0.182668
9263.000000;0.182436
9262.000000;0.182137
9261.000000;0.181887
9260.000000;0.181684
9259.000000;0.181454
9258.000000;0.181198
9257.000000;0.180996
9256.000000;0.180861
9255.000000;0.180699
9254.000000;0.180416
9253.000000;0.179999
9252.000000;0.179510
9251.000000;0.179033
9250.000000;0.178653
9249.000000;0.178410
9248.000000;0.178266
9247.000000;0.178129
9246.000000;0.177948
9245.000000;0.177734
9244.000000;0.177515
9243.000000;0.177285
9242.000000;0.177025
9241.000000;0.176741
9240.000000;0.176473
9239.000000;0.176240
9238.000000;0.175997
9237.000000;0.175666
9236.000000;0.175242
9235.000000;0.174825
9234.000000;0.174516
9233.000000;0.174297
9232.000000;0.174076
9231.000000;0.173831
9230.000000;0.173634
9229.000000;0.173516
9228.000000;0.173392
9227.000000;0.173171
9226.000000;0.172867
9225.000000;0.172564
9224.000000;0.172314
9223.000000;0.172104
9222.000000;0.171903
9221.000000;0.171685
9220.000000;0.171424
9219.000000;0.171104
9218.000000;0.170743
9217.000000;0.170381
9216.000000;0.170053
9215.000000;0.169779
9214.000000;0.169553
9213.000000;0.169343
9212.000000;0.169116
9211.000000;0.168869
9210.000000;0.168612
9209.000000;0.168353
9208.000000;0.168107
9207.000000;0.167903
9206.000000;0.167733
9205.000000;0.167518
9204.000000;0.167199
9203.000000;0.166847
9202.000000;0.166604
9201.000000;0.166504
9200.000000;0.166426
9199.000000;0.166236
9198.000000;0.165921
9197.000000;0.165553
9196.000000;0.165203
9195.000000;0.164904
9194.000000;0.164654
9193.000000;0.164418
9192.000000;0.164158
9191.000000;0.163889
9190.000000;0.163650
9189.000000;0.163447
9188.000000;0.163250
9187.000000;0.163051
9186.000000;0.162857
9185.000000;0.162651
9184.000000;0.162421
9183.000000;0.162220
9182.000000;0.162107
9181.000000;0.162026
9180.000000;0.161841
9179.000000;0.161506
9178.000000;0.161117
9177.000000;0.160778
9176.000000;0.160494
9175.000000;0.160233
9174.000000;0.159977
9173.000000;0.159688
9172.000000;0.159314
9171.000000;0.158873
9170.000000;0.158475
9169.000000;0.158202
9168.000000;0.158056
9167.000000;0.158020
9166.000000;0.158098
9165.000000;0.158222
9164.000000;0.158232
9163.000000;0.158018
9162.000000;0.157633
9161.000000;0.157201
9160.000000;0.156779
9159.000000;0.156379
9158.000000;0.156055
9157.000000;0.155888
9156.000000;0.155882
9155.000000;0.155941
9154.000000;0.155929
9153.000000;0.155753
9152.000000;0.155431
9151.000000;0.155078
9150.000000;0.154795
9149.000000;0.154562
9148.000000;0.154293
9147.000000;0.153983
9146.000000;0.153713
9145.000000;0.153501
9144.000000;0.153255
9143.000000;0.152927
9142.000000;0.152592
9141.000000;0.152331
9140.000000;0.152115
9139.000000;0.151888
9138.000000;0.151665
9137.000000;0.151478
9136.000000;0.151295
9135.000000;0.151090
9134.000000;0.150919
9133.000000;0.150839
9132.000000;0.150796
9131.000000;0.150676
9130.000000;0.150449
9129.000000;0.150175
9128.000000;0.149891
9127.000000;0.149589
9126.000000;0.149277
9125.000000;0.148992
9124.000000;0.148746
9123.000000;0.148522
9122.000000;0.148320
9121.000000;0.148155
9120.000000;0.148013
9119.000000;0.147847
9118.000000;0.147622
9117.000000;0.147347
9116.000000;0.147079
9115.000000;0.146890
9114.000000;0.146810
9113.000000;0.146773
9112.000000;0.146662
9111.000000;0.146421
9110.000000;0.146100
9109.000000;0.145784
9108.000000;0.145510
9107.000000;0.145282
9106.000000;0.145096
9105.000000;0.144929
9104.000000;0.144740
9103.000000;0.144522
9102.000000;0.144319
9101.000000;0.144154
9100.000000;0.143987
9099.000000;0.143776
9098.000000;0.143535
9097.000000;0.143309
9096.000000;0.143118
9095.000000;0.142955
9094.000000;0.142797
9093.000000;0.142602
9092.000000;0.142345
9091.000000;0.142062
9090.000000;0.141833
9089.000000;0.141683
9088.000000;0.141560
9087.000000;0.141419
9086.000000;0.141280
9085.000000;0.141158
9084.000000;0.141004
9083.000000;0.140760
9082.000000;0.140421
9081.000000;0.140026
9080.000000;0.139624
9079.000000;0.139283
9078.000000;0.139068
9077.000000;0.138966
9076.000000;0.138884
9075.000000;0.138744
9074.000000;0.138564
9073.000000;0.138389
9072.000000;0.138208
9071.000000;0.137984
9070.000000;0.137724
9069.000000;0.137487
9068.000000;0.137331
9067.000000;0.137282
9066.000000;0.137311
9065.000000;0.137314
9064.000000;0.137160
9063.000000;0.136805
9062.000000;0.136343
9061.000000;0.135932
9060.000000;0.135671
9059.000000;0.135567
9058.000000;0.135537
9057.000000;0.135454
9056.000000;0.135226
9055.000000;0.134883
9054.000000;0.134546
9053.000000;0.134282
