Criado como novo conjunto de dados;"e2410_daniel_v2.spp","60125.2 Secs"
cm-1;Abs
10000.000000;1.206760
9999.000000;1.206496
9998.000000;1.206233
9997.000000;1.205969
9996.000000;1.205707
9995.000000;1.205441
9994.000000;1.205184
9993.000000;1.204909
9992.000000;1.204667
9991.000000;1.204366
9990.000000;1.204189
9989.000000;1.203438
9988.000000;1.201791
9987.000000;1.200091
9986.000000;1.198938
9985.000000;1.198494
9984.000000;1.198501
9983.000000;1.198839
9982.000000;1.199436
9981.000000;1.199935
9980.000000;1.199778
9979.000000;1.198745
9978.000000;1.197176
9977.000000;1.195640
9976.000000;1.194560
9975.000000;1.194144
9974.000000;1.194330
9973.000000;1.194670
9972.000000;1.194536
9971.000000;1.193697
9970.000000;1.192582
9969.000000;1.191805
9968.000000;1.191524
9967.000000;1.191409
9966.000000;1.191117
9965.000000;1.190567
9964.000000;1.189787
9963.000000;1.188775
9962.000000;1.187616
9961.000000;1.186571
9960.000000;1.185894
9959.000000;1.185643
9958.000000;1.185721
9957.000000;1.185965
9956.000000;1.186122
9955.000000;1.185896
9954.000000;1.185181
9953.000000;1.184215
9952.000000;1.183358
9951.000000;1.182787
9950.000000;1.182474
9949.000000;1.182347
9948.000000;1.182278
9947.000000;1.181948
9946.000000;1.181047
9945.000000;1.179704
9944.000000;1.178551
9943.000000;1.178160
9942.000000;1.178488
9941.000000;1.178986
9940.000000;1.179203
9939.000000;1.179127
9938.000000;1.178916
9937.000000;1.178459
9936.000000;1.177388
9935.000000;1.175586
9934.000000;1.173587
9933.000000;1.172289
9932.000000;1.172164
9931.000000;1.172802
9930.000000;1.173354
9929.000000;1.173395
9928.000000;1.173208
9927.000000;1.173248
9926.000000;1.173543
9925.000000;1.173698
9924.000000;1.173289
9923.000000;1.172154
9922.000000;1.170442
9921.000000;1.168596
9920.000000;1.167181
9919.000000;1.166539
9918.000000;1.166520
9917.000000;1.166597
9916.000000;1.166292
9915.000000;1.165511
9914.000000;1.164542
9913.000000;1.163752
9912.000000;1.163268
9911.000000;1.162878
9910.000000;1.162269
9909.000000;1.161353
9908.000000;1.160349
9907.000000;1.159569
9906.000000;1.159170
9905.000000;1.159027
9904.000000;1.158796
9903.000000;1.158195
9902.000000;1.157372
9901.000000;1.156822
9900.000000;1.156734
9899.000000;1.156577
9898.000000;1.155752
9897.000000;1.154583
9896.000000;1.154082
9895.000000;1.154567
9894.000000;1.155055
9893.000000;1.154463
9892.000000;1.153029
9891.000000;1.151958
9890.000000;1.151868
9889.000000;1.152227
9888.000000;1.152276
9887.000000;1.151876
9886.000000;1.151253
9885.000000;1.150419
9884.000000;1.149247
9883.000000;1.147898
9882.000000;1.146826
9881.000000;1.146378
9880.000000;1.146536
9879.000000;1.146975
9878.000000;1.147283
9877.000000;1.147200
9876.000000;1.146750
9875.000000;1.146102
9874.000000;1.145333
9873.000000;1.144398
9872.000000;1.143328
9871.000000;1.142270
9870.000000;1.141306
9869.000000;1.140398
9868.000000;1.139612
9867.000000;1.139229
9866.000000;1.139482
9865.000000;1.140259
9864.000000;1.141140
9863.000000;1.141721
9862.000000;1.141812
9861.000000;1.141373
9860.000000;1.140382
9859.000000;1.138846
9858.000000;1.136940
9857.000000;1.135059
9856.000000;1.133642
9855.000000;1.132845
9854.000000;1.132474
9853.000000;1.132288
9852.000000;1.132288
9851.000000;1.132581
9850.000000;1.133051
9849.000000;1.133362
9848.000000;1.133280
9847.000000;1.132855
9846.000000;1.132301
9845.000000;1.131830
9844.000000;1.131555
9843.000000;1.131352
9842.000000;1.130830
9841.000000;1.129713
9840.000000;1.128309
9839.000000;1.127320
9838.000000;1.127057
9837.000000;1.127094
9836.000000;1.126838
9835.000000;1.126232
9834.000000;1.125616
9833.000000;1.125080
9832.000000;1.124338
9831.000000;1.123228
9830.000000;1.122035
9829.000000;1.121160
9828.000000;1.120648
9827.000000;1.120240
9826.000000;1.119783
9825.000000;1.119407
9824.000000;1.119263
9823.000000;1.119250
9822.000000;1.119086
9821.000000;1.118626
9820.000000;1.117990
9819.000000;1.117367
9818.000000;1.116778
9817.000000;1.116142
9816.000000;1.115532
9815.000000;1.115204
9814.000000;1.115311
9813.000000;1.115636
9812.000000;1.115677
9811.000000;1.115035
9810.000000;1.113771
9809.000000;1.112403
9808.000000;1.111494
9807.000000;1.111193
9806.000000;1.111191
9805.000000;1.111146
9804.000000;1.111052
9803.000000;1.111088
9802.000000;1.111216
9801.000000;1.111131
9800.000000;1.110626
9799.000000;1.109801
9798.000000;1.108862
9797.000000;1.107909
9796.000000;1.107054
9795.000000;1.106543
9794.000000;1.106555
9793.000000;1.106897
9792.000000;1.107073
9791.000000;1.106698
9790.000000;1.105784
9789.000000;1.104652
9788.000000;1.103649
9787.000000;1.102939
9786.000000;1.102474
9785.000000;1.102089
9784.000000;1.101639
9783.000000;1.101093
9782.000000;1.100527
9781.000000;1.100083
9780.000000;1.099862
9779.000000;1.099786
9778.000000;1.099598
9777.000000;1.099098
9776.000000;1.098411
9775.000000;1.097887
9774.000000;1.097680
9773.000000;1.097507
9772.000000;1.096904
9771.000000;1.095682
9770.000000;1.094077
9769.000000;1.092545
9768.000000;1.091476
9767.000000;1.091009
9766.000000;1.090977
9765.000000;1.091033
9764.000000;1.090935
9763.000000;1.090728
9762.000000;1.090581
9761.000000;1.090477
9760.000000;1.090164
9759.000000;1.089444
9758.000000;1.088422
9757.000000;1.087444
9756.000000;1.086825
9755.000000;1.086656
9754.000000;1.086770
9753.000000;1.086836
9752.000000;1.086534
9751.000000;1.085748
9750.000000;1.084692
9749.000000;1.083826
9748.000000;1.083528
9747.000000;1.083751
9746.000000;1.084030
9745.000000;1.083897
9744.000000;1.083284
9743.000000;1.082438
9742.000000;1.081557
9741.000000;1.080685
9740.000000;1.079913
9739.000000;1.079424
9738.000000;1.079198
9737.000000;1.078913
9736.000000;1.078314
9735.000000;1.077581
9734.000000;1.077061
9733.000000;1.076757
9732.000000;1.076350
9731.000000;1.075716
9730.000000;1.075107
9729.000000;1.074715
9728.000000;1.074330
9727.000000;1.073644
9726.000000;1.072747
9725.000000;1.072096
9724.000000;1.072025
9723.000000;1.072451
9722.000000;1.073005
9721.000000;1.073319
9720.000000;1.073177
9719.000000;1.072535
9718.000000;1.071490
9717.000000;1.070230
9716.000000;1.068990
9715.000000;1.068019
9714.000000;1.067516
9713.000000;1.067524
9712.000000;1.067908
9711.000000;1.068409
9710.000000;1.068680
9709.000000;1.068353
9708.000000;1.067311
9707.000000;1.066003
9706.000000;1.065228
9705.000000;1.065346
9704.000000;1.065771
9703.000000;1.065503
9702.000000;1.064181
9701.000000;1.062427
9700.000000;1.061148
9699.000000;1.060736
9698.000000;1.060952
9697.000000;1.061299
9696.000000;1.061387
9695.000000;1.061119
9694.000000;1.060655
9693.000000;1.060130
9692.000000;1.059415
9691.000000;1.058357
9690.000000;1.057250
9689.000000;1.056743
9688.000000;1.057093
9687.000000;1.057736
9686.000000;1.057832
9685.000000;1.057084
9684.000000;1.055792
9683.000000;1.054330
9682.000000;1.052934
9681.000000;1.051876
9680.000000;1.051413
9679.000000;1.051464
9678.000000;1.051598
9677.000000;1.051440
9676.000000;1.050937
9675.000000;1.050217
9674.000000;1.049411
9673.000000;1.048688
9672.000000;1.048242
9671.000000;1.048101
9670.000000;1.048063
9669.000000;1.047888
9668.000000;1.047488
9667.000000;1.046934
9666.000000;1.046433
9665.000000;1.046276
9664.000000;1.046584
9663.000000;1.047076
9662.000000;1.047252
9661.000000;1.046894
9660.000000;1.046192
9659.000000;1.045372
9658.000000;1.044431
9657.000000;1.043318
9656.000000;1.042130
9655.000000;1.040976
9654.000000;1.039894
9653.000000;1.039022
9652.000000;1.038613
9651.000000;1.038630
9650.000000;1.038577
9649.000000;1.038054
9648.000000;1.037380
9647.000000;1.037274
9646.000000;1.037906
9645.000000;1.038581
9644.000000;1.038478
9643.000000;1.037508
9642.000000;1.036321
9641.000000;1.035624
9640.000000;1.035624
9639.000000;1.035975
9638.000000;1.036107
9637.000000;1.035645
9636.000000;1.034674
9635.000000;1.033650
9634.000000;1.033028
9633.000000;1.032926
9632.000000;1.033130
9631.000000;1.033310
9630.000000;1.033231
9629.000000;1.032792
9628.000000;1.032004
9627.000000;1.030989
9626.000000;1.029979
9625.000000;1.029211
9624.000000;1.028761
9623.000000;1.028482
9622.000000;1.028174
9621.000000;1.027816
9620.000000;1.027578
9619.000000;1.027573
9618.000000;1.027648
9617.000000;1.027439
9616.000000;1.026682
9615.000000;1.025498
9614.000000;1.024367
9613.000000;1.023758
9612.000000;1.023681
9611.000000;1.023663
9610.000000;1.023240
9609.000000;1.022436
9608.000000;1.021669
9607.000000;1.021234
9606.000000;1.021053
9605.000000;1.020885
9604.000000;1.020607
9603.000000;1.020217
9602.000000;1.019758
9601.000000;1.019331
9600.000000;1.019097
9599.000000;1.019139
9598.000000;1.019313
9597.000000;1.019311
9596.000000;1.018876
9595.000000;1.018021
9594.000000;1.017064
9593.000000;1.016362
9592.000000;1.015941
9591.000000;1.015482
9590.000000;1.014772
9589.000000;1.014030
9588.000000;1.013573
9587.000000;1.013281
9586.000000;1.012720
9585.000000;1.011787
9584.000000;1.010918
9583.000000;1.010575
9582.000000;1.010819
9581.000000;1.011406
9580.000000;1.011966
9579.000000;1.011987
9578.000000;1.011049
9577.000000;1.009372
9576.000000;1.007839
9575.000000;1.007146
9574.000000;1.007152
9573.000000;1.007287
9572.000000;1.007289
9571.000000;1.007182
9570.000000;1.006832
9569.000000;1.006049
9568.000000;1.005066
9567.000000;1.004389
9566.000000;1.004147
9565.000000;1.004005
9564.000000;1.003745
9563.000000;1.003504
9562.000000;1.003328
9561.000000;1.002957
9560.000000;1.002304
9559.000000;1.001790
9558.000000;1.001845
9557.000000;1.002267
9556.000000;1.002405
9555.000000;1.001902
9554.000000;1.001034
9553.000000;1.000302
9552.000000;0.999863
9551.000000;0.999467
9550.000000;0.998831
9549.000000;0.997994
9548.000000;0.997279
9547.000000;0.996951
9546.000000;0.996943
9545.000000;0.996976
9544.000000;0.996861
9543.000000;0.996627
9542.000000;0.996376
9541.000000;0.996165
9540.000000;0.996011
9539.000000;0.995866
9538.000000;0.995576
9537.000000;0.994988
9536.000000;0.994155
9535.000000;0.993314
9534.000000;0.992629
9533.000000;0.992071
9532.000000;0.991580
9531.000000;0.991203
9530.000000;0.990981
9529.000000;0.990787
9528.000000;0.990397
9527.000000;0.989721
9526.000000;0.988897
9525.000000;0.988164
9524.000000;0.987641
9523.000000;0.987254
9522.000000;0.986861
9521.000000;0.986408
9520.000000;0.985902
9519.000000;0.985265
9518.000000;0.984393
9517.000000;0.983428
9516.000000;0.982786
9515.000000;0.982740
9514.000000;0.983045
9513.000000;0.983177
9512.000000;0.982895
9511.000000;0.982408
9510.000000;0.982051
9509.000000;0.981968
9508.000000;0.982062
9507.000000;0.982028
9506.000000;0.981486
9505.000000;0.980368
9504.000000;0.979164
9503.000000;0.978520
9502.000000;0.978524
9501.000000;0.978661
9500.000000;0.978565
9499.000000;0.978450
9498.000000;0.978611
9497.000000;0.978827
9496.000000;0.978632
9495.000000;0.978013
9494.000000;0.977453
9493.000000;0.977269
9492.000000;0.977238
9491.000000;0.976915
9490.000000;0.976107
9489.000000;0.974977
9488.000000;0.973874
9487.000000;0.973133
9486.000000;0.972849
9485.000000;0.972788
9484.000000;0.972643
9483.000000;0.972416
9482.000000;0.972418
9481.000000;0.972796
9480.000000;0.973196
9479.000000;0.973046
9478.000000;0.972129
9477.000000;0.970801
9476.000000;0.969659
9475.000000;0.969064
9474.000000;0.968940
9473.000000;0.968898
9472.000000;0.968573
9471.000000;0.967882
9470.000000;0.967034
9469.000000;0.966319
9468.000000;0.965903
9467.000000;0.965779
9466.000000;0.965805
9465.000000;0.965760
9464.000000;0.965459
9463.000000;0.964892
9462.000000;0.964238
9461.000000;0.963696
9460.000000;0.963316
9459.000000;0.963005
9458.000000;0.962639
9457.000000;0.962123
9456.000000;0.961441
9455.000000;0.960768
9454.000000;0.960437
9453.000000;0.960641
9452.000000;0.961130
9451.000000;0.961358
9450.000000;0.960978
9449.000000;0.960108
9448.000000;0.959094
9447.000000;0.958179
9446.000000;0.957480
9445.000000;0.957097
9444.000000;0.957020
9443.000000;0.957005
9442.000000;0.956758
9441.000000;0.956266
9440.000000;0.955799
9439.000000;0.955572
9438.000000;0.955514
9437.000000;0.955424
9436.000000;0.955213
9435.000000;0.954929
9434.000000;0.954630
9433.000000;0.954305
9432.000000;0.953920
9431.000000;0.953478
9430.000000;0.953054
9429.000000;0.952730
9428.000000;0.952472
9427.000000;0.952124
9426.000000;0.951596
9425.000000;0.951018
9424.000000;0.950599
9423.000000;0.950363
9422.000000;0.950166
9421.000000;0.949927
9420.000000;0.949709
9419.000000;0.949519
9418.000000;0.949234
9417.000000;0.948770
9416.000000;0.948185
9415.000000;0.947545
9414.000000;0.946838
9413.000000;0.946129
9412.000000;0.945622
9411.000000;0.945413
9410.000000;0.945291
9409.000000;0.944961
9408.000000;0.944399
9407.000000;0.943836
9406.000000;0.943447
9405.000000;0.943212
9404.000000;0.943048
9403.000000;0.942882
9402.000000;0.942567
9401.000000;0.941952
9400.000000;0.941131
9399.000000;0.940499
9398.000000;0.940383
9397.000000;0.940632
9396.000000;0.940726
9395.000000;0.940352
9394.000000;0.939774
9393.000000;0.939498
9392.000000;0.939615
9391.000000;0.939669
9390.000000;0.939229
9389.000000;0.938404
9388.000000;0.937646
9387.000000;0.937216
9386.000000;0.937067
9385.000000;0.937125
9384.000000;0.937352
9383.000000;0.937526
9382.000000;0.937275
9381.000000;0.936510
9380.000000;0.935572
9379.000000;0.934822
9378.000000;0.934283
9377.000000;0.933844
9376.000000;0.933584
9375.000000;0.933648
9374.000000;0.933914
9373.000000;0.934048
9372.000000;0.933852
9371.000000;0.933394
9370.000000;0.932858
9369.000000;0.932382
9368.000000;0.932002
9367.000000;0.931611
9366.000000;0.931063
9365.000000;0.930424
9364.000000;0.929982
9363.000000;0.929845
9362.000000;0.929678
9361.000000;0.929083
9360.000000;0.928141
9359.000000;0.927313
9358.000000;0.926877
9357.000000;0.926733
9356.000000;0.926731
9355.000000;0.926867
9354.000000;0.927071
9353.000000;0.927066
9352.000000;0.926622
9351.000000;0.925823
9350.000000;0.924955
9349.000000;0.924232
9348.000000;0.923724
9347.000000;0.923425
9346.000000;0.923280
9345.000000;0.923184
9344.000000;0.923032
9343.000000;0.922787
9342.000000;0.922478
9341.000000;0.922187
9340.000000;0.922012
9339.000000;0.921957
9338.000000;0.921878
9337.000000;0.921600
9336.000000;0.921104
9335.000000;0.920516
9334.000000;0.919952
9333.000000;0.919474
9332.000000;0.919153
9331.000000;0.919038
9330.000000;0.919047
9329.000000;0.919014
9328.000000;0.918852
9327.000000;0.918586
9326.000000;0.918253
9325.000000;0.917907
9324.000000;0.917668
9323.000000;0.917620
9322.000000;0.917644
9321.000000;0.917538
9320.000000;0.917304
9319.000000;0.917126
9318.000000;0.917009
9317.000000;0.916646
9316.000000;0.915793
9315.000000;0.914647
9314.000000;0.913694
9313.000000;0.913237
9312.000000;0.913193
9311.000000;0.913287
9310.000000;0.913337
9309.000000;0.913333
9308.000000;0.913336
9307.000000;0.913330
9306.000000;0.913189
9305.000000;0.912780
9304.000000;0.912120
9303.000000;0.911374
9302.000000;0.910700
9301.000000;0.910120
9300.000000;0.909583
9299.000000;0.909131
9298.000000;0.908942
9297.000000;0.909143
9296.000000;0.909570
9295.000000;0.909781
9294.000000;0.909433
9293.000000;0.908638
9292.000000;0.907837
9291.000000;0.907298
9290.000000;0.906900
9289.000000;0.906487
9288.000000;0.906210
9287.000000;0.906324
9286.000000;0.906762
9285.000000;0.907156
9284.000000;0.907251
9283.000000;0.907073
9282.000000;0.906678
9281.000000;0.905992
9280.000000;0.905001
9279.000000;0.903920
9278.000000;0.903052
9277.000000;0.902536
9276.000000;0.902287
9275.000000;0.902129
9274.000000;0.901936
9273.000000;0.901715
9272.000000;0.901565
9271.000000;0.901511
9270.000000;0.901440
9269.000000;0.901256
9268.000000;0.901012
9267.000000;0.900792
9266.000000;0.900528
9265.000000;0.900115
9264.000000;0.899620
9263.000000;0.899185
9262.000000;0.898778
9261.000000;0.898285
9260.000000;0.897801
9259.000000;0.897561
9258.000000;0.897569
9257.000000;0.897546
9256.000000;0.897322
9255.000000;0.897018
9254.000000;0.896778
9253.000000;0.896568
9252.000000;0.896374
9251.000000;0.896292
9250.000000;0.896273
9249.000000;0.896015
9248.000000;0.895356
9247.000000;0.894570
9246.000000;0.894045
9245.000000;0.893804
9244.000000;0.893595
9243.000000;0.893308
9242.000000;0.893048
9241.000000;0.892885
9240.000000;0.892769
9239.000000;0.892683
9238.000000;0.892653
9237.000000;0.892612
9236.000000;0.892444
9235.000000;0.892163
9234.000000;0.891894
9233.000000;0.891680
9232.000000;0.891470
9231.000000;0.891268
9230.000000;0.891131
9229.000000;0.891006
9228.000000;0.890734
9227.000000;0.890224
9226.000000;0.889514
9225.000000;0.888666
9224.000000;0.887758
9223.000000;0.886962
9222.000000;0.886470
9221.000000;0.886305
9220.000000;0.886337
9219.000000;0.886474
9218.000000;0.886669
9217.000000;0.886721
9216.000000;0.886337
9215.000000;0.885547
9214.000000;0.884858
9213.000000;0.884764
9212.000000;0.885153
9211.000000;0.885424
9210.000000;0.885187
9209.000000;0.884654
9208.000000;0.884264
9207.000000;0.884117
9206.000000;0.883950
9205.000000;0.883595
9204.000000;0.883225
9203.000000;0.883074
9202.000000;0.883062
9201.000000;0.882863
9200.000000;0.882316
9199.000000;0.881629
9198.000000;0.881163
9197.000000;0.881102
9196.000000;0.881328
9195.000000;0.881537
9194.000000;0.881447
9193.000000;0.881004
9192.000000;0.880433
9191.000000;0.880003
9190.000000;0.879732
9189.000000;0.879407
9188.000000;0.878909
9187.000000;0.878371
9186.000000;0.877969
9185.000000;0.877721
9184.000000;0.877584
9183.000000;0.877583
9182.000000;0.877669
9181.000000;0.877592
9180.000000;0.877167
9179.000000;0.876612
9178.000000;0.876360
9177.000000;0.876537
9176.000000;0.876798
9175.000000;0.876759
9174.000000;0.876377
9173.000000;0.875868
9172.000000;0.875413
9171.000000;0.875089
9170.000000;0.874930
9169.000000;0.874902
9168.000000;0.874885
9167.000000;0.874769
9166.000000;0.874538
9165.000000;0.874216
9164.000000;0.873795
9163.000000;0.873309
9162.000000;0.872878
9161.000000;0.872602
9160.000000;0.872467
9159.000000;0.872411
9158.000000;0.872397
9157.000000;0.872347
9156.000000;0.872116
9155.000000;0.871679
9154.000000;0.871244
9153.000000;0.871030
9152.000000;0.870959
9151.000000;0.870754
9150.000000;0.870328
9149.000000;0.869889
9148.000000;0.869613
9147.000000;0.869404
9146.000000;0.869062
9145.000000;0.868582
9144.000000;0.868137
9143.000000;0.867867
9142.000000;0.867768
9141.000000;0.867744
9140.000000;0.867667
9139.000000;0.867433
9138.000000;0.867066
9137.000000;0.866755
9136.000000;0.866689
9135.000000;0.866847
9134.000000;0.867009
9133.000000;0.866977
9132.000000;0.866720
9131.000000;0.866331
9130.000000;0.865916
9129.000000;0.865555
9128.000000;0.865304
9127.000000;0.865201
9126.000000;0.865263
9125.000000;0.865451
9124.000000;0.865602
9123.000000;0.865461
9122.000000;0.864898
9121.000000;0.864075
9120.000000;0.863308
9119.000000;0.862763
9118.000000;0.862358
9117.000000;0.861941
9116.000000;0.861437
9115.000000;0.860836
9114.000000;0.860206
9113.000000;0.859760
9112.000000;0.859733
9111.000000;0.860079
9110.000000;0.860425
9109.000000;0.860461
9108.000000;0.860257
9107.000000;0.860024
9106.000000;0.859707
9105.000000;0.859065
9104.000000;0.858144
9103.000000;0.857389
9102.000000;0.857161
9101.000000;0.857335
9100.000000;0.857508
9099.000000;0.857489
9098.000000;0.857422
9097.000000;0.857482
9096.000000;0.857629
9095.000000;0.857691
9094.000000;0.857581
9093.000000;0.857359
9092.000000;0.857129
9091.000000;0.856933
9090.000000;0.856726
9089.000000;0.856457
9088.000000;0.856139
9087.000000;0.855842
9086.000000;0.855608
9085.000000;0.855409
9084.000000;0.855192
9083.000000;0.854947
9082.000000;0.854723
9081.000000;0.854585
9080.000000;0.854596
9079.000000;0.854786
9078.000000;0.855090
9077.000000;0.855293
9076.000000;0.855138
9075.000000;0.854542
9074.000000;0.853710
9073.000000;0.853000
9072.000000;0.852642
9071.000000;0.852583
9070.000000;0.852590
9069.000000;0.852468
9068.000000;0.852187
9067.000000;0.851830
9066.000000;0.851455
9065.000000;0.851026
9064.000000;0.850492
9063.000000;0.849932
9062.000000;0.849610
9061.000000;0.849787
9060.000000;0.850433
9059.000000;0.851165
9058.000000;0.851530
9057.000000;0.851350
9056.000000;0.850763
9055.000000;0.850001
9054.000000;0.849238
9053.000000;0.848611
