Criado como novo conjunto de dados;"e2410_daniel_v2.spp","39064.1 Secs"
cm-1;Abs
10000.000000;0.366401
9999.000000;0.365790
9998.000000;0.365179
9997.000000;0.364570
9996.000000;0.363961
9995.000000;0.363354
9994.000000;0.362746
9993.000000;0.362142
9992.000000;0.361533
9991.000000;0.360935
9990.000000;0.360315
9989.000000;0.359812
9988.000000;0.359536
9987.000000;0.359352
9986.000000;0.359088
9985.000000;0.358633
9984.000000;0.358052
9983.000000;0.357496
9982.000000;0.357066
9981.000000;0.356713
9980.000000;0.356315
9979.000000;0.355850
9978.000000;0.355445
9977.000000;0.355211
9976.000000;0.355033
9975.000000;0.354627
9974.000000;0.353807
9973.000000;0.352674
9972.000000;0.351514
9971.000000;0.350580
9970.000000;0.350007
9969.000000;0.349810
9968.000000;0.349843
9967.000000;0.349793
9966.000000;0.349377
9965.000000;0.348612
9964.000000;0.347826
9963.000000;0.347329
9962.000000;0.347138
9961.000000;0.347038
9960.000000;0.346838
9959.000000;0.346512
9958.000000;0.346117
9957.000000;0.345665
9956.000000;0.345093
9955.000000;0.344341
9954.000000;0.343440
9953.000000;0.342554
9952.000000;0.341881
9951.000000;0.341497
9950.000000;0.341298
9949.000000;0.341091
9948.000000;0.340723
9947.000000;0.340131
9946.000000;0.339348
9945.000000;0.338529
9944.000000;0.337882
9943.000000;0.337495
9942.000000;0.337233
9941.000000;0.336890
9940.000000;0.336430
9939.000000;0.335981
9938.000000;0.335601
9937.000000;0.335166
9936.000000;0.334541
9935.000000;0.333786
9934.000000;0.333090
9933.000000;0.332552
9932.000000;0.332103
9931.000000;0.331626
9930.000000;0.331076
9929.000000;0.330455
9928.000000;0.329773
9927.000000;0.329075
9926.000000;0.328477
9925.000000;0.328094
9924.000000;0.327908
9923.000000;0.327756
9922.000000;0.327485
9921.000000;0.327096
9920.000000;0.326711
9919.000000;0.326392
9918.000000;0.326051
9917.000000;0.325555
9916.000000;0.324889
9915.000000;0.324155
9914.000000;0.323439
9913.000000;0.322739
9912.000000;0.322024
9911.000000;0.321318
9910.000000;0.320700
9909.000000;0.320230
9908.000000;0.319888
9907.000000;0.319581
9906.000000;0.319195
9905.000000;0.318680
9904.000000;0.318094
9903.000000;0.317550
9902.000000;0.317110
9901.000000;0.316752
9900.000000;0.316430
9899.000000;0.316126
9898.000000;0.315810
9897.000000;0.315403
9896.000000;0.314830
9895.000000;0.314113
9894.000000;0.313379
9893.000000;0.312771
9892.000000;0.312355
9891.000000;0.312087
9890.000000;0.311827
9889.000000;0.311402
9888.000000;0.310722
9887.000000;0.309864
9886.000000;0.309027
9885.000000;0.308391
9884.000000;0.308006
9883.000000;0.307798
9882.000000;0.307643
9881.000000;0.307420
9880.000000;0.307040
9879.000000;0.306487
9878.000000;0.305852
9877.000000;0.305292
9876.000000;0.304910
9875.000000;0.304663
9874.000000;0.304391
9873.000000;0.303958
9872.000000;0.303366
9871.000000;0.302745
9870.000000;0.302219
9869.000000;0.301803
9868.000000;0.301405
9867.000000;0.300940
9866.000000;0.300405
9865.000000;0.299860
9864.000000;0.299322
9863.000000;0.298728
9862.000000;0.298015
9861.000000;0.297235
9860.000000;0.296549
9859.000000;0.296081
9858.000000;0.295809
9857.000000;0.295617
9856.000000;0.295417
9855.000000;0.295180
9854.000000;0.294877
9853.000000;0.294472
9852.000000;0.293994
9851.000000;0.293521
9850.000000;0.293070
9849.000000;0.292554
9848.000000;0.291897
9847.000000;0.291158
9846.000000;0.290488
9845.000000;0.289964
9844.000000;0.289526
9843.000000;0.289069
9842.000000;0.288558
9841.000000;0.288037
9840.000000;0.287569
9839.000000;0.287187
9838.000000;0.286885
9837.000000;0.286623
9836.000000;0.286340
9835.000000;0.285967
9834.000000;0.285463
9833.000000;0.284848
9832.000000;0.284212
9831.000000;0.283653
9830.000000;0.283177
9829.000000;0.282689
9828.000000;0.282089
9827.000000;0.281367
9826.000000;0.280604
9825.000000;0.279906
9824.000000;0.279382
9823.000000;0.279103
9822.000000;0.279015
9821.000000;0.278900
9820.000000;0.278514
9819.000000;0.277815
9818.000000;0.277011
9817.000000;0.276373
9816.000000;0.276016
9815.000000;0.275846
9814.000000;0.275674
9813.000000;0.275334
9812.000000;0.274774
9811.000000;0.274078
9810.000000;0.273401
9809.000000;0.272846
9808.000000;0.272412
9807.000000;0.272044
9806.000000;0.271690
9805.000000;0.271282
9804.000000;0.270754
9803.000000;0.270120
9802.000000;0.269506
9801.000000;0.269034
9800.000000;0.268688
9799.000000;0.268336
9798.000000;0.267881
9797.000000;0.267341
9796.000000;0.266779
9795.000000;0.266233
9794.000000;0.265727
9793.000000;0.265288
9792.000000;0.264932
9791.000000;0.264636
9790.000000;0.264355
9789.000000;0.264024
9788.000000;0.263561
9787.000000;0.262921
9786.000000;0.262187
9785.000000;0.261532
9784.000000;0.261061
9783.000000;0.260700
9782.000000;0.260286
9781.000000;0.259739
9780.000000;0.259109
9779.000000;0.258493
9778.000000;0.257954
9777.000000;0.257521
9776.000000;0.257192
9775.000000;0.256920
9774.000000;0.256639
9773.000000;0.256317
9772.000000;0.255961
9771.000000;0.255569
9770.000000;0.255143
9769.000000;0.254718
9768.000000;0.254340
9767.000000;0.253960
9766.000000;0.253438
9765.000000;0.252705
9764.000000;0.251875
9763.000000;0.251145
9762.000000;0.250600
9761.000000;0.250189
9760.000000;0.249854
9759.000000;0.249590
9758.000000;0.249358
9757.000000;0.249047
9756.000000;0.248577
9755.000000;0.247994
9754.000000;0.247428
9753.000000;0.246973
9752.000000;0.246627
9751.000000;0.246304
9750.000000;0.245871
9749.000000;0.245240
9748.000000;0.244491
9747.000000;0.243858
9746.000000;0.243510
9745.000000;0.243365
9744.000000;0.243180
9743.000000;0.242821
9742.000000;0.242362
9741.000000;0.241943
9740.000000;0.241610
9739.000000;0.241320
9738.000000;0.240985
9737.000000;0.240499
9736.000000;0.239791
9735.000000;0.238935
9734.000000;0.238138
9733.000000;0.237538
9732.000000;0.237060
9731.000000;0.236548
9730.000000;0.235987
9729.000000;0.235515
9728.000000;0.235223
9727.000000;0.235025
9726.000000;0.234775
9725.000000;0.234419
9724.000000;0.234010
9723.000000;0.233604
9722.000000;0.233180
9721.000000;0.232663
9720.000000;0.232017
9719.000000;0.231325
9718.000000;0.230755
9717.000000;0.230412
9716.000000;0.230231
9715.000000;0.230037
9714.000000;0.229720
9713.000000;0.229301
9712.000000;0.228842
9711.000000;0.228350
9710.000000;0.227813
9709.000000;0.227269
9708.000000;0.226778
9707.000000;0.226345
9706.000000;0.225924
9705.000000;0.225501
9704.000000;0.225125
9703.000000;0.224835
9702.000000;0.224588
9701.000000;0.224289
9700.000000;0.223865
9699.000000;0.223334
9698.000000;0.222788
9697.000000;0.222319
9696.000000;0.221943
9695.000000;0.221576
9694.000000;0.221106
9693.000000;0.220500
9692.000000;0.219847
9691.000000;0.219291
9690.000000;0.218927
9689.000000;0.218723
9688.000000;0.218528
9687.000000;0.218162
9686.000000;0.217563
9685.000000;0.216858
9684.000000;0.216262
9683.000000;0.215881
9682.000000;0.215619
9681.000000;0.215317
9680.000000;0.214927
9679.000000;0.214524
9678.000000;0.214146
9677.000000;0.213726
9676.000000;0.213206
9675.000000;0.212635
9674.000000;0.212118
9673.000000;0.211698
9672.000000;0.211334
9671.000000;0.210977
9670.000000;0.210591
9669.000000;0.210137
9668.000000;0.209610
9667.000000;0.209076
9666.000000;0.208625
9665.000000;0.208265
9664.000000;0.207904
9663.000000;0.207466
9662.000000;0.206976
9661.000000;0.206500
9660.000000;0.206048
9659.000000;0.205578
9658.000000;0.205057
9657.000000;0.204498
9656.000000;0.203947
9655.000000;0.203468
9654.000000;0.203120
9653.000000;0.202909
9652.000000;0.202756
9651.000000;0.202537
9650.000000;0.202156
9649.000000;0.201617
9648.000000;0.201039
9647.000000;0.200585
9646.000000;0.200311
9645.000000;0.200087
9644.000000;0.199713
9643.000000;0.199128
9642.000000;0.198462
9641.000000;0.197877
9640.000000;0.197419
9639.000000;0.197048
9638.000000;0.196726
9637.000000;0.196433
9636.000000;0.196129
9635.000000;0.195795
9634.000000;0.195448
9633.000000;0.195077
9632.000000;0.194609
9631.000000;0.194006
9630.000000;0.193367
9629.000000;0.192837
9628.000000;0.192444
9627.000000;0.192088
9626.000000;0.191674
9625.000000;0.191190
9624.000000;0.190673
9623.000000;0.190187
9622.000000;0.189818
9621.000000;0.189592
9620.000000;0.189390
9619.000000;0.189045
9618.000000;0.188535
9617.000000;0.187998
9616.000000;0.187533
9615.000000;0.187100
9614.000000;0.186664
9613.000000;0.186315
9612.000000;0.186142
9611.000000;0.186059
9610.000000;0.185846
9609.000000;0.185357
9608.000000;0.184631
9607.000000;0.183827
9606.000000;0.183116
9605.000000;0.182604
9604.000000;0.182289
9603.000000;0.182076
9602.000000;0.181866
9601.000000;0.181624
9600.000000;0.181352
9599.000000;0.181030
9598.000000;0.180644
9597.000000;0.180223
9596.000000;0.179798
9595.000000;0.179348
9594.000000;0.178828
9593.000000;0.178251
9592.000000;0.177677
9591.000000;0.177151
9590.000000;0.176709
9589.000000;0.176410
9588.000000;0.176280
9587.000000;0.176203
9586.000000;0.175967
9585.000000;0.175477
9584.000000;0.174857
9583.000000;0.174298
9582.000000;0.173846
9581.000000;0.173400
9580.000000;0.172890
9579.000000;0.172380
9578.000000;0.171969
9577.000000;0.171660
9576.000000;0.171360
9575.000000;0.170998
9574.000000;0.170602
9573.000000;0.170263
9572.000000;0.170018
9571.000000;0.169813
9570.000000;0.169556
9569.000000;0.169195
9568.000000;0.168748
9567.000000;0.168259
9566.000000;0.167749
9565.000000;0.167221
9564.000000;0.166669
9563.000000;0.166104
9562.000000;0.165552
9561.000000;0.165059
9560.000000;0.164669
9559.000000;0.164402
9558.000000;0.164231
9557.000000;0.164086
9556.000000;0.163886
9555.000000;0.163567
9554.000000;0.163114
9553.000000;0.162588
9552.000000;0.162098
9551.000000;0.161719
9550.000000;0.161409
9549.000000;0.161052
9548.000000;0.160595
9547.000000;0.160123
9546.000000;0.159751
9545.000000;0.159462
9544.000000;0.159112
9543.000000;0.158623
9542.000000;0.158090
9541.000000;0.157663
9540.000000;0.157388
9539.000000;0.157199
9538.000000;0.157029
9537.000000;0.156835
9536.000000;0.156542
9535.000000;0.156060
9534.000000;0.155408
9533.000000;0.154745
9532.000000;0.154230
9531.000000;0.153871
9530.000000;0.153556
9529.000000;0.153200
9528.000000;0.152814
9527.000000;0.152457
9526.000000;0.152129
9525.000000;0.151760
9524.000000;0.151282
9523.000000;0.150724
9522.000000;0.150210
9521.000000;0.149837
9520.000000;0.149565
9519.000000;0.149257
9518.000000;0.148838
9517.000000;0.148376
9516.000000;0.147994
9515.000000;0.147739
9514.000000;0.147555
9513.000000;0.147352
9512.000000;0.147056
9511.000000;0.146640
9510.000000;0.146118
9509.000000;0.145534
9508.000000;0.144926
9507.000000;0.144324
9506.000000;0.143786
9505.000000;0.143390
9504.000000;0.143168
9503.000000;0.143059
9502.000000;0.142952
9501.000000;0.142781
9500.000000;0.142544
9499.000000;0.142266
9498.000000;0.141944
9497.000000;0.141551
9496.000000;0.141061
9495.000000;0.140494
9494.000000;0.139930
9493.000000;0.139475
9492.000000;0.139176
9491.000000;0.138977
9490.000000;0.138767
9489.000000;0.138459
9488.000000;0.138029
9487.000000;0.137514
9486.000000;0.136984
9485.000000;0.136507
9484.000000;0.136095
9483.000000;0.135691
9482.000000;0.135228
9481.000000;0.134714
9480.000000;0.134235
9479.000000;0.133884
9478.000000;0.133681
9477.000000;0.133543
9476.000000;0.133357
9475.000000;0.133078
9474.000000;0.132763
9473.000000;0.132467
9472.000000;0.132146
9471.000000;0.131703
9470.000000;0.131142
9469.000000;0.130605
9468.000000;0.130220
9467.000000;0.129977
9466.000000;0.129777
9465.000000;0.129562
9464.000000;0.129314
9463.000000;0.128986
9462.000000;0.128504
9461.000000;0.127866
9460.000000;0.127175
9459.000000;0.126570
9458.000000;0.126128
9457.000000;0.125852
9456.000000;0.125698
9455.000000;0.125605
9454.000000;0.125504
9453.000000;0.125314
9452.000000;0.124966
9451.000000;0.124460
9450.000000;0.123908
9449.000000;0.123474
9448.000000;0.123240
9447.000000;0.123135
9446.000000;0.123013
9445.000000;0.122769
9444.000000;0.122374
9443.000000;0.121852
9442.000000;0.121297
9441.000000;0.120852
9440.000000;0.120609
9439.000000;0.120501
9438.000000;0.120364
9437.000000;0.120081
9436.000000;0.119659
9435.000000;0.119160
9434.000000;0.118639
9433.000000;0.118155
9432.000000;0.117762
9431.000000;0.117457
9430.000000;0.117157
9429.000000;0.116767
9428.000000;0.116264
9427.000000;0.115720
9426.000000;0.115239
9425.000000;0.114875
9424.000000;0.114588
9423.000000;0.114303
9422.000000;0.114014
9421.000000;0.113805
9420.000000;0.113725
9419.000000;0.113687
9418.000000;0.113547
9417.000000;0.113271
9416.000000;0.112948
9415.000000;0.112641
9414.000000;0.112305
9413.000000;0.111869
9412.000000;0.111340
9411.000000;0.110780
9410.000000;0.110254
9409.000000;0.109805
9408.000000;0.109456
9407.000000;0.109182
9406.000000;0.108928
9405.000000;0.108672
9404.000000;0.108429
9403.000000;0.108178
9402.000000;0.107844
9401.000000;0.107407
9400.000000;0.106969
9399.000000;0.106651
9398.000000;0.106439
9397.000000;0.106188
9396.000000;0.105786
9395.000000;0.105254
9394.000000;0.104709
9393.000000;0.104265
9392.000000;0.103978
9391.000000;0.103823
9390.000000;0.103700
9389.000000;0.103496
9388.000000;0.103164
9387.000000;0.102755
9386.000000;0.102359
9385.000000;0.102018
9384.000000;0.101712
9383.000000;0.101405
9382.000000;0.101095
9381.000000;0.100802
9380.000000;0.100512
9379.000000;0.100172
9378.000000;0.099749
9377.000000;0.099279
9376.000000;0.098840
9375.000000;0.098470
9374.000000;0.098149
9373.000000;0.097854
9372.000000;0.097582
9371.000000;0.097320
9370.000000;0.097031
9369.000000;0.096715
9368.000000;0.096420
9367.000000;0.096173
9366.000000;0.095918
9365.000000;0.095585
9364.000000;0.095207
9363.000000;0.094904
9362.000000;0.094754
9361.000000;0.094708
9360.000000;0.094639
9359.000000;0.094451
9358.000000;0.094115
9357.000000;0.093654
9356.000000;0.093127
9355.000000;0.092607
9354.000000;0.092157
9353.000000;0.091810
9352.000000;0.091548
9351.000000;0.091307
9350.000000;0.091004
9349.000000;0.090596
9348.000000;0.090116
9347.000000;0.089649
9346.000000;0.089279
9345.000000;0.089058
9344.000000;0.088990
9343.000000;0.089009
9342.000000;0.088983
9341.000000;0.088784
9340.000000;0.088395
9339.000000;0.087915
9338.000000;0.087462
9337.000000;0.087069
9336.000000;0.086700
9335.000000;0.086315
9334.000000;0.085916
9333.000000;0.085534
9332.000000;0.085202
9331.000000;0.084946
9330.000000;0.084765
9329.000000;0.084607
9328.000000;0.084387
9327.000000;0.084040
9326.000000;0.083579
9325.000000;0.083084
9324.000000;0.082649
9323.000000;0.082328
9322.000000;0.082119
9321.000000;0.081972
9320.000000;0.081815
9319.000000;0.081589
9318.000000;0.081281
9317.000000;0.080929
9316.000000;0.080584
9315.000000;0.080267
9314.000000;0.079971
9313.000000;0.079705
9312.000000;0.079501
9311.000000;0.079372
9310.000000;0.079267
9309.000000;0.079087
9308.000000;0.078760
9307.000000;0.078316
9306.000000;0.077861
9305.000000;0.077488
9304.000000;0.077199
9303.000000;0.076923
9302.000000;0.076605
9301.000000;0.076260
9300.000000;0.075937
9299.000000;0.075647
9298.000000;0.075373
9297.000000;0.075111
9296.000000;0.074876
9295.000000;0.074648
9294.000000;0.074364
9293.000000;0.073999
9292.000000;0.073605
9291.000000;0.073265
9290.000000;0.073004
9289.000000;0.072788
9288.000000;0.072577
9287.000000;0.072337
9286.000000;0.072041
9285.000000;0.071688
9284.000000;0.071325
9283.000000;0.070993
9282.000000;0.070667
9281.000000;0.070301
9280.000000;0.069932
9279.000000;0.069678
9278.000000;0.069584
9277.000000;0.069554
9276.000000;0.069455
9275.000000;0.069256
9274.000000;0.069009
9273.000000;0.068738
9272.000000;0.068416
9271.000000;0.068044
9270.000000;0.067678
9269.000000;0.067363
9268.000000;0.067091
9267.000000;0.066826
9266.000000;0.066539
9265.000000;0.066225
9264.000000;0.065891
9263.000000;0.065559
9262.000000;0.065234
9261.000000;0.064896
9260.000000;0.064543
9259.000000;0.064230
9258.000000;0.064019
9257.000000;0.063879
9256.000000;0.063703
9255.000000;0.063435
9254.000000;0.063115
9253.000000;0.062797
9252.000000;0.062487
9251.000000;0.062195
9250.000000;0.061973
9249.000000;0.061819
9248.000000;0.061627
9247.000000;0.061299
9246.000000;0.060895
9245.000000;0.060577
9244.000000;0.060419
9243.000000;0.060337
9242.000000;0.060218
9241.000000;0.060033
9240.000000;0.059810
9239.000000;0.059570
9238.000000;0.059332
9237.000000;0.059117
9236.000000;0.058910
9235.000000;0.058641
9234.000000;0.058262
9233.000000;0.057806
9232.000000;0.057353
9231.000000;0.056953
9230.000000;0.056615
9229.000000;0.056344
9228.000000;0.056137
9227.000000;0.055969
9226.000000;0.055803
9225.000000;0.055626
9224.000000;0.055439
9223.000000;0.055245
9222.000000;0.055052
9221.000000;0.054874
9220.000000;0.054705
9219.000000;0.054512
9218.000000;0.054267
9217.000000;0.053986
9216.000000;0.053699
9215.000000;0.053413
9214.000000;0.053103
9213.000000;0.052745
9212.000000;0.052334
9211.000000;0.051901
9210.000000;0.051520
9209.000000;0.051275
9208.000000;0.051170
9207.000000;0.051090
9206.000000;0.050887
9205.000000;0.050519
9204.000000;0.050089
9203.000000;0.049738
9202.000000;0.049532
9201.000000;0.049442
9200.000000;0.049377
9199.000000;0.049250
9198.000000;0.049015
9197.000000;0.048694
9196.000000;0.048354
9195.000000;0.048050
9194.000000;0.047779
9193.000000;0.047486
9192.000000;0.047124
9191.000000;0.046708
9190.000000;0.046316
9189.000000;0.046031
9188.000000;0.045874
9187.000000;0.045798
9186.000000;0.045738
9185.000000;0.045648
9184.000000;0.045501
9183.000000;0.045293
9182.000000;0.045064
9181.000000;0.044866
9180.000000;0.044701
9179.000000;0.044507
9178.000000;0.044234
9177.000000;0.043910
9176.000000;0.043605
9175.000000;0.043349
9174.000000;0.043122
9173.000000;0.042896
9172.000000;0.042659
9171.000000;0.042415
9170.000000;0.042184
9169.000000;0.041999
9168.000000;0.041854
9167.000000;0.041685
9166.000000;0.041434
9165.000000;0.041129
9164.000000;0.040848
9163.000000;0.040621
9162.000000;0.040417
9161.000000;0.040213
9160.000000;0.040028
9159.000000;0.039877
9158.000000;0.039741
9157.000000;0.039579
9156.000000;0.039363
9155.000000;0.039083
9154.000000;0.038760
9153.000000;0.038461
9152.000000;0.038242
9151.000000;0.038082
9150.000000;0.037907
9149.000000;0.037686
9148.000000;0.037457
9147.000000;0.037256
9146.000000;0.037067
9145.000000;0.036876
9144.000000;0.036696
9143.000000;0.036533
9142.000000;0.036347
9141.000000;0.036105
9140.000000;0.035824
9139.000000;0.035535
9138.000000;0.035233
9137.000000;0.034908
9136.000000;0.034580
9135.000000;0.034260
9134.000000;0.033926
9133.000000;0.033583
9132.000000;0.033314
9131.000000;0.033196
9130.000000;0.033166
9129.000000;0.033053
9128.000000;0.032770
9127.000000;0.032413
9126.000000;0.032155
9125.000000;0.032061
9124.000000;0.032059
9123.000000;0.032039
9122.000000;0.031931
9121.000000;0.031717
9120.000000;0.031415
9119.000000;0.031078
9118.000000;0.030758
9117.000000;0.030464
9116.000000;0.030165
9115.000000;0.029843
9114.000000;0.029533
9113.000000;0.029291
9112.000000;0.029135
9111.000000;0.029038
9110.000000;0.028975
9109.000000;0.028928
9108.000000;0.028849
9107.000000;0.028666
9106.000000;0.028363
9105.000000;0.028023
9104.000000;0.027755
9103.000000;0.027571
9102.000000;0.027386
9101.000000;0.027141
9100.000000;0.026864
9099.000000;0.026606
9098.000000;0.026377
9097.000000;0.026163
9096.000000;0.025966
9095.000000;0.025788
9094.000000;0.025601
9093.000000;0.025379
9092.000000;0.025130
9091.000000;0.024881
9090.000000;0.024641
9089.000000;0.024409
9088.000000;0.024198
9087.000000;0.024007
9086.000000;0.023813
9085.000000;0.023613
9084.000000;0.023462
9083.000000;0.023398
9082.000000;0.023352
9081.000000;0.023210
9080.000000;0.022953
9079.000000;0.022676
9078.000000;0.022452
9077.000000;0.022261
9076.000000;0.022068
9075.000000;0.021898
9074.000000;0.021767
9073.000000;0.021608
9072.000000;0.021351
9071.000000;0.021050
9070.000000;0.020835
9069.000000;0.020743
9068.000000;0.020656
9067.000000;0.020454
9066.000000;0.020144
9065.000000;0.019818
9064.000000;0.019536
9063.000000;0.019301
9062.000000;0.019114
9061.000000;0.018983
9060.000000;0.018885
9059.000000;0.018775
9058.000000;0.018627
9057.000000;0.018463
9056.000000;0.018308
9055.000000;0.018157
9054.000000;0.018000
9053.000000;0.017848
