Criado como novo conjunto de dados;"e2410_daniel_v2.spp","91446.8 Secs"
cm-1;Abs
10000.000000;0.101327
9999.000000;0.101690
9998.000000;0.102045
9997.000000;0.102414
9996.000000;0.102740
9995.000000;0.103142
9994.000000;0.103726
9993.000000;0.104340
9992.000000;0.104807
9991.000000;0.105111
9990.000000;0.105430
9989.000000;0.105921
9988.000000;0.106549
9987.000000;0.107157
9986.000000;0.107683
9985.000000;0.108247
9984.000000;0.108964
9983.000000;0.109776
9982.000000;0.110556
9981.000000;0.111304
9980.000000;0.112104
9979.000000;0.112907
9978.000000;0.113527
9977.000000;0.113903
9976.000000;0.114215
9975.000000;0.114648
9974.000000;0.115161
9973.000000;0.115621
9972.000000;0.116060
9971.000000;0.116635
9970.000000;0.117400
9969.000000;0.118220
9968.000000;0.118921
9967.000000;0.119423
9966.000000;0.119767
9965.000000;0.120116
9964.000000;0.120670
9963.000000;0.121474
9962.000000;0.122329
9961.000000;0.123010
9960.000000;0.123553
9959.000000;0.124198
9958.000000;0.125045
9957.000000;0.125918
9956.000000;0.126585
9955.000000;0.127011
9954.000000;0.127348
9953.000000;0.127779
9952.000000;0.128424
9951.000000;0.129296
9950.000000;0.130271
9949.000000;0.131145
9948.000000;0.131795
9947.000000;0.132247
9946.000000;0.132586
9945.000000;0.132872
9944.000000;0.133154
9943.000000;0.133513
9942.000000;0.134006
9941.000000;0.134612
9940.000000;0.135282
9939.000000;0.136021
9938.000000;0.136876
9937.000000;0.137836
9936.000000;0.138766
9935.000000;0.139478
9934.000000;0.139900
9933.000000;0.140178
9932.000000;0.140575
9931.000000;0.141236
9930.000000;0.142092
9929.000000;0.142982
9928.000000;0.143799
9927.000000;0.144495
9926.000000;0.145043
9925.000000;0.145498
9924.000000;0.146008
9923.000000;0.146645
9922.000000;0.147283
9921.000000;0.147762
9920.000000;0.148145
9919.000000;0.148674
9918.000000;0.149467
9917.000000;0.150389
9916.000000;0.151223
9915.000000;0.151879
9914.000000;0.152398
9913.000000;0.152904
9912.000000;0.153552
9911.000000;0.154428
9910.000000;0.155427
9909.000000;0.156304
9908.000000;0.156883
9907.000000;0.157179
9906.000000;0.157329
9905.000000;0.157503
9904.000000;0.157859
9903.000000;0.158455
9902.000000;0.159181
9901.000000;0.159882
9900.000000;0.160570
9899.000000;0.161405
9898.000000;0.162441
9897.000000;0.163505
9896.000000;0.164393
9895.000000;0.165053
9894.000000;0.165534
9893.000000;0.165887
9892.000000;0.166195
9891.000000;0.166598
9890.000000;0.167191
9889.000000;0.167957
9888.000000;0.168835
9887.000000;0.169787
9886.000000;0.170741
9885.000000;0.171587
9884.000000;0.172306
9883.000000;0.173020
9882.000000;0.173826
9881.000000;0.174667
9880.000000;0.175434
9879.000000;0.176121
9878.000000;0.176771
9877.000000;0.177357
9876.000000;0.177823
9875.000000;0.178196
9874.000000;0.178566
9873.000000;0.179012
9872.000000;0.179619
9871.000000;0.180493
9870.000000;0.181625
9869.000000;0.182778
9868.000000;0.183643
9867.000000;0.184116
9866.000000;0.184361
9865.000000;0.184606
9864.000000;0.184974
9863.000000;0.185486
9862.000000;0.186132
9861.000000;0.186893
9860.000000;0.187779
9859.000000;0.188837
9858.000000;0.190042
9857.000000;0.191187
9856.000000;0.191976
9855.000000;0.192309
9854.000000;0.192417
9853.000000;0.192665
9852.000000;0.193229
9851.000000;0.194003
9850.000000;0.194797
9849.000000;0.195565
9848.000000;0.196406
9847.000000;0.197373
9846.000000;0.198334
9845.000000;0.199087
9844.000000;0.199569
9843.000000;0.199912
9842.000000;0.200313
9841.000000;0.200884
9840.000000;0.201636
9839.000000;0.202518
9838.000000;0.203437
9837.000000;0.204275
9836.000000;0.204944
9835.000000;0.205433
9834.000000;0.205816
9833.000000;0.206253
9832.000000;0.206937
9831.000000;0.207939
9830.000000;0.209084
9829.000000;0.210044
9828.000000;0.210616
9827.000000;0.210904
9826.000000;0.211221
9825.000000;0.211832
9824.000000;0.212766
9823.000000;0.213828
9822.000000;0.214754
9821.000000;0.215422
9820.000000;0.215917
9819.000000;0.216397
9818.000000;0.216967
9817.000000;0.217684
9816.000000;0.218592
9815.000000;0.219623
9814.000000;0.220540
9813.000000;0.221156
9812.000000;0.221611
9811.000000;0.222243
9810.000000;0.223151
9809.000000;0.224068
9808.000000;0.224727
9807.000000;0.225187
9806.000000;0.225682
9805.000000;0.226313
9804.000000;0.227026
9803.000000;0.227796
9802.000000;0.228655
9801.000000;0.229554
9800.000000;0.230348
9799.000000;0.230931
9798.000000;0.231332
9797.000000;0.231676
9796.000000;0.232089
9795.000000;0.232624
9794.000000;0.233253
9793.000000;0.233971
9792.000000;0.234875
9791.000000;0.236057
9790.000000;0.237395
9789.000000;0.238606
9788.000000;0.239545
9787.000000;0.240337
9786.000000;0.241123
9785.000000;0.241860
9784.000000;0.242490
9783.000000;0.243151
9782.000000;0.244023
9781.000000;0.245062
9780.000000;0.246052
9779.000000;0.246900
9778.000000;0.247679
9777.000000;0.248431
9776.000000;0.249104
9775.000000;0.249682
9774.000000;0.250230
9773.000000;0.250760
9772.000000;0.251186
9771.000000;0.251472
9770.000000;0.251727
9769.000000;0.252138
9768.000000;0.252887
9767.000000;0.254078
9766.000000;0.255600
9765.000000;0.257047
9764.000000;0.257958
9763.000000;0.258254
9762.000000;0.258340
9761.000000;0.258709
9760.000000;0.259529
9759.000000;0.260659
9758.000000;0.261919
9757.000000;0.263170
9756.000000;0.264213
9755.000000;0.264816
9754.000000;0.264948
9753.000000;0.264920
9752.000000;0.265169
9751.000000;0.265917
9750.000000;0.267049
9749.000000;0.268301
9748.000000;0.269474
9747.000000;0.270470
9746.000000;0.271218
9745.000000;0.271700
9744.000000;0.272054
9743.000000;0.272522
9742.000000;0.273252
9741.000000;0.274186
9740.000000;0.275170
9739.000000;0.276121
9738.000000;0.277030
9737.000000;0.277877
9736.000000;0.278635
9735.000000;0.279328
9734.000000;0.280034
9733.000000;0.280811
9732.000000;0.281656
9731.000000;0.282497
9730.000000;0.283219
9729.000000;0.283740
9728.000000;0.284102
9727.000000;0.284457
9726.000000;0.284954
9725.000000;0.285662
9724.000000;0.286594
9723.000000;0.287707
9722.000000;0.288863
9721.000000;0.289882
9720.000000;0.290714
9719.000000;0.291467
9718.000000;0.292215
9717.000000;0.292884
9716.000000;0.293394
9715.000000;0.293826
9714.000000;0.294316
9713.000000;0.294873
9712.000000;0.295422
9711.000000;0.295958
9710.000000;0.296529
9709.000000;0.297104
9708.000000;0.297658
9707.000000;0.298330
9706.000000;0.299322
9705.000000;0.300606
9704.000000;0.301891
9703.000000;0.302923
9702.000000;0.303684
9701.000000;0.304257
9700.000000;0.304676
9699.000000;0.305052
9698.000000;0.305673
9697.000000;0.306776
9696.000000;0.308205
9695.000000;0.309463
9694.000000;0.310186
9693.000000;0.310490
9692.000000;0.310799
9691.000000;0.311386
9690.000000;0.312138
9689.000000;0.312789
9688.000000;0.313269
9687.000000;0.313761
9686.000000;0.314440
9685.000000;0.315254
9684.000000;0.316032
9683.000000;0.316731
9682.000000;0.317486
9681.000000;0.318429
9680.000000;0.319515
9679.000000;0.320562
9678.000000;0.321398
9677.000000;0.321960
9676.000000;0.322299
9675.000000;0.322544
9674.000000;0.322858
9673.000000;0.323390
9672.000000;0.324224
9671.000000;0.325295
9670.000000;0.326359
9669.000000;0.327161
9668.000000;0.327695
9667.000000;0.328251
9666.000000;0.329143
9665.000000;0.330423
9664.000000;0.331865
9663.000000;0.333176
9662.000000;0.334151
9661.000000;0.334708
9660.000000;0.334927
9659.000000;0.335030
9658.000000;0.335220
9657.000000;0.335502
9656.000000;0.335788
9655.000000;0.336165
9654.000000;0.336880
9653.000000;0.338003
9652.000000;0.339235
9651.000000;0.340201
9650.000000;0.340864
9649.000000;0.341497
9648.000000;0.342289
9647.000000;0.343127
9646.000000;0.343782
9645.000000;0.344218
9644.000000;0.344620
9643.000000;0.345187
9642.000000;0.345954
9641.000000;0.346823
9640.000000;0.347707
9639.000000;0.348640
9638.000000;0.349710
9637.000000;0.350885
9636.000000;0.351962
9635.000000;0.352722
9634.000000;0.353152
9633.000000;0.353466
9632.000000;0.353886
9631.000000;0.354440
9630.000000;0.354998
9629.000000;0.355453
9628.000000;0.355814
9627.000000;0.356138
9626.000000;0.356456
9625.000000;0.356809
9624.000000;0.357310
9623.000000;0.358090
9622.000000;0.359158
9621.000000;0.360350
9620.000000;0.361438
9619.000000;0.362280
9618.000000;0.362825
9617.000000;0.363056
9616.000000;0.363035
9615.000000;0.363023
9614.000000;0.363412
9613.000000;0.364399
9612.000000;0.365741
9611.000000;0.366923
9610.000000;0.367622
9609.000000;0.367939
9608.000000;0.368203
9607.000000;0.368646
9606.000000;0.369325
9605.000000;0.370216
9604.000000;0.371235
9603.000000;0.372189
9602.000000;0.372868
9601.000000;0.373235
9600.000000;0.373483
9599.000000;0.373872
9598.000000;0.374538
9597.000000;0.375414
9596.000000;0.376279
9595.000000;0.376906
9594.000000;0.377251
9593.000000;0.377472
9592.000000;0.377690
9591.000000;0.377797
9590.000000;0.377664
9589.000000;0.377507
9588.000000;0.377807
9587.000000;0.378790
9586.000000;0.380128
9585.000000;0.381280
9584.000000;0.382011
9583.000000;0.382482
9582.000000;0.382986
9581.000000;0.383746
9580.000000;0.384846
9579.000000;0.386111
9578.000000;0.387130
9577.000000;0.387571
9576.000000;0.387534
9575.000000;0.387449
9574.000000;0.387663
9573.000000;0.388206
9572.000000;0.388877
9571.000000;0.389379
9570.000000;0.389462
9569.000000;0.389185
9568.000000;0.389021
9567.000000;0.389477
9566.000000;0.390545
9565.000000;0.391712
9564.000000;0.392558
9563.000000;0.393162
9562.000000;0.393812
9561.000000;0.394523
9560.000000;0.395004
9559.000000;0.395021
9558.000000;0.394681
9557.000000;0.394399
9556.000000;0.394608
9555.000000;0.395400
9554.000000;0.396396
9553.000000;0.397079
9552.000000;0.397310
9551.000000;0.397397
9550.000000;0.397649
9549.000000;0.398057
9548.000000;0.398476
9547.000000;0.398894
9546.000000;0.399349
9545.000000;0.399778
9544.000000;0.400158
9543.000000;0.400642
9542.000000;0.401310
9541.000000;0.401895
9540.000000;0.402033
9539.000000;0.401792
9538.000000;0.401694
9537.000000;0.402168
9536.000000;0.403156
9535.000000;0.404250
9534.000000;0.405056
9533.000000;0.405383
9532.000000;0.405304
9531.000000;0.405136
9530.000000;0.405259
9529.000000;0.405826
9528.000000;0.406683
9527.000000;0.407546
9526.000000;0.408146
9525.000000;0.408241
9524.000000;0.407706
9523.000000;0.406792
9522.000000;0.406130
9521.000000;0.406307
9520.000000;0.407392
9519.000000;0.408928
9518.000000;0.410304
9517.000000;0.411113
9516.000000;0.411302
9515.000000;0.411175
9514.000000;0.411196
9513.000000;0.411621
9512.000000;0.412284
9511.000000;0.412829
9510.000000;0.413120
9509.000000;0.413315
9508.000000;0.413594
9507.000000;0.413980
9506.000000;0.414407
9505.000000;0.414769
9504.000000;0.414881
9503.000000;0.414595
9502.000000;0.414066
9501.000000;0.413711
9500.000000;0.413792
9499.000000;0.414170
9498.000000;0.414596
9497.000000;0.415052
9496.000000;0.415593
9495.000000;0.416021
9494.000000;0.416034
9493.000000;0.415719
9492.000000;0.415572
9491.000000;0.415944
9490.000000;0.416669
9489.000000;0.417347
9488.000000;0.417781
9487.000000;0.418017
9486.000000;0.418130
9485.000000;0.418194
9484.000000;0.418343
9483.000000;0.418670
9482.000000;0.419065
9481.000000;0.419314
9480.000000;0.419357
9479.000000;0.419330
9478.000000;0.419396
9477.000000;0.419641
9476.000000;0.420117
9475.000000;0.420829
9474.000000;0.421633
9473.000000;0.422218
9472.000000;0.422270
9471.000000;0.421675
9470.000000;0.420633
9469.000000;0.419611
9468.000000;0.419085
9467.000000;0.419189
9466.000000;0.419611
9465.000000;0.419911
9464.000000;0.419919
9463.000000;0.419755
9462.000000;0.419543
9461.000000;0.419283
9460.000000;0.419025
9459.000000;0.418945
9458.000000;0.419145
9457.000000;0.419463
9456.000000;0.419613
9455.000000;0.419512
9454.000000;0.419370
9453.000000;0.419450
9452.000000;0.419746
9451.000000;0.419925
9450.000000;0.419640
9449.000000;0.418950
9448.000000;0.418372
9447.000000;0.418439
9446.000000;0.419160
9445.000000;0.419987
9444.000000;0.420331
9443.000000;0.420113
9442.000000;0.419774
9441.000000;0.419776
9440.000000;0.420158
9439.000000;0.420587
9438.000000;0.420774
9437.000000;0.420737
9436.000000;0.420616
9435.000000;0.420396
9434.000000;0.419960
9433.000000;0.419367
9432.000000;0.418857
9431.000000;0.418547
9430.000000;0.418333
9429.000000;0.418149
9428.000000;0.418155
9427.000000;0.418527
9426.000000;0.419193
9425.000000;0.419902
9424.000000;0.420446
9423.000000;0.420701
9422.000000;0.420602
9421.000000;0.420229
9420.000000;0.419779
9419.000000;0.419325
9418.000000;0.418762
9417.000000;0.418157
9416.000000;0.417924
9415.000000;0.418311
9414.000000;0.418876
9413.000000;0.418874
9412.000000;0.418143
9411.000000;0.417231
9410.000000;0.416621
9409.000000;0.416253
9408.000000;0.415910
9407.000000;0.415650
9406.000000;0.415609
9405.000000;0.415631
9404.000000;0.415413
9403.000000;0.414864
9402.000000;0.414135
9401.000000;0.413447
9400.000000;0.413023
9399.000000;0.413018
9398.000000;0.413280
9397.000000;0.413328
9396.000000;0.412797
9395.000000;0.411840
9394.000000;0.410928
9393.000000;0.410368
9392.000000;0.410228
9391.000000;0.410547
9390.000000;0.411305
9389.000000;0.412191
9388.000000;0.412706
9387.000000;0.412591
9386.000000;0.412019
9385.000000;0.411353
9384.000000;0.410876
9383.000000;0.410723
9382.000000;0.410861
9381.000000;0.411055
9380.000000;0.411027
9379.000000;0.410752
9378.000000;0.410493
9377.000000;0.410458
9376.000000;0.410542
9375.000000;0.410473
9374.000000;0.410129
9373.000000;0.409600
9372.000000;0.408991
9371.000000;0.408292
9370.000000;0.407462
9369.000000;0.406590
9368.000000;0.405903
9367.000000;0.405556
9366.000000;0.405441
9365.000000;0.405270
9364.000000;0.404884
9363.000000;0.404402
9362.000000;0.404031
9361.000000;0.403810
9360.000000;0.403618
9359.000000;0.403348
9358.000000;0.402959
9357.000000;0.402412
9356.000000;0.401758
9355.000000;0.401249
9354.000000;0.401165
9353.000000;0.401433
9352.000000;0.401560
9351.000000;0.401112
9350.000000;0.400174
9349.000000;0.399215
9348.000000;0.398570
9347.000000;0.398205
9346.000000;0.397981
9345.000000;0.397924
9344.000000;0.398109
9343.000000;0.398362
9342.000000;0.398262
9341.000000;0.397540
9340.000000;0.396423
9339.000000;0.395513
9338.000000;0.395312
9337.000000;0.395823
9336.000000;0.396551
9335.000000;0.396858
9334.000000;0.396422
9333.000000;0.395433
9332.000000;0.394385
9331.000000;0.393630
9330.000000;0.393137
9329.000000;0.392667
9328.000000;0.392081
9327.000000;0.391447
9326.000000;0.390894
9325.000000;0.390505
9324.000000;0.390292
9323.000000;0.390153
9322.000000;0.389892
9321.000000;0.389405
9320.000000;0.388875
9319.000000;0.388585
9318.000000;0.388512
9317.000000;0.388293
9316.000000;0.387677
9315.000000;0.386820
9314.000000;0.385998
9313.000000;0.385234
9312.000000;0.384434
9311.000000;0.383770
9310.000000;0.383598
9309.000000;0.383982
9308.000000;0.384525
9307.000000;0.384748
9306.000000;0.384478
9305.000000;0.383812
9304.000000;0.382896
9303.000000;0.381911
9302.000000;0.381106
9301.000000;0.380647
9300.000000;0.380411
9299.000000;0.380056
9298.000000;0.379363
9297.000000;0.378469
9296.000000;0.377747
9295.000000;0.377455
9294.000000;0.377494
9293.000000;0.377502
9292.000000;0.377187
9291.000000;0.376571
9290.000000;0.375875
9289.000000;0.375229
9288.000000;0.374586
9287.000000;0.373927
9286.000000;0.373423
9285.000000;0.373279
9284.000000;0.373444
9283.000000;0.373581
9282.000000;0.373395
9281.000000;0.372942
9280.000000;0.372549
9279.000000;0.372418
9278.000000;0.372360
9277.000000;0.372006
9276.000000;0.371252
9275.000000;0.370399
9274.000000;0.369812
9273.000000;0.369502
9272.000000;0.369120
9271.000000;0.368321
9270.000000;0.367097
9269.000000;0.365773
9268.000000;0.364753
9267.000000;0.364243
9266.000000;0.364131
9265.000000;0.364108
9264.000000;0.363941
9263.000000;0.363639
9262.000000;0.363329
9261.000000;0.363034
9260.000000;0.362646
9259.000000;0.362105
9258.000000;0.361501
9257.000000;0.360936
9256.000000;0.360372
9255.000000;0.359671
9254.000000;0.358784
9253.000000;0.357865
9252.000000;0.357182
9251.000000;0.356891
9250.000000;0.356869
9249.000000;0.356764
9248.000000;0.356265
9247.000000;0.355348
9246.000000;0.354284
9245.000000;0.353435
9244.000000;0.353055
9243.000000;0.353156
9242.000000;0.353465
9241.000000;0.353538
9240.000000;0.353101
9239.000000;0.352341
9238.000000;0.351781
9237.000000;0.351753
9236.000000;0.352032
9235.000000;0.352033
9234.000000;0.351383
9233.000000;0.350242
9232.000000;0.349088
9231.000000;0.348251
9230.000000;0.347708
9229.000000;0.347253
9228.000000;0.346728
9227.000000;0.346056
9226.000000;0.345206
9225.000000;0.344265
9224.000000;0.343512
9223.000000;0.343210
9222.000000;0.343309
9221.000000;0.343484
9220.000000;0.343530
9219.000000;0.343519
9218.000000;0.343512
9217.000000;0.343307
9216.000000;0.342727
9215.000000;0.341961
9214.000000;0.341383
9213.000000;0.341082
9212.000000;0.340834
9211.000000;0.340483
9210.000000;0.340074
9209.000000;0.339599
9208.000000;0.338894
9207.000000;0.337891
9206.000000;0.336755
9205.000000;0.335681
9204.000000;0.334761
9203.000000;0.334126
9202.000000;0.333947
9201.000000;0.334110
9200.000000;0.334097
9199.000000;0.333448
9198.000000;0.332267
9197.000000;0.331088
9196.000000;0.330319
9195.000000;0.329975
9194.000000;0.329865
9193.000000;0.329815
9192.000000;0.329716
9191.000000;0.329514
9190.000000;0.329196
9189.000000;0.328731
9188.000000;0.328053
9187.000000;0.327187
9186.000000;0.326300
9185.000000;0.325552
9184.000000;0.324944
9183.000000;0.324407
9182.000000;0.323956
9181.000000;0.323646
9180.000000;0.323438
9179.000000;0.323217
9178.000000;0.322917
9177.000000;0.322528
9176.000000;0.322056
9175.000000;0.321578
9174.000000;0.321209
9173.000000;0.320910
9172.000000;0.320452
9171.000000;0.319754
9170.000000;0.319105
9169.000000;0.318822
9168.000000;0.318752
9167.000000;0.318414
9166.000000;0.317617
9165.000000;0.316645
9164.000000;0.315803
9163.000000;0.315046
9162.000000;0.314197
9161.000000;0.313301
9160.000000;0.312615
9159.000000;0.312352
9158.000000;0.312523
9157.000000;0.312897
9156.000000;0.313066
9155.000000;0.312736
9154.000000;0.312050
9153.000000;0.311491
9152.000000;0.311348
9151.000000;0.311434
9150.000000;0.311374
9149.000000;0.311019
9148.000000;0.310442
9147.000000;0.309725
9146.000000;0.308943
9145.000000;0.308227
9144.000000;0.307635
9143.000000;0.307046
9142.000000;0.306348
9141.000000;0.305666
9140.000000;0.305230
9139.000000;0.305061
9138.000000;0.304965
9137.000000;0.304782
9136.000000;0.304448
9135.000000;0.303878
9134.000000;0.303013
9133.000000;0.302060
9132.000000;0.301434
9131.000000;0.301358
9130.000000;0.301588
9129.000000;0.301655
9128.000000;0.301296
9127.000000;0.300607
9126.000000;0.299841
9125.000000;0.299180
9124.000000;0.298689
9123.000000;0.298371
9122.000000;0.298199
9121.000000;0.298059
9120.000000;0.297729
9119.000000;0.297035
9118.000000;0.296090
9117.000000;0.295274
9116.000000;0.294853
9115.000000;0.294675
9114.000000;0.294375
9113.000000;0.293837
9112.000000;0.293294
9111.000000;0.292951
9110.000000;0.292709
9109.000000;0.292345
9108.000000;0.291806
9107.000000;0.291179
9106.000000;0.290484
9105.000000;0.289698
9104.000000;0.288939
9103.000000;0.288433
9102.000000;0.288217
9101.000000;0.288041
9100.000000;0.287666
9099.000000;0.287172
9098.000000;0.286844
9097.000000;0.286797
9096.000000;0.286839
9095.000000;0.286734
9094.000000;0.286469
9093.000000;0.286153
9092.000000;0.285769
9091.000000;0.285142
9090.000000;0.284201
9089.000000;0.283159
9088.000000;0.282374
9087.000000;0.282041
9086.000000;0.282033
9085.000000;0.282002
9084.000000;0.281645
9083.000000;0.280938
9082.000000;0.280133
9081.000000;0.279521
9080.000000;0.279177
9079.000000;0.278959
9078.000000;0.278695
9077.000000;0.278308
9076.000000;0.277787
9075.000000;0.277177
9074.000000;0.276615
9073.000000;0.276237
9072.000000;0.275969
9071.000000;0.275545
9070.000000;0.274846
9069.000000;0.274124
9068.000000;0.273721
9067.000000;0.273644
9066.000000;0.273570
9065.000000;0.273270
9064.000000;0.272849
9063.000000;0.272533
9062.000000;0.272346
9061.000000;0.272096
9060.000000;0.271606
9059.000000;0.270903
9058.000000;0.270210
9057.000000;0.269777
9056.000000;0.269653
9055.000000;0.269612
9054.000000;0.269376
9053.000000;0.268910
