Criado como novo conjunto de dados;"e2410_daniel_v2.spp","33483.5 Secs"
cm-1;Abs
10000.000000;0.344615
9999.000000;0.344057
9998.000000;0.343684
9997.000000;0.343408
9996.000000;0.343038
9995.000000;0.342515
9994.000000;0.341886
9993.000000;0.341240
9992.000000;0.340597
9991.000000;0.339968
9990.000000;0.339397
9989.000000;0.338973
9988.000000;0.338754
9987.000000;0.338727
9986.000000;0.338787
9985.000000;0.338775
9984.000000;0.338537
9983.000000;0.337992
9982.000000;0.337211
9981.000000;0.336384
9980.000000;0.335669
9979.000000;0.335057
9978.000000;0.334441
9977.000000;0.333813
9976.000000;0.333304
9975.000000;0.332967
9974.000000;0.332632
9973.000000;0.332068
9972.000000;0.331261
9971.000000;0.330426
9970.000000;0.329777
9969.000000;0.329368
9968.000000;0.329128
9967.000000;0.328937
9966.000000;0.328669
9965.000000;0.328250
9964.000000;0.327720
9963.000000;0.327177
9962.000000;0.326668
9961.000000;0.326177
9960.000000;0.325696
9959.000000;0.325236
9958.000000;0.324778
9957.000000;0.324286
9956.000000;0.323774
9955.000000;0.323300
9954.000000;0.322889
9953.000000;0.322524
9952.000000;0.322186
9951.000000;0.321849
9950.000000;0.321442
9949.000000;0.320928
9948.000000;0.320361
9947.000000;0.319807
9946.000000;0.319228
9945.000000;0.318560
9944.000000;0.317861
9943.000000;0.317264
9942.000000;0.316776
9941.000000;0.316265
9940.000000;0.315649
9939.000000;0.314964
9938.000000;0.314271
9937.000000;0.313606
9936.000000;0.313059
9935.000000;0.312734
9934.000000;0.312596
9933.000000;0.312460
9932.000000;0.312198
9931.000000;0.311831
9930.000000;0.311400
9929.000000;0.310862
9928.000000;0.310176
9927.000000;0.309400
9926.000000;0.308653
9925.000000;0.308048
9924.000000;0.307678
9923.000000;0.307540
9922.000000;0.307439
9921.000000;0.307111
9920.000000;0.306509
9919.000000;0.305854
9918.000000;0.305350
9917.000000;0.304949
9916.000000;0.304484
9915.000000;0.303883
9914.000000;0.303192
9913.000000;0.302504
9912.000000;0.301943
9911.000000;0.301604
9910.000000;0.301408
9909.000000;0.301108
9908.000000;0.300558
9907.000000;0.299879
9906.000000;0.299270
9905.000000;0.298758
9904.000000;0.298250
9903.000000;0.297708
9902.000000;0.297154
9901.000000;0.296574
9900.000000;0.295980
9899.000000;0.295487
9898.000000;0.295193
9897.000000;0.295014
9896.000000;0.294763
9895.000000;0.294365
9894.000000;0.293875
9893.000000;0.293342
9892.000000;0.292786
9891.000000;0.292268
9890.000000;0.291836
9889.000000;0.291424
9888.000000;0.290916
9887.000000;0.290308
9886.000000;0.289693
9885.000000;0.289100
9884.000000;0.288510
9883.000000;0.287990
9882.000000;0.287657
9881.000000;0.287458
9880.000000;0.287139
9879.000000;0.286528
9878.000000;0.285758
9877.000000;0.285121
9876.000000;0.284769
9875.000000;0.284593
9874.000000;0.284362
9873.000000;0.283919
9872.000000;0.283270
9871.000000;0.282557
9870.000000;0.281938
9869.000000;0.281497
9868.000000;0.281229
9867.000000;0.281078
9866.000000;0.280932
9865.000000;0.280643
9864.000000;0.280135
9863.000000;0.279488
9862.000000;0.278854
9861.000000;0.278276
9860.000000;0.277684
9859.000000;0.277067
9858.000000;0.276541
9857.000000;0.276184
9856.000000;0.275886
9855.000000;0.275470
9854.000000;0.274919
9853.000000;0.274373
9852.000000;0.273912
9851.000000;0.273422
9850.000000;0.272761
9849.000000;0.271976
9848.000000;0.271284
9847.000000;0.270839
9846.000000;0.270586
9845.000000;0.270357
9844.000000;0.270041
9843.000000;0.269630
9842.000000;0.269138
9841.000000;0.268578
9840.000000;0.267973
9839.000000;0.267362
9838.000000;0.266766
9837.000000;0.266220
9836.000000;0.265785
9835.000000;0.265456
9834.000000;0.265080
9833.000000;0.264481
9832.000000;0.263699
9831.000000;0.263015
9830.000000;0.262668
9829.000000;0.262599
9828.000000;0.262532
9827.000000;0.262258
9826.000000;0.261769
9825.000000;0.261187
9824.000000;0.260631
9823.000000;0.260157
9822.000000;0.259750
9821.000000;0.259356
9820.000000;0.258932
9819.000000;0.258478
9818.000000;0.258005
9817.000000;0.257516
9816.000000;0.257027
9815.000000;0.256559
9814.000000;0.256087
9813.000000;0.255541
9812.000000;0.254909
9811.000000;0.254286
9810.000000;0.253795
9809.000000;0.253464
9808.000000;0.253216
9807.000000;0.252924
9806.000000;0.252472
9805.000000;0.251824
9804.000000;0.251085
9803.000000;0.250441
9802.000000;0.250008
9801.000000;0.249742
9800.000000;0.249532
9799.000000;0.249307
9798.000000;0.249013
9797.000000;0.248585
9796.000000;0.248021
9795.000000;0.247426
9794.000000;0.246911
9793.000000;0.246472
9792.000000;0.246055
9791.000000;0.245667
9790.000000;0.245341
9789.000000;0.245010
9788.000000;0.244549
9787.000000;0.243942
9786.000000;0.243308
9785.000000;0.242745
9784.000000;0.242222
9783.000000;0.241659
9782.000000;0.241048
9781.000000;0.240450
9780.000000;0.239909
9779.000000;0.239401
9778.000000;0.238880
9777.000000;0.238355
9776.000000;0.237909
9775.000000;0.237616
9774.000000;0.237416
9773.000000;0.237141
9772.000000;0.236683
9771.000000;0.236121
9770.000000;0.235630
9769.000000;0.235300
9768.000000;0.235092
9767.000000;0.234918
9766.000000;0.234672
9765.000000;0.234234
9764.000000;0.233554
9763.000000;0.232753
9762.000000;0.232053
9761.000000;0.231580
9760.000000;0.231272
9759.000000;0.230989
9758.000000;0.230634
9757.000000;0.230175
9756.000000;0.229619
9755.000000;0.229031
9754.000000;0.228505
9753.000000;0.228078
9752.000000;0.227687
9751.000000;0.227267
9750.000000;0.226841
9749.000000;0.226474
9748.000000;0.226187
9747.000000;0.225939
9746.000000;0.225684
9745.000000;0.225382
9744.000000;0.224953
9743.000000;0.224310
9742.000000;0.223469
9741.000000;0.222607
9740.000000;0.221956
9739.000000;0.221611
9738.000000;0.221460
9737.000000;0.221294
9736.000000;0.220964
9735.000000;0.220421
9734.000000;0.219666
9733.000000;0.218755
9732.000000;0.217868
9731.000000;0.217260
9730.000000;0.217058
9729.000000;0.217108
9728.000000;0.217087
9727.000000;0.216780
9726.000000;0.216240
9725.000000;0.215678
9724.000000;0.215249
9723.000000;0.214955
9722.000000;0.214684
9721.000000;0.214322
9720.000000;0.213815
9719.000000;0.213193
9718.000000;0.212540
9717.000000;0.211949
9716.000000;0.211481
9715.000000;0.211127
9714.000000;0.210805
9713.000000;0.210421
9712.000000;0.209956
9711.000000;0.209477
9710.000000;0.209051
9709.000000;0.208663
9708.000000;0.208239
9707.000000;0.207734
9706.000000;0.207177
9705.000000;0.206638
9704.000000;0.206175
9703.000000;0.205793
9702.000000;0.205453
9701.000000;0.205103
9700.000000;0.204716
9699.000000;0.204288
9698.000000;0.203816
9697.000000;0.203297
9696.000000;0.202759
9695.000000;0.202260
9694.000000;0.201848
9693.000000;0.201531
9692.000000;0.201275
9691.000000;0.201001
9690.000000;0.200622
9689.000000;0.200116
9688.000000;0.199574
9687.000000;0.199127
9686.000000;0.198783
9685.000000;0.198418
9684.000000;0.197936
9683.000000;0.197380
9682.000000;0.196846
9681.000000;0.196338
9680.000000;0.195818
9679.000000;0.195330
9678.000000;0.194986
9677.000000;0.194802
9676.000000;0.194629
9675.000000;0.194295
9674.000000;0.193768
9673.000000;0.193155
9672.000000;0.192583
9671.000000;0.192096
9670.000000;0.191666
9669.000000;0.191260
9668.000000;0.190883
9667.000000;0.190555
9666.000000;0.190246
9665.000000;0.189876
9664.000000;0.189401
9663.000000;0.188887
9662.000000;0.188447
9661.000000;0.188108
9660.000000;0.187784
9659.000000;0.187388
9658.000000;0.186935
9657.000000;0.186488
9656.000000;0.186043
9655.000000;0.185519
9654.000000;0.184863
9653.000000;0.184148
9652.000000;0.183530
9651.000000;0.183101
9650.000000;0.182796
9649.000000;0.182450
9648.000000;0.181966
9647.000000;0.181421
9646.000000;0.180996
9645.000000;0.180783
9644.000000;0.180676
9643.000000;0.180472
9642.000000;0.180071
9641.000000;0.179555
9640.000000;0.179072
9639.000000;0.178676
9638.000000;0.178308
9637.000000;0.177912
9636.000000;0.177503
9635.000000;0.177127
9634.000000;0.176798
9633.000000;0.176493
9632.000000;0.176186
9631.000000;0.175853
9630.000000;0.175464
9629.000000;0.174990
9628.000000;0.174411
9627.000000;0.173725
9626.000000;0.172975
9625.000000;0.172285
9624.000000;0.171785
9623.000000;0.171485
9622.000000;0.171232
9621.000000;0.170871
9620.000000;0.170402
9619.000000;0.169958
9618.000000;0.169628
9617.000000;0.169388
9616.000000;0.169163
9615.000000;0.168884
9614.000000;0.168497
9613.000000;0.167978
9612.000000;0.167398
9611.000000;0.166892
9610.000000;0.166534
9609.000000;0.166265
9608.000000;0.165973
9607.000000;0.165610
9606.000000;0.165205
9605.000000;0.164799
9604.000000;0.164395
9603.000000;0.163975
9602.000000;0.163542
9601.000000;0.163141
9600.000000;0.162822
9599.000000;0.162554
9598.000000;0.162218
9597.000000;0.161717
9596.000000;0.161103
9595.000000;0.160548
9594.000000;0.160168
9593.000000;0.159930
9592.000000;0.159720
9591.000000;0.159450
9590.000000;0.159091
9589.000000;0.158628
9588.000000;0.158059
9587.000000;0.157412
9586.000000;0.156751
9585.000000;0.156167
9584.000000;0.155737
9583.000000;0.155468
9582.000000;0.155275
9581.000000;0.155054
9580.000000;0.154773
9579.000000;0.154474
9578.000000;0.154177
9577.000000;0.153834
9576.000000;0.153384
9575.000000;0.152830
9574.000000;0.152250
9573.000000;0.151749
9572.000000;0.151391
9571.000000;0.151130
9570.000000;0.150838
9569.000000;0.150438
9568.000000;0.149999
9567.000000;0.149660
9566.000000;0.149433
9565.000000;0.149183
9564.000000;0.148794
9563.000000;0.148306
9562.000000;0.147844
9561.000000;0.147469
9560.000000;0.147138
9559.000000;0.146768
9558.000000;0.146326
9557.000000;0.145877
9556.000000;0.145536
9555.000000;0.145336
9554.000000;0.145140
9553.000000;0.144755
9552.000000;0.144143
9551.000000;0.143473
9550.000000;0.142948
9549.000000;0.142619
9548.000000;0.142397
9547.000000;0.142155
9546.000000;0.141810
9545.000000;0.141356
9544.000000;0.140860
9543.000000;0.140398
9542.000000;0.139963
9541.000000;0.139488
9540.000000;0.138978
9539.000000;0.138543
9538.000000;0.138271
9537.000000;0.138092
9536.000000;0.137843
9535.000000;0.137424
9534.000000;0.136875
9533.000000;0.136318
9532.000000;0.135857
9531.000000;0.135496
9530.000000;0.135150
9529.000000;0.134753
9528.000000;0.134356
9527.000000;0.134051
9526.000000;0.133804
9525.000000;0.133454
9524.000000;0.132933
9523.000000;0.132379
9522.000000;0.131974
9521.000000;0.131729
9520.000000;0.131495
9519.000000;0.131162
9518.000000;0.130757
9517.000000;0.130360
9516.000000;0.129998
9515.000000;0.129641
9514.000000;0.129258
9513.000000;0.128866
9512.000000;0.128533
9511.000000;0.128310
9510.000000;0.128175
9509.000000;0.128043
9508.000000;0.127849
9507.000000;0.127561
9506.000000;0.127153
9505.000000;0.126618
9504.000000;0.126021
9503.000000;0.125467
9502.000000;0.124987
9501.000000;0.124530
9500.000000;0.124076
9499.000000;0.123675
9498.000000;0.123343
9497.000000;0.123003
9496.000000;0.122600
9495.000000;0.122192
9494.000000;0.121872
9493.000000;0.121650
9492.000000;0.121478
9491.000000;0.121321
9490.000000;0.121136
9489.000000;0.120827
9488.000000;0.120341
9487.000000;0.119755
9486.000000;0.119210
9485.000000;0.118772
9484.000000;0.118411
9483.000000;0.118077
9482.000000;0.117719
9481.000000;0.117282
9480.000000;0.116778
9479.000000;0.116328
9478.000000;0.116050
9477.000000;0.115920
9476.000000;0.115812
9475.000000;0.115621
9474.000000;0.115291
9473.000000;0.114774
9472.000000;0.114094
9471.000000;0.113430
9470.000000;0.112999
9469.000000;0.112820
9468.000000;0.112685
9467.000000;0.112397
9466.000000;0.111974
9465.000000;0.111580
9464.000000;0.111327
9463.000000;0.111174
9462.000000;0.110973
9461.000000;0.110611
9460.000000;0.110115
9459.000000;0.109636
9458.000000;0.109286
9457.000000;0.109005
9456.000000;0.108657
9455.000000;0.108227
9454.000000;0.107857
9453.000000;0.107665
9452.000000;0.107599
9451.000000;0.107506
9450.000000;0.107259
9449.000000;0.106826
9448.000000;0.106264
9447.000000;0.105699
9446.000000;0.105255
9445.000000;0.104957
9444.000000;0.104710
9443.000000;0.104400
9442.000000;0.103988
9441.000000;0.103502
9440.000000;0.102993
9439.000000;0.102537
9438.000000;0.102228
9437.000000;0.102089
9436.000000;0.102004
9435.000000;0.101789
9434.000000;0.101360
9433.000000;0.100812
9432.000000;0.100333
9431.000000;0.100030
9430.000000;0.099853
9429.000000;0.099666
9428.000000;0.099399
9427.000000;0.099110
9426.000000;0.098890
9425.000000;0.098736
9424.000000;0.098539
9423.000000;0.098192
9422.000000;0.097686
9421.000000;0.097098
9420.000000;0.096532
9419.000000;0.096067
9418.000000;0.095726
9417.000000;0.095478
9416.000000;0.095264
9415.000000;0.095029
9414.000000;0.094721
9413.000000;0.094294
9412.000000;0.093757
9411.000000;0.093200
9410.000000;0.092736
9409.000000;0.092409
9408.000000;0.092168
9407.000000;0.091954
9406.000000;0.091767
9405.000000;0.091644
9404.000000;0.091585
9403.000000;0.091520
9402.000000;0.091334
9401.000000;0.090965
9400.000000;0.090468
9399.000000;0.089989
9398.000000;0.089628
9397.000000;0.089332
9396.000000;0.088946
9395.000000;0.088375
9394.000000;0.087679
9393.000000;0.087030
9392.000000;0.086584
9391.000000;0.086383
9390.000000;0.086320
9389.000000;0.086210
9388.000000;0.085931
9387.000000;0.085511
9386.000000;0.085061
9385.000000;0.084648
9384.000000;0.084267
9383.000000;0.083927
9382.000000;0.083693
9381.000000;0.083589
9380.000000;0.083527
9379.000000;0.083390
9378.000000;0.083171
9377.000000;0.082956
9376.000000;0.082770
9375.000000;0.082506
9374.000000;0.082053
9373.000000;0.081453
9372.000000;0.080880
9371.000000;0.080458
9370.000000;0.080163
9369.000000;0.079906
9368.000000;0.079659
9367.000000;0.079430
9366.000000;0.079168
9365.000000;0.078778
9364.000000;0.078249
9363.000000;0.077707
9362.000000;0.077293
9361.000000;0.077027
9360.000000;0.076835
9359.000000;0.076659
9358.000000;0.076503
9357.000000;0.076378
9356.000000;0.076265
9355.000000;0.076132
9354.000000;0.075941
9353.000000;0.075658
9352.000000;0.075270
9351.000000;0.074818
9350.000000;0.074378
9349.000000;0.074000
9348.000000;0.073684
9347.000000;0.073413
9346.000000;0.073175
9345.000000;0.072953
9344.000000;0.072698
9343.000000;0.072353
9342.000000;0.071891
9341.000000;0.071338
9340.000000;0.070785
9339.000000;0.070354
9338.000000;0.070121
9337.000000;0.070046
9336.000000;0.070003
9335.000000;0.069891
9334.000000;0.069703
9333.000000;0.069492
9332.000000;0.069282
9331.000000;0.069053
9330.000000;0.068779
9329.000000;0.068463
9328.000000;0.068107
9327.000000;0.067689
9326.000000;0.067208
9325.000000;0.066734
9324.000000;0.066376
9323.000000;0.066185
9322.000000;0.066106
9321.000000;0.066019
9320.000000;0.065827
9319.000000;0.065492
9318.000000;0.065039
9317.000000;0.064561
9316.000000;0.064178
9315.000000;0.063931
9314.000000;0.063724
9313.000000;0.063424
9312.000000;0.063021
9311.000000;0.062629
9310.000000;0.062327
9309.000000;0.062068
9308.000000;0.061780
9307.000000;0.061481
9306.000000;0.061220
9305.000000;0.060957
9304.000000;0.060586
9303.000000;0.060085
9302.000000;0.059584
9301.000000;0.059240
9300.000000;0.059087
9299.000000;0.059034
9298.000000;0.058969
9297.000000;0.058841
9296.000000;0.058657
9295.000000;0.058444
9294.000000;0.058209
9293.000000;0.057934
9292.000000;0.057583
9291.000000;0.057154
9290.000000;0.056707
9289.000000;0.056343
9288.000000;0.056108
9287.000000;0.055938
9286.000000;0.055724
9285.000000;0.055429
9284.000000;0.055113
9283.000000;0.054829
9282.000000;0.054553
9281.000000;0.054247
9280.000000;0.053937
9279.000000;0.053682
9278.000000;0.053464
9277.000000;0.053199
9276.000000;0.052845
9275.000000;0.052466
9274.000000;0.052152
9273.000000;0.051925
9272.000000;0.051733
9271.000000;0.051523
9270.000000;0.051294
9269.000000;0.051092
9268.000000;0.050964
9267.000000;0.050888
9266.000000;0.050762
9265.000000;0.050490
9264.000000;0.050088
9263.000000;0.049668
9262.000000;0.049314
9261.000000;0.049018
9260.000000;0.048732
9259.000000;0.048427
9258.000000;0.048101
9257.000000;0.047767
9256.000000;0.047459
9255.000000;0.047208
9254.000000;0.046991
9253.000000;0.046734
9252.000000;0.046389
9251.000000;0.045980
9250.000000;0.045563
9249.000000;0.045198
9248.000000;0.044958
9247.000000;0.044887
9246.000000;0.044912
9245.000000;0.044862
9244.000000;0.044609
9243.000000;0.044181
9242.000000;0.043693
9241.000000;0.043240
9240.000000;0.042887
9239.000000;0.042694
9238.000000;0.042654
9237.000000;0.042641
9236.000000;0.042494
9235.000000;0.042180
9234.000000;0.041799
9233.000000;0.041464
9232.000000;0.041221
9231.000000;0.041061
9230.000000;0.040938
9229.000000;0.040762
9228.000000;0.040460
9227.000000;0.040073
9226.000000;0.039752
9225.000000;0.039598
9224.000000;0.039538
9223.000000;0.039382
9222.000000;0.039028
9221.000000;0.038575
9220.000000;0.038217
9219.000000;0.038044
9218.000000;0.037949
9217.000000;0.037764
9216.000000;0.037447
9215.000000;0.037111
9214.000000;0.036869
9213.000000;0.036693
9212.000000;0.036471
9211.000000;0.036146
9210.000000;0.035772
9209.000000;0.035444
9208.000000;0.035227
9207.000000;0.035119
9206.000000;0.035049
9205.000000;0.034909
9204.000000;0.034639
9203.000000;0.034288
9202.000000;0.033961
9201.000000;0.033705
9200.000000;0.033463
9199.000000;0.033146
9198.000000;0.032740
9197.000000;0.032327
9196.000000;0.031995
9195.000000;0.031745
9194.000000;0.031499
9193.000000;0.031205
9192.000000;0.030930
9191.000000;0.030792
9190.000000;0.030800
9189.000000;0.030825
9188.000000;0.030724
9187.000000;0.030476
9186.000000;0.030145
9185.000000;0.029790
9184.000000;0.029445
9183.000000;0.029147
9182.000000;0.028919
9181.000000;0.028729
9180.000000;0.028520
9179.000000;0.028287
9178.000000;0.028081
9177.000000;0.027931
9176.000000;0.027809
9175.000000;0.027652
9174.000000;0.027428
9173.000000;0.027155
9172.000000;0.026888
9171.000000;0.026668
9170.000000;0.026463
9169.000000;0.026183
9168.000000;0.025795
9167.000000;0.025398
9166.000000;0.025129
9165.000000;0.025014
9164.000000;0.024937
9163.000000;0.024783
9162.000000;0.024553
9161.000000;0.024341
9160.000000;0.024215
9159.000000;0.024143
9158.000000;0.024033
9157.000000;0.023817
9156.000000;0.023515
9155.000000;0.023196
9154.000000;0.022892
9153.000000;0.022567
9152.000000;0.022191
9151.000000;0.021822
9150.000000;0.021573
9149.000000;0.021504
9148.000000;0.021557
9147.000000;0.021584
9146.000000;0.021447
9145.000000;0.021120
9144.000000;0.020723
9143.000000;0.020416
9142.000000;0.020237
9141.000000;0.020062
9140.000000;0.019758
9139.000000;0.019347
9138.000000;0.018972
9137.000000;0.018726
9136.000000;0.018574
9135.000000;0.018433
9134.000000;0.018261
9133.000000;0.018064
9132.000000;0.017854
9131.000000;0.017638
9130.000000;0.017420
9129.000000;0.017206
9128.000000;0.017014
9127.000000;0.016873
9126.000000;0.016782
9125.000000;0.016672
9124.000000;0.016450
9123.000000;0.016119
9122.000000;0.015802
9121.000000;0.015619
9120.000000;0.015550
9119.000000;0.015452
9118.000000;0.015204
9117.000000;0.014844
9116.000000;0.014536
9115.000000;0.014414
9114.000000;0.014444
9113.000000;0.014452
9112.000000;0.014280
9111.000000;0.013918
9110.000000;0.013487
9109.000000;0.013130
9108.000000;0.012908
9107.000000;0.012793
9106.000000;0.012699
9105.000000;0.012544
9104.000000;0.012304
9103.000000;0.012022
9102.000000;0.011752
9101.000000;0.011514
9100.000000;0.011303
9099.000000;0.011137
9098.000000;0.011028
9097.000000;0.010938
9096.000000;0.010788
9095.000000;0.010547
9094.000000;0.010271
9093.000000;0.010035
9092.000000;0.009854
9091.000000;0.009701
9090.000000;0.009571
9089.000000;0.009483
9088.000000;0.009403
9087.000000;0.009236
9086.000000;0.008916
9085.000000;0.008501
9084.000000;0.008132
9083.000000;0.007897
9082.000000;0.007753
9081.000000;0.007594
9080.000000;0.007366
9079.000000;0.007092
9078.000000;0.006822
9077.000000;0.006586
9076.000000;0.006404
9075.000000;0.006273
9074.000000;0.006157
9073.000000;0.006016
9072.000000;0.005861
9071.000000;0.005734
9070.000000;0.005641
9069.000000;0.005518
9068.000000;0.005309
9067.000000;0.005038
9066.000000;0.004792
9065.000000;0.004632
9064.000000;0.004560
9063.000000;0.004518
9062.000000;0.004409
9061.000000;0.004148
9060.000000;0.003738
9059.000000;0.003310
9058.000000;0.003009
9057.000000;0.002862
9056.000000;0.002763
9055.000000;0.002600
9054.000000;0.002358
9053.000000;0.002094
