Criado como novo conjunto de dados;"e2410_daniel_v2.spp","902.0 Secs"
cm-1;Abs
10000.000000;0.077620
9999.000000;0.076956
9998.000000;0.076285
9997.000000;0.075620
9996.000000;0.074933
9995.000000;0.074268
9994.000000;0.073708
9993.000000;0.073300
9992.000000;0.073004
9991.000000;0.072723
9990.000000;0.072368
9989.000000;0.071952
9988.000000;0.071579
9987.000000;0.071284
9986.000000;0.070925
9985.000000;0.070349
9984.000000;0.069592
9983.000000;0.068834
9982.000000;0.068172
9981.000000;0.067578
9980.000000;0.067054
9979.000000;0.066660
9978.000000;0.066391
9977.000000;0.066124
9976.000000;0.065752
9975.000000;0.065249
9974.000000;0.064627
9973.000000;0.063929
9972.000000;0.063282
9971.000000;0.062821
9970.000000;0.062516
9969.000000;0.062189
9968.000000;0.061735
9967.000000;0.061202
9966.000000;0.060653
9965.000000;0.060069
9964.000000;0.059445
9963.000000;0.058880
9962.000000;0.058478
9961.000000;0.058220
9960.000000;0.058001
9959.000000;0.057730
9958.000000;0.057367
9957.000000;0.056924
9956.000000;0.056458
9955.000000;0.056013
9954.000000;0.055544
9953.000000;0.054975
9952.000000;0.054342
9951.000000;0.053783
9950.000000;0.053370
9949.000000;0.053005
9948.000000;0.052535
9947.000000;0.051905
9946.000000;0.051180
9945.000000;0.050477
9944.000000;0.049902
9943.000000;0.049491
9942.000000;0.049168
9941.000000;0.048819
9940.000000;0.048410
9939.000000;0.047994
9938.000000;0.047603
9937.000000;0.047202
9936.000000;0.046760
9935.000000;0.046290
9934.000000;0.045799
9933.000000;0.045270
9932.000000;0.044698
9931.000000;0.044115
9930.000000;0.043554
9929.000000;0.043046
9928.000000;0.042623
9927.000000;0.042267
9926.000000;0.041876
9925.000000;0.041365
9924.000000;0.040781
9923.000000;0.040236
9922.000000;0.039739
9921.000000;0.039218
9920.000000;0.038670
9919.000000;0.038181
9918.000000;0.037789
9917.000000;0.037430
9916.000000;0.037051
9915.000000;0.036673
9914.000000;0.036306
9913.000000;0.035900
9912.000000;0.035403
9911.000000;0.034811
9910.000000;0.034163
9909.000000;0.033545
9908.000000;0.033083
9907.000000;0.032823
9906.000000;0.032616
9905.000000;0.032242
9904.000000;0.031658
9903.000000;0.031023
9902.000000;0.030470
9901.000000;0.029981
9900.000000;0.029504
9899.000000;0.029055
9898.000000;0.028649
9897.000000;0.028233
9896.000000;0.027768
9895.000000;0.027281
9894.000000;0.026804
9893.000000;0.026322
9892.000000;0.025845
9891.000000;0.025423
9890.000000;0.025062
9889.000000;0.024682
9888.000000;0.024225
9887.000000;0.023722
9886.000000;0.023237
9885.000000;0.022789
9884.000000;0.022368
9883.000000;0.021947
9882.000000;0.021473
9881.000000;0.020909
9880.000000;0.020310
9879.000000;0.019773
9878.000000;0.019308
9877.000000;0.018845
9876.000000;0.018367
9875.000000;0.017935
9874.000000;0.017561
9873.000000;0.017182
9872.000000;0.016767
9871.000000;0.016355
9870.000000;0.015935
9869.000000;0.015420
9868.000000;0.014804
9867.000000;0.014214
9866.000000;0.013743
9865.000000;0.013309
9864.000000;0.012774
9863.000000;0.012138
9862.000000;0.011519
9861.000000;0.011007
9860.000000;0.010597
9859.000000;0.010241
9858.000000;0.009883
9857.000000;0.009498
9856.000000;0.009109
9855.000000;0.008755
9854.000000;0.008404
9853.000000;0.007953
9852.000000;0.007354
9851.000000;0.006680
9850.000000;0.006047
9849.000000;0.005514
9848.000000;0.005085
9847.000000;0.004726
9846.000000;0.004374
9845.000000;0.003976
9844.000000;0.003557
9843.000000;0.003170
9842.000000;0.002781
9841.000000;0.002284
9840.000000;0.001660
9839.000000;0.001022
9838.000000;0.000474
9837.000000;0.000008
9836.000000;-0.000427
9835.000000;-0.000841
9834.000000;-0.001235
9833.000000;-0.001641
9832.000000;-0.002068
9831.000000;-0.002474
9830.000000;-0.002832
9829.000000;-0.003193
9828.000000;-0.003622
9827.000000;-0.004128
9826.000000;-0.004680
9825.000000;-0.005243
9824.000000;-0.005777
9823.000000;-0.006253
9822.000000;-0.006709
9821.000000;-0.007216
9820.000000;-0.007769
9819.000000;-0.008262
9818.000000;-0.008617
9817.000000;-0.008884
9816.000000;-0.009177
9815.000000;-0.009564
9814.000000;-0.010056
9813.000000;-0.010617
9812.000000;-0.011172
9811.000000;-0.011633
9810.000000;-0.011987
9809.000000;-0.012315
9808.000000;-0.012694
9807.000000;-0.013140
9806.000000;-0.013643
9805.000000;-0.014210
9804.000000;-0.014821
9803.000000;-0.015403
9802.000000;-0.015891
9801.000000;-0.016292
9800.000000;-0.016651
9799.000000;-0.016995
9798.000000;-0.017343
9797.000000;-0.017724
9796.000000;-0.018151
9795.000000;-0.018591
9794.000000;-0.018991
9793.000000;-0.019323
9792.000000;-0.019611
9791.000000;-0.019923
9790.000000;-0.020347
9789.000000;-0.020926
9788.000000;-0.021617
9787.000000;-0.022324
9786.000000;-0.022966
9785.000000;-0.023504
9784.000000;-0.023946
9783.000000;-0.024355
9782.000000;-0.024816
9781.000000;-0.025325
9780.000000;-0.025771
9779.000000;-0.026078
9778.000000;-0.026332
9777.000000;-0.026682
9776.000000;-0.027147
9775.000000;-0.027633
9774.000000;-0.028100
9773.000000;-0.028604
9772.000000;-0.029172
9771.000000;-0.029735
9770.000000;-0.030220
9769.000000;-0.030622
9768.000000;-0.030973
9767.000000;-0.031327
9766.000000;-0.031756
9765.000000;-0.032312
9764.000000;-0.032961
9763.000000;-0.033628
9762.000000;-0.034277
9761.000000;-0.034874
9760.000000;-0.035337
9759.000000;-0.035611
9758.000000;-0.035783
9757.000000;-0.036007
9756.000000;-0.036321
9755.000000;-0.036667
9754.000000;-0.037049
9753.000000;-0.037543
9752.000000;-0.038130
9751.000000;-0.038681
9750.000000;-0.039117
9749.000000;-0.039490
9748.000000;-0.039854
9747.000000;-0.040212
9746.000000;-0.040589
9745.000000;-0.041040
9744.000000;-0.041538
9743.000000;-0.041975
9742.000000;-0.042325
9741.000000;-0.042678
9740.000000;-0.043101
9739.000000;-0.043568
9738.000000;-0.044082
9737.000000;-0.044709
9736.000000;-0.045432
9735.000000;-0.046103
9734.000000;-0.046613
9733.000000;-0.047014
9732.000000;-0.047390
9731.000000;-0.047732
9730.000000;-0.048028
9729.000000;-0.048356
9728.000000;-0.048773
9727.000000;-0.049207
9726.000000;-0.049581
9725.000000;-0.049964
9724.000000;-0.050476
9723.000000;-0.051097
9722.000000;-0.051676
9721.000000;-0.052100
9720.000000;-0.052400
9719.000000;-0.052686
9718.000000;-0.053063
9717.000000;-0.053566
9716.000000;-0.054130
9715.000000;-0.054631
9714.000000;-0.055006
9713.000000;-0.055311
9712.000000;-0.055637
9711.000000;-0.056029
9710.000000;-0.056494
9709.000000;-0.057026
9708.000000;-0.057574
9707.000000;-0.058060
9706.000000;-0.058459
9705.000000;-0.058827
9704.000000;-0.059209
9703.000000;-0.059592
9702.000000;-0.059957
9701.000000;-0.060316
9700.000000;-0.060664
9699.000000;-0.060982
9698.000000;-0.061315
9697.000000;-0.061751
9696.000000;-0.062280
9695.000000;-0.062777
9694.000000;-0.063163
9693.000000;-0.063515
9692.000000;-0.063940
9691.000000;-0.064431
9690.000000;-0.064918
9689.000000;-0.065379
9688.000000;-0.065834
9687.000000;-0.066281
9686.000000;-0.066709
9685.000000;-0.067132
9684.000000;-0.067547
9683.000000;-0.067903
9682.000000;-0.068198
9681.000000;-0.068525
9680.000000;-0.068965
9679.000000;-0.069474
9678.000000;-0.069946
9677.000000;-0.070345
9676.000000;-0.070711
9675.000000;-0.071089
9674.000000;-0.071505
9673.000000;-0.071991
9672.000000;-0.072549
9671.000000;-0.073117
9670.000000;-0.073634
9669.000000;-0.074102
9668.000000;-0.074551
9667.000000;-0.074971
9666.000000;-0.075332
9665.000000;-0.075649
9664.000000;-0.075968
9663.000000;-0.076315
9662.000000;-0.076690
9661.000000;-0.077088
9660.000000;-0.077495
9659.000000;-0.077887
9658.000000;-0.078276
9657.000000;-0.078719
9656.000000;-0.079249
9655.000000;-0.079827
9654.000000;-0.080387
9653.000000;-0.080907
9652.000000;-0.081384
9651.000000;-0.081808
9650.000000;-0.082177
9649.000000;-0.082511
9648.000000;-0.082818
9647.000000;-0.083087
9646.000000;-0.083340
9645.000000;-0.083655
9644.000000;-0.084067
9643.000000;-0.084503
9642.000000;-0.084865
9641.000000;-0.085168
9640.000000;-0.085533
9639.000000;-0.086060
9638.000000;-0.086726
9637.000000;-0.087406
9636.000000;-0.087964
9635.000000;-0.088351
9634.000000;-0.088636
9633.000000;-0.088923
9632.000000;-0.089250
9631.000000;-0.089589
9630.000000;-0.089933
9629.000000;-0.090316
9628.000000;-0.090728
9627.000000;-0.091104
9626.000000;-0.091433
9625.000000;-0.091814
9624.000000;-0.092340
9623.000000;-0.092961
9622.000000;-0.093521
9621.000000;-0.093920
9620.000000;-0.094199
9619.000000;-0.094480
9618.000000;-0.094862
9617.000000;-0.095354
9616.000000;-0.095888
9615.000000;-0.096373
9614.000000;-0.096770
9613.000000;-0.097092
9612.000000;-0.097365
9611.000000;-0.097618
9610.000000;-0.097898
9609.000000;-0.098253
9608.000000;-0.098687
9607.000000;-0.099147
9606.000000;-0.099584
9605.000000;-0.099987
9604.000000;-0.100371
9603.000000;-0.100749
9602.000000;-0.101130
9601.000000;-0.101518
9600.000000;-0.101907
9599.000000;-0.102325
9598.000000;-0.102818
9597.000000;-0.103366
9596.000000;-0.103843
9595.000000;-0.104147
9594.000000;-0.104339
9593.000000;-0.104584
9592.000000;-0.104956
9591.000000;-0.105388
9590.000000;-0.105798
9589.000000;-0.106177
9588.000000;-0.106542
9587.000000;-0.106913
9586.000000;-0.107359
9585.000000;-0.107948
9584.000000;-0.108618
9583.000000;-0.109170
9582.000000;-0.109468
9581.000000;-0.109576
9580.000000;-0.109667
9579.000000;-0.109865
9578.000000;-0.110219
9577.000000;-0.110730
9576.000000;-0.111328
9575.000000;-0.111882
9574.000000;-0.112310
9573.000000;-0.112663
9572.000000;-0.113033
9571.000000;-0.113434
9570.000000;-0.113810
9569.000000;-0.114143
9568.000000;-0.114484
9567.000000;-0.114883
9566.000000;-0.115327
9565.000000;-0.115764
9564.000000;-0.116165
9563.000000;-0.116562
9562.000000;-0.117017
9561.000000;-0.117540
9560.000000;-0.118061
9559.000000;-0.118505
9558.000000;-0.118885
9557.000000;-0.119266
9556.000000;-0.119679
9555.000000;-0.120107
9554.000000;-0.120536
9553.000000;-0.120953
9552.000000;-0.121306
9551.000000;-0.121551
9550.000000;-0.121733
9549.000000;-0.121949
9548.000000;-0.122214
9547.000000;-0.122472
9546.000000;-0.122731
9545.000000;-0.123095
9544.000000;-0.123610
9543.000000;-0.124181
9542.000000;-0.124681
9541.000000;-0.125075
9540.000000;-0.125392
9539.000000;-0.125654
9538.000000;-0.125889
9537.000000;-0.126157
9536.000000;-0.126507
9535.000000;-0.126927
9534.000000;-0.127392
9533.000000;-0.127884
9532.000000;-0.128366
9531.000000;-0.128784
9530.000000;-0.129135
9529.000000;-0.129488
9528.000000;-0.129886
9527.000000;-0.130288
9526.000000;-0.130634
9525.000000;-0.130941
9524.000000;-0.131265
9523.000000;-0.131634
9522.000000;-0.132045
9521.000000;-0.132490
9520.000000;-0.132957
9519.000000;-0.133408
9518.000000;-0.133805
9517.000000;-0.134133
9516.000000;-0.134396
9515.000000;-0.134631
9514.000000;-0.134910
9513.000000;-0.135283
9512.000000;-0.135705
9511.000000;-0.136066
9510.000000;-0.136320
9509.000000;-0.136534
9508.000000;-0.136790
9507.000000;-0.137119
9506.000000;-0.137518
9505.000000;-0.137973
9504.000000;-0.138431
9503.000000;-0.138816
9502.000000;-0.139114
9501.000000;-0.139392
9500.000000;-0.139703
9499.000000;-0.140034
9498.000000;-0.140364
9497.000000;-0.140718
9496.000000;-0.141137
9495.000000;-0.141613
9494.000000;-0.142098
9493.000000;-0.142534
9492.000000;-0.142875
9491.000000;-0.143134
9490.000000;-0.143399
9489.000000;-0.143770
9488.000000;-0.144240
9487.000000;-0.144719
9486.000000;-0.145150
9485.000000;-0.145551
9484.000000;-0.145919
9483.000000;-0.146207
9482.000000;-0.146427
9481.000000;-0.146678
9480.000000;-0.147030
9479.000000;-0.147431
9478.000000;-0.147792
9477.000000;-0.148100
9476.000000;-0.148407
9475.000000;-0.148752
9474.000000;-0.149153
9473.000000;-0.149606
9472.000000;-0.150062
9471.000000;-0.150435
9470.000000;-0.150693
9469.000000;-0.150899
9468.000000;-0.151153
9467.000000;-0.151508
9466.000000;-0.151963
9465.000000;-0.152463
9464.000000;-0.152915
9463.000000;-0.153245
9462.000000;-0.153501
9461.000000;-0.153815
9460.000000;-0.154251
9459.000000;-0.154717
9458.000000;-0.155089
9457.000000;-0.155337
9456.000000;-0.155530
9455.000000;-0.155738
9454.000000;-0.156005
9453.000000;-0.156346
9452.000000;-0.156731
9451.000000;-0.157103
9450.000000;-0.157434
9449.000000;-0.157748
9448.000000;-0.158059
9447.000000;-0.158352
9446.000000;-0.158638
9445.000000;-0.158980
9444.000000;-0.159404
9443.000000;-0.159856
9442.000000;-0.160272
9441.000000;-0.160641
9440.000000;-0.160970
9439.000000;-0.161234
9438.000000;-0.161417
9437.000000;-0.161574
9436.000000;-0.161793
9435.000000;-0.162118
9434.000000;-0.162535
9433.000000;-0.163005
9432.000000;-0.163479
9431.000000;-0.163901
9430.000000;-0.164235
9429.000000;-0.164489
9428.000000;-0.164712
9427.000000;-0.164966
9426.000000;-0.165297
9425.000000;-0.165696
9424.000000;-0.166091
9423.000000;-0.166429
9422.000000;-0.166737
9421.000000;-0.167070
9420.000000;-0.167403
9419.000000;-0.167655
9418.000000;-0.167825
9417.000000;-0.168014
9416.000000;-0.168305
9415.000000;-0.168699
9414.000000;-0.169167
9413.000000;-0.169681
9412.000000;-0.170172
9411.000000;-0.170558
9410.000000;-0.170851
9409.000000;-0.171162
9408.000000;-0.171547
9407.000000;-0.171933
9406.000000;-0.172246
9405.000000;-0.172524
9404.000000;-0.172830
9403.000000;-0.173129
9402.000000;-0.173350
9401.000000;-0.173514
9400.000000;-0.173722
9399.000000;-0.174025
9398.000000;-0.174379
9397.000000;-0.174724
9396.000000;-0.175048
9395.000000;-0.175379
9394.000000;-0.175752
9393.000000;-0.176168
9392.000000;-0.176575
9391.000000;-0.176911
9390.000000;-0.177181
9389.000000;-0.177454
9388.000000;-0.177770
9387.000000;-0.178091
9386.000000;-0.178372
9385.000000;-0.178647
9384.000000;-0.178989
9383.000000;-0.179415
9382.000000;-0.179859
9381.000000;-0.180216
9380.000000;-0.180418
9379.000000;-0.180507
9378.000000;-0.180639
9377.000000;-0.180959
9376.000000;-0.181449
9375.000000;-0.181942
9374.000000;-0.182302
9373.000000;-0.182545
9372.000000;-0.182769
9371.000000;-0.183023
9370.000000;-0.183292
9369.000000;-0.183554
9368.000000;-0.183805
9367.000000;-0.184068
9366.000000;-0.184385
9365.000000;-0.184779
9364.000000;-0.185205
9363.000000;-0.185583
9362.000000;-0.185887
9361.000000;-0.186153
9360.000000;-0.186412
9359.000000;-0.186672
9358.000000;-0.186967
9357.000000;-0.187327
9356.000000;-0.187696
9355.000000;-0.187971
9354.000000;-0.188158
9353.000000;-0.188391
9352.000000;-0.188761
9351.000000;-0.189199
9350.000000;-0.189586
9349.000000;-0.189882
9348.000000;-0.190106
9347.000000;-0.190271
9346.000000;-0.190426
9345.000000;-0.190675
9344.000000;-0.191052
9343.000000;-0.191446
9342.000000;-0.191726
9341.000000;-0.191912
9340.000000;-0.192130
9339.000000;-0.192451
9338.000000;-0.192842
9337.000000;-0.193238
9336.000000;-0.193604
9335.000000;-0.193931
9334.000000;-0.194237
9333.000000;-0.194550
9332.000000;-0.194847
9331.000000;-0.195062
9330.000000;-0.195198
9329.000000;-0.195390
9328.000000;-0.195772
9327.000000;-0.196308
9326.000000;-0.196832
9325.000000;-0.197220
9324.000000;-0.197463
9323.000000;-0.197596
9322.000000;-0.197657
9321.000000;-0.197722
9320.000000;-0.197888
9319.000000;-0.198186
9318.000000;-0.198567
9317.000000;-0.198977
9316.000000;-0.199401
9315.000000;-0.199819
9314.000000;-0.200171
9313.000000;-0.200408
9312.000000;-0.200555
9311.000000;-0.200690
9310.000000;-0.200867
9309.000000;-0.201077
9308.000000;-0.201291
9307.000000;-0.201510
9306.000000;-0.201773
9305.000000;-0.202095
9304.000000;-0.202436
9303.000000;-0.202749
9302.000000;-0.203049
9301.000000;-0.203385
9300.000000;-0.203749
9299.000000;-0.204076
9298.000000;-0.204330
9297.000000;-0.204551
9296.000000;-0.204798
9295.000000;-0.205080
9294.000000;-0.205366
9293.000000;-0.205622
9292.000000;-0.205827
9291.000000;-0.205984
9290.000000;-0.206143
9289.000000;-0.206385
9288.000000;-0.206741
9287.000000;-0.207176
9286.000000;-0.207628
9285.000000;-0.208045
9284.000000;-0.208382
9283.000000;-0.208626
9282.000000;-0.208845
9281.000000;-0.209123
9280.000000;-0.209447
9279.000000;-0.209712
9278.000000;-0.209878
9277.000000;-0.210041
9276.000000;-0.210301
9275.000000;-0.210619
9274.000000;-0.210885
9273.000000;-0.211069
9272.000000;-0.211224
9271.000000;-0.211395
9270.000000;-0.211598
9269.000000;-0.211860
9268.000000;-0.212196
9267.000000;-0.212569
9266.000000;-0.212916
9265.000000;-0.213213
9264.000000;-0.213455
9263.000000;-0.213624
9262.000000;-0.213723
9261.000000;-0.213834
9260.000000;-0.214057
9259.000000;-0.214400
9258.000000;-0.214783
9257.000000;-0.215137
9256.000000;-0.215452
9255.000000;-0.215719
9254.000000;-0.215918
9253.000000;-0.216068
9252.000000;-0.216248
9251.000000;-0.216516
9250.000000;-0.216847
9249.000000;-0.217168
9248.000000;-0.217436
9247.000000;-0.217656
9246.000000;-0.217859
9245.000000;-0.218076
9244.000000;-0.218336
9243.000000;-0.218650
9242.000000;-0.218995
9241.000000;-0.219317
9240.000000;-0.219566
9239.000000;-0.219748
9238.000000;-0.219932
9237.000000;-0.220186
9236.000000;-0.220510
9235.000000;-0.220839
9234.000000;-0.221124
9233.000000;-0.221369
9232.000000;-0.221604
9231.000000;-0.221828
9230.000000;-0.222037
9229.000000;-0.222254
9228.000000;-0.222521
9227.000000;-0.222849
9226.000000;-0.223198
9225.000000;-0.223504
9224.000000;-0.223730
9223.000000;-0.223901
9222.000000;-0.224090
9221.000000;-0.224342
9220.000000;-0.224627
9219.000000;-0.224874
9218.000000;-0.225067
9217.000000;-0.225259
9216.000000;-0.225490
9215.000000;-0.225737
9214.000000;-0.225954
9213.000000;-0.226143
9212.000000;-0.226346
9211.000000;-0.226594
9210.000000;-0.226883
9209.000000;-0.227193
9208.000000;-0.227499
9207.000000;-0.227776
9206.000000;-0.228006
9205.000000;-0.228185
9204.000000;-0.228324
9203.000000;-0.228448
9202.000000;-0.228580
9201.000000;-0.228731
9200.000000;-0.228907
9199.000000;-0.229134
9198.000000;-0.229445
9197.000000;-0.229818
9196.000000;-0.230158
9195.000000;-0.230399
9194.000000;-0.230594
9193.000000;-0.230854
9192.000000;-0.231194
9191.000000;-0.231513
9190.000000;-0.231726
9189.000000;-0.231871
9188.000000;-0.232037
9187.000000;-0.232268
9186.000000;-0.232545
9185.000000;-0.232841
9184.000000;-0.233127
9183.000000;-0.233374
9182.000000;-0.233575
9181.000000;-0.233753
9180.000000;-0.233924
9179.000000;-0.234079
9178.000000;-0.234221
9177.000000;-0.234382
9176.000000;-0.234582
9175.000000;-0.234815
9174.000000;-0.235083
9173.000000;-0.235404
9172.000000;-0.235767
9171.000000;-0.236102
9170.000000;-0.236355
9169.000000;-0.236548
9168.000000;-0.236725
9167.000000;-0.236889
9166.000000;-0.237025
9165.000000;-0.237164
9164.000000;-0.237365
9163.000000;-0.237635
9162.000000;-0.237913
9161.000000;-0.238148
9160.000000;-0.238347
9159.000000;-0.238546
9158.000000;-0.238750
9157.000000;-0.238922
9156.000000;-0.239037
9155.000000;-0.239129
9154.000000;-0.239276
9153.000000;-0.239533
9152.000000;-0.239867
9151.000000;-0.240184
9150.000000;-0.240423
9149.000000;-0.240606
9148.000000;-0.240790
9147.000000;-0.241000
9146.000000;-0.241225
9145.000000;-0.241461
9144.000000;-0.241713
9143.000000;-0.241976
9142.000000;-0.242236
9141.000000;-0.242479
9140.000000;-0.242703
9139.000000;-0.242907
9138.000000;-0.243102
9137.000000;-0.243307
9136.000000;-0.243531
9135.000000;-0.243757
9134.000000;-0.243957
9133.000000;-0.244119
9132.000000;-0.244260
9131.000000;-0.244408
9130.000000;-0.244583
9129.000000;-0.244798
9128.000000;-0.245051
9127.000000;-0.245324
9126.000000;-0.245580
9125.000000;-0.245780
9124.000000;-0.245914
9123.000000;-0.246015
9122.000000;-0.246142
9121.000000;-0.246338
9120.000000;-0.246605
9119.000000;-0.246908
9118.000000;-0.247189
9117.000000;-0.247391
9116.000000;-0.247499
9115.000000;-0.247576
9114.000000;-0.247719
9113.000000;-0.247973
9112.000000;-0.248292
9111.000000;-0.248597
9110.000000;-0.248842
9109.000000;-0.249022
9108.000000;-0.249167
9107.000000;-0.249339
9106.000000;-0.249598
9105.000000;-0.249936
9104.000000;-0.250265
9103.000000;-0.250496
9102.000000;-0.250612
9101.000000;-0.250646
9100.000000;-0.250646
9099.000000;-0.250678
9098.000000;-0.250832
9097.000000;-0.251129
9096.000000;-0.251467
9095.000000;-0.251718
9094.000000;-0.251858
9093.000000;-0.251961
9092.000000;-0.252087
9091.000000;-0.252244
9090.000000;-0.252437
9089.000000;-0.252679
