Criado como novo conjunto de dados;"e2410_daniel_v2.spp","53644.8 Secs"
cm-1;Abs
10000.000000;1.073975
9999.000000;1.074009
9998.000000;1.074044
9997.000000;1.074078
9996.000000;1.074113
9995.000000;1.074147
9994.000000;1.074181
9993.000000;1.074217
9992.000000;1.074250
9991.000000;1.074293
9990.000000;1.074083
9989.000000;1.073486
9988.000000;1.072608
9987.000000;1.071717
9986.000000;1.070998
9985.000000;1.070385
9984.000000;1.069707
9983.000000;1.068892
9982.000000;1.067943
9981.000000;1.066856
9980.000000;1.065747
9979.000000;1.064919
9978.000000;1.064635
9977.000000;1.064849
9976.000000;1.065281
9975.000000;1.065643
9974.000000;1.065708
9973.000000;1.065332
9972.000000;1.064595
9971.000000;1.063796
9970.000000;1.063138
9969.000000;1.062527
9968.000000;1.061832
9967.000000;1.061165
9966.000000;1.060692
9965.000000;1.060329
9964.000000;1.059839
9963.000000;1.059134
9962.000000;1.058278
9961.000000;1.057325
9960.000000;1.056384
9959.000000;1.055723
9958.000000;1.055558
9957.000000;1.055741
9956.000000;1.055882
9955.000000;1.055729
9954.000000;1.055290
9953.000000;1.054644
9952.000000;1.053877
9951.000000;1.053165
9950.000000;1.052712
9949.000000;1.052531
9948.000000;1.052377
9947.000000;1.051953
9946.000000;1.051180
9945.000000;1.050290
9944.000000;1.049612
9943.000000;1.049163
9942.000000;1.048531
9941.000000;1.047352
9940.000000;1.045856
9939.000000;1.044693
9938.000000;1.044204
9937.000000;1.044144
9936.000000;1.044153
9935.000000;1.044123
9934.000000;1.043987
9933.000000;1.043525
9932.000000;1.042674
9931.000000;1.041757
9930.000000;1.041170
9929.000000;1.041010
9928.000000;1.041181
9927.000000;1.041574
9926.000000;1.041924
9925.000000;1.041807
9924.000000;1.041084
9923.000000;1.040119
9922.000000;1.039285
9921.000000;1.038533
9920.000000;1.037711
9919.000000;1.037016
9918.000000;1.036727
9917.000000;1.036684
9916.000000;1.036443
9915.000000;1.035813
9914.000000;1.034916
9913.000000;1.033886
9912.000000;1.032857
9911.000000;1.032089
9910.000000;1.031686
9909.000000;1.031293
9908.000000;1.030506
9907.000000;1.029530
9906.000000;1.028999
9905.000000;1.029134
9904.000000;1.029452
9903.000000;1.029344
9902.000000;1.028634
9901.000000;1.027509
9900.000000;1.026258
9899.000000;1.025205
9898.000000;1.024608
9897.000000;1.024449
9896.000000;1.024484
9895.000000;1.024561
9894.000000;1.024704
9893.000000;1.024821
9892.000000;1.024581
9891.000000;1.023737
9890.000000;1.022448
9889.000000;1.021160
9888.000000;1.020212
9887.000000;1.019629
9886.000000;1.019240
9885.000000;1.018947
9884.000000;1.018856
9883.000000;1.019106
9882.000000;1.019571
9881.000000;1.019869
9880.000000;1.019746
9879.000000;1.019302
9878.000000;1.018714
9877.000000;1.017915
9876.000000;1.016779
9875.000000;1.015499
9874.000000;1.014525
9873.000000;1.014095
9872.000000;1.014033
9871.000000;1.013993
9870.000000;1.013740
9869.000000;1.013187
9868.000000;1.012370
9867.000000;1.011491
9866.000000;1.010870
9865.000000;1.010721
9864.000000;1.010956
9863.000000;1.011214
9862.000000;1.011080
9861.000000;1.010360
9860.000000;1.009241
9859.000000;1.008159
9858.000000;1.007410
9857.000000;1.006893
9856.000000;1.006294
9855.000000;1.005501
9854.000000;1.004751
9853.000000;1.004330
9852.000000;1.004189
9851.000000;1.003965
9850.000000;1.003386
9849.000000;1.002608
9848.000000;1.002019
9847.000000;1.001752
9846.000000;1.001531
9845.000000;1.001068
9844.000000;1.000429
9843.000000;0.999891
9842.000000;0.999572
9841.000000;0.999384
9840.000000;0.999199
9839.000000;0.998856
9838.000000;0.998155
9837.000000;0.997136
9836.000000;0.996269
9835.000000;0.995995
9834.000000;0.996111
9833.000000;0.995919
9832.000000;0.995054
9831.000000;0.993846
9830.000000;0.992825
9829.000000;0.992207
9828.000000;0.991973
9827.000000;0.992048
9826.000000;0.992212
9825.000000;0.992110
9824.000000;0.991633
9823.000000;0.991108
9822.000000;0.990905
9821.000000;0.990971
9820.000000;0.990887
9819.000000;0.990266
9818.000000;0.989030
9817.000000;0.987483
9816.000000;0.986193
9815.000000;0.985626
9814.000000;0.985746
9813.000000;0.986072
9812.000000;0.986130
9811.000000;0.985721
9810.000000;0.984834
9809.000000;0.983641
9808.000000;0.982579
9807.000000;0.982082
9806.000000;0.982069
9805.000000;0.981975
9804.000000;0.981392
9803.000000;0.980433
9802.000000;0.979383
9801.000000;0.978372
9800.000000;0.977548
9799.000000;0.977174
9798.000000;0.977288
9797.000000;0.977518
9796.000000;0.977474
9795.000000;0.977129
9794.000000;0.976626
9793.000000;0.976003
9792.000000;0.975320
9791.000000;0.974782
9790.000000;0.974482
9789.000000;0.974223
9788.000000;0.973786
9787.000000;0.973173
9786.000000;0.972413
9785.000000;0.971442
9784.000000;0.970398
9783.000000;0.969741
9782.000000;0.969760
9781.000000;0.970162
9780.000000;0.970441
9779.000000;0.970404
9778.000000;0.970056
9777.000000;0.969237
9776.000000;0.967847
9775.000000;0.966292
9774.000000;0.965266
9773.000000;0.965069
9772.000000;0.965404
9771.000000;0.965797
9770.000000;0.965944
9769.000000;0.965684
9768.000000;0.964957
9767.000000;0.963877
9766.000000;0.962671
9765.000000;0.961525
9764.000000;0.960559
9763.000000;0.959874
9762.000000;0.959466
9761.000000;0.959175
9760.000000;0.958821
9759.000000;0.958328
9758.000000;0.957649
9757.000000;0.956756
9756.000000;0.955859
9755.000000;0.955409
9754.000000;0.955631
9753.000000;0.956171
9752.000000;0.956442
9751.000000;0.956224
9750.000000;0.955733
9749.000000;0.955238
9748.000000;0.954859
9747.000000;0.954626
9746.000000;0.954446
9745.000000;0.954095
9744.000000;0.953494
9743.000000;0.952945
9742.000000;0.952809
9741.000000;0.952963
9740.000000;0.952845
9739.000000;0.952065
9738.000000;0.950787
9737.000000;0.949453
9736.000000;0.948369
9735.000000;0.947651
9734.000000;0.947380
9733.000000;0.947590
9732.000000;0.948086
9731.000000;0.948423
9730.000000;0.948221
9729.000000;0.947552
9728.000000;0.946916
9727.000000;0.946700
9726.000000;0.946724
9725.000000;0.946478
9724.000000;0.945752
9723.000000;0.944812
9722.000000;0.943943
9721.000000;0.943084
9720.000000;0.942057
9719.000000;0.940925
9718.000000;0.939923
9717.000000;0.939208
9716.000000;0.938796
9715.000000;0.938628
9714.000000;0.938544
9713.000000;0.938337
9712.000000;0.937931
9711.000000;0.937415
9710.000000;0.936815
9709.000000;0.936036
9708.000000;0.935125
9707.000000;0.934425
9706.000000;0.934254
9705.000000;0.934541
9704.000000;0.934890
9703.000000;0.934925
9702.000000;0.934479
9701.000000;0.933646
9700.000000;0.932757
9699.000000;0.932164
9698.000000;0.931872
9697.000000;0.931529
9696.000000;0.930865
9695.000000;0.930017
9694.000000;0.929288
9693.000000;0.928758
9692.000000;0.928285
9691.000000;0.927779
9690.000000;0.927294
9689.000000;0.926936
9688.000000;0.926768
9687.000000;0.926719
9686.000000;0.926557
9685.000000;0.926104
9684.000000;0.925546
9683.000000;0.925274
9682.000000;0.925371
9681.000000;0.925452
9680.000000;0.925164
9679.000000;0.924580
9678.000000;0.923959
9677.000000;0.923374
9676.000000;0.922775
9675.000000;0.922189
9674.000000;0.921611
9673.000000;0.920870
9672.000000;0.919875
9671.000000;0.918856
9670.000000;0.918141
9669.000000;0.917792
9668.000000;0.917637
9667.000000;0.917522
9666.000000;0.917357
9665.000000;0.917044
9664.000000;0.916606
9663.000000;0.916284
9662.000000;0.916274
9661.000000;0.916405
9660.000000;0.916275
9659.000000;0.915683
9658.000000;0.914782
9657.000000;0.913891
9656.000000;0.913267
9655.000000;0.912965
9654.000000;0.912793
9653.000000;0.912490
9652.000000;0.912039
9651.000000;0.911660
9650.000000;0.911394
9649.000000;0.910938
9648.000000;0.910097
9647.000000;0.909179
9646.000000;0.908633
9645.000000;0.908405
9644.000000;0.907992
9643.000000;0.907109
9642.000000;0.906019
9641.000000;0.905182
9640.000000;0.904784
9639.000000;0.904677
9638.000000;0.904602
9637.000000;0.904404
9636.000000;0.904136
9635.000000;0.903963
9634.000000;0.903913
9633.000000;0.903744
9632.000000;0.903189
9631.000000;0.902311
9630.000000;0.901501
9629.000000;0.901072
9628.000000;0.900949
9627.000000;0.900765
9626.000000;0.900279
9625.000000;0.899643
9624.000000;0.899223
9623.000000;0.899151
9622.000000;0.899155
9621.000000;0.898905
9620.000000;0.898412
9619.000000;0.897919
9618.000000;0.897508
9617.000000;0.897094
9616.000000;0.896727
9615.000000;0.896577
9614.000000;0.896548
9613.000000;0.896228
9612.000000;0.895379
9611.000000;0.894253
9610.000000;0.893280
9609.000000;0.892672
9608.000000;0.892437
9607.000000;0.892518
9606.000000;0.892731
9605.000000;0.892777
9604.000000;0.892516
9603.000000;0.892052
9602.000000;0.891451
9601.000000;0.890594
9600.000000;0.889512
9599.000000;0.888574
9598.000000;0.888100
9597.000000;0.887945
9596.000000;0.887742
9595.000000;0.887391
9594.000000;0.887039
9593.000000;0.886699
9592.000000;0.886228
9591.000000;0.885662
9590.000000;0.885275
9589.000000;0.885245
9588.000000;0.885430
9587.000000;0.885525
9586.000000;0.885323
9585.000000;0.884850
9584.000000;0.884337
9583.000000;0.884062
9582.000000;0.884073
9581.000000;0.884097
9580.000000;0.883774
9579.000000;0.882977
9578.000000;0.881879
9577.000000;0.880805
9576.000000;0.880027
9575.000000;0.879598
9574.000000;0.879278
9573.000000;0.878756
9572.000000;0.878001
9571.000000;0.877290
9570.000000;0.876829
9569.000000;0.876528
9568.000000;0.876218
9567.000000;0.875911
9566.000000;0.875666
9565.000000;0.875371
9564.000000;0.874869
9563.000000;0.874206
9562.000000;0.873572
9561.000000;0.873068
9560.000000;0.872674
9559.000000;0.872389
9558.000000;0.872240
9557.000000;0.872161
9556.000000;0.872013
9555.000000;0.871705
9554.000000;0.871284
9553.000000;0.870905
9552.000000;0.870748
9551.000000;0.870847
9550.000000;0.870958
9549.000000;0.870687
9548.000000;0.869849
9547.000000;0.868648
9546.000000;0.867492
9545.000000;0.866701
9544.000000;0.866384
9543.000000;0.866421
9542.000000;0.866504
9541.000000;0.866339
9540.000000;0.865887
9539.000000;0.865287
9538.000000;0.864551
9537.000000;0.863544
9536.000000;0.862354
9535.000000;0.861443
9534.000000;0.861260
9533.000000;0.861778
9532.000000;0.862522
9531.000000;0.862972
9530.000000;0.862909
9529.000000;0.862495
9528.000000;0.862078
9527.000000;0.861824
9526.000000;0.861504
9525.000000;0.860757
9524.000000;0.859566
9523.000000;0.858292
9522.000000;0.857280
9521.000000;0.856636
9520.000000;0.856391
9519.000000;0.856571
9518.000000;0.856986
9517.000000;0.857234
9516.000000;0.857085
9515.000000;0.856663
9514.000000;0.856154
9513.000000;0.855558
9512.000000;0.854848
9511.000000;0.854135
9510.000000;0.853508
9509.000000;0.852912
9508.000000;0.852340
9507.000000;0.851946
9506.000000;0.851802
9505.000000;0.851728
9504.000000;0.851527
9503.000000;0.851197
9502.000000;0.850779
9501.000000;0.850229
9500.000000;0.849598
9499.000000;0.849108
9498.000000;0.848856
9497.000000;0.848640
9496.000000;0.848301
9495.000000;0.848010
9494.000000;0.847972
9493.000000;0.848036
9492.000000;0.847849
9491.000000;0.847282
9490.000000;0.846455
9489.000000;0.845535
9488.000000;0.844753
9487.000000;0.844433
9486.000000;0.844679
9485.000000;0.845106
9484.000000;0.845191
9483.000000;0.844835
9482.000000;0.844340
9481.000000;0.843897
9480.000000;0.843407
9479.000000;0.842785
9478.000000;0.842152
9477.000000;0.841666
9476.000000;0.841354
9475.000000;0.841139
9474.000000;0.840863
9473.000000;0.840335
9472.000000;0.839529
9471.000000;0.838750
9470.000000;0.838380
9469.000000;0.838428
9468.000000;0.838467
9467.000000;0.838082
9466.000000;0.837286
9465.000000;0.836446
9464.000000;0.835893
9463.000000;0.835649
9462.000000;0.835483
9461.000000;0.835186
9460.000000;0.834764
9459.000000;0.834344
9458.000000;0.833945
9457.000000;0.833510
9456.000000;0.833111
9455.000000;0.832929
9454.000000;0.832932
9453.000000;0.832776
9452.000000;0.832195
9451.000000;0.831349
9450.000000;0.830620
9449.000000;0.830202
9448.000000;0.830049
9447.000000;0.830097
9446.000000;0.830302
9445.000000;0.830501
9444.000000;0.830454
9443.000000;0.830039
9442.000000;0.829311
9441.000000;0.828394
9440.000000;0.827431
9439.000000;0.826605
9438.000000;0.826079
9437.000000;0.825866
9436.000000;0.825819
9435.000000;0.825727
9434.000000;0.825419
9433.000000;0.824862
9432.000000;0.824235
9431.000000;0.823810
9430.000000;0.823664
9429.000000;0.823571
9428.000000;0.823266
9427.000000;0.822765
9426.000000;0.822360
9425.000000;0.822303
9424.000000;0.822566
9423.000000;0.822853
9422.000000;0.822824
9421.000000;0.822383
9420.000000;0.821759
9419.000000;0.821258
9418.000000;0.820925
9417.000000;0.820564
9416.000000;0.820046
9415.000000;0.819436
9414.000000;0.818810
9413.000000;0.818123
9412.000000;0.817348
9411.000000;0.816585
9410.000000;0.815949
9409.000000;0.815480
9408.000000;0.815211
9407.000000;0.815179
9406.000000;0.815289
9405.000000;0.815327
9404.000000;0.815199
9403.000000;0.815010
9402.000000;0.814848
9401.000000;0.814626
9400.000000;0.814236
9399.000000;0.813726
9398.000000;0.813217
9397.000000;0.812767
9396.000000;0.812385
9395.000000;0.812047
9394.000000;0.811647
9393.000000;0.811070
9392.000000;0.810410
9391.000000;0.809908
9390.000000;0.809621
9389.000000;0.809345
9388.000000;0.808968
9387.000000;0.808694
9386.000000;0.808715
9385.000000;0.808874
9384.000000;0.808857
9383.000000;0.808592
9382.000000;0.808249
9381.000000;0.807918
9380.000000;0.807524
9379.000000;0.807001
9378.000000;0.806386
9377.000000;0.805729
9376.000000;0.805074
9375.000000;0.804514
9374.000000;0.804151
9373.000000;0.803995
9372.000000;0.803927
9371.000000;0.803776
9370.000000;0.803422
9369.000000;0.802926
9368.000000;0.802527
9367.000000;0.802400
9366.000000;0.802411
9365.000000;0.802265
9364.000000;0.801921
9363.000000;0.801643
9362.000000;0.801566
9361.000000;0.801440
9360.000000;0.800958
9359.000000;0.800184
9358.000000;0.799477
9357.000000;0.799078
9356.000000;0.798920
9355.000000;0.798775
9354.000000;0.798480
9353.000000;0.798077
9352.000000;0.797805
9351.000000;0.797874
9350.000000;0.798202
9349.000000;0.798448
9348.000000;0.798368
9347.000000;0.798010
9346.000000;0.797550
9345.000000;0.797073
9344.000000;0.796595
9343.000000;0.796127
9342.000000;0.795624
9341.000000;0.794986
9340.000000;0.794208
9339.000000;0.793455
9338.000000;0.792913
9337.000000;0.792640
9336.000000;0.792564
9335.000000;0.792524
9334.000000;0.792306
9333.000000;0.791794
9332.000000;0.791115
9331.000000;0.790492
9330.000000;0.789962
9329.000000;0.789402
9328.000000;0.788826
9327.000000;0.788432
9326.000000;0.788328
9325.000000;0.788433
9324.000000;0.788657
9323.000000;0.788951
9322.000000;0.789116
9321.000000;0.788866
9320.000000;0.788177
9319.000000;0.787362
9318.000000;0.786700
9317.000000;0.786240
9316.000000;0.786001
9315.000000;0.786088
9314.000000;0.786441
9313.000000;0.786757
9312.000000;0.786817
9311.000000;0.786663
9310.000000;0.786346
9309.000000;0.785779
9308.000000;0.785000
9307.000000;0.784280
9306.000000;0.783770
9305.000000;0.783302
9304.000000;0.782737
9303.000000;0.782249
9302.000000;0.782020
9301.000000;0.781892
9300.000000;0.781600
9299.000000;0.781134
9298.000000;0.780648
9297.000000;0.780183
9296.000000;0.779722
9295.000000;0.779342
9294.000000;0.779064
9293.000000;0.778759
9292.000000;0.778397
9291.000000;0.778182
9290.000000;0.778187
9289.000000;0.778098
9288.000000;0.777635
9287.000000;0.777021
9286.000000;0.776668
9285.000000;0.776552
9284.000000;0.776292
9283.000000;0.775766
9282.000000;0.775280
9281.000000;0.775113
9280.000000;0.775221
9279.000000;0.775381
9278.000000;0.775403
9277.000000;0.775166
9276.000000;0.774705
9275.000000;0.774254
9274.000000;0.774036
9273.000000;0.774002
9272.000000;0.773947
9271.000000;0.773774
9270.000000;0.773504
9269.000000;0.773110
9268.000000;0.772620
9267.000000;0.772271
9266.000000;0.772291
9265.000000;0.772526
9264.000000;0.772538
9263.000000;0.772087
9262.000000;0.771306
9261.000000;0.770416
9260.000000;0.769514
9259.000000;0.768694
9258.000000;0.768154
9257.000000;0.768070
9256.000000;0.768426
9255.000000;0.768986
9254.000000;0.769374
9253.000000;0.769283
9252.000000;0.768753
9251.000000;0.768187
9250.000000;0.767944
9249.000000;0.767981
9248.000000;0.768024
9247.000000;0.767955
9246.000000;0.767863
9245.000000;0.767770
9244.000000;0.767576
9243.000000;0.767241
9242.000000;0.766808
9241.000000;0.766263
9240.000000;0.765555
9239.000000;0.764772
9238.000000;0.764093
9237.000000;0.763568
9236.000000;0.763125
9235.000000;0.762768
9234.000000;0.762566
9233.000000;0.762427
9232.000000;0.762085
9231.000000;0.761435
9230.000000;0.760726
9229.000000;0.760319
9228.000000;0.760327
9227.000000;0.760554
9226.000000;0.760705
9225.000000;0.760603
9224.000000;0.760260
9223.000000;0.759815
9222.000000;0.759413
9221.000000;0.759151
9220.000000;0.759084
9219.000000;0.759207
9218.000000;0.759397
9217.000000;0.759476
9216.000000;0.759378
9215.000000;0.759170
9214.000000;0.758872
9213.000000;0.758391
9212.000000;0.757711
9211.000000;0.757024
9210.000000;0.756534
9209.000000;0.756233
9208.000000;0.755988
9207.000000;0.755766
9206.000000;0.755627
9205.000000;0.755565
9204.000000;0.755499
9203.000000;0.755367
9202.000000;0.755139
9201.000000;0.754766
9200.000000;0.754253
9199.000000;0.753696
9198.000000;0.753172
9197.000000;0.752658
9196.000000;0.752143
9195.000000;0.751713
9194.000000;0.751422
9193.000000;0.751202
9192.000000;0.751034
9191.000000;0.751061
9190.000000;0.751374
9189.000000;0.751770
9188.000000;0.751930
9187.000000;0.751750
9186.000000;0.751363
9185.000000;0.750902
9184.000000;0.750433
9183.000000;0.750026
9182.000000;0.749681
9181.000000;0.749250
9180.000000;0.748641
9179.000000;0.748044
9178.000000;0.747745
9177.000000;0.747733
9176.000000;0.747718
9175.000000;0.747537
9174.000000;0.747295
9173.000000;0.747077
9172.000000;0.746779
9171.000000;0.746321
9170.000000;0.745849
9169.000000;0.745595
9168.000000;0.745646
9167.000000;0.745919
9166.000000;0.746245
9165.000000;0.746418
9164.000000;0.746286
9163.000000;0.745890
9162.000000;0.745435
9161.000000;0.745064
9160.000000;0.744726
9159.000000;0.744313
9158.000000;0.743833
9157.000000;0.743385
9156.000000;0.743026
9155.000000;0.742724
9154.000000;0.742439
9153.000000;0.742180
9152.000000;0.742022
9151.000000;0.742031
9150.000000;0.742156
9149.000000;0.742197
9148.000000;0.741956
9147.000000;0.741438
9146.000000;0.740845
9145.000000;0.740359
9144.000000;0.739997
9143.000000;0.739698
9142.000000;0.739476
9141.000000;0.739419
9140.000000;0.739558
9139.000000;0.739786
9138.000000;0.739917
9137.000000;0.739824
9136.000000;0.739514
9135.000000;0.739111
9134.000000;0.738758
9133.000000;0.738551
9132.000000;0.738495
9131.000000;0.738500
9130.000000;0.738395
9129.000000;0.738032
9128.000000;0.737410
9127.000000;0.736714
9126.000000;0.736210
9125.000000;0.736089
9124.000000;0.736334
9123.000000;0.736684
9122.000000;0.736781
9121.000000;0.736457
9120.000000;0.735874
9119.000000;0.735327
9118.000000;0.734940
9117.000000;0.734630
9116.000000;0.734321
9115.000000;0.734051
9114.000000;0.733848
9113.000000;0.733661
9112.000000;0.733454
9111.000000;0.733264
9110.000000;0.733101
9109.000000;0.732877
9108.000000;0.732525
9107.000000;0.732111
9106.000000;0.731772
9105.000000;0.731600
9104.000000;0.731611
9103.000000;0.731762
9102.000000;0.731932
9101.000000;0.731980
9100.000000;0.731852
9099.000000;0.731583
9098.000000;0.731194
9097.000000;0.730682
9096.000000;0.730123
9095.000000;0.729641
9094.000000;0.729238
9093.000000;0.728789
9092.000000;0.728260
9091.000000;0.727798
9090.000000;0.727547
9089.000000;0.727470
9088.000000;0.727463
9087.000000;0.727508
9086.000000;0.727607
9085.000000;0.727668
9084.000000;0.727588
9083.000000;0.727392
9082.000000;0.727194
9081.000000;0.727050
9080.000000;0.726928
9079.000000;0.726766
9078.000000;0.726511
9077.000000;0.726148
9076.000000;0.725754
9075.000000;0.725459
9074.000000;0.725301
9073.000000;0.725216
9072.000000;0.725182
9071.000000;0.725249
9070.000000;0.725370
9069.000000;0.725328
9068.000000;0.724964
9067.000000;0.724417
9066.000000;0.723997
9065.000000;0.723878
9064.000000;0.723988
9063.000000;0.724124
9062.000000;0.724096
9061.000000;0.723816
9060.000000;0.723373
9059.000000;0.722993
9058.000000;0.722821
9057.000000;0.722755
9056.000000;0.722558
9055.000000;0.722106
9054.000000;0.721492
9053.000000;0.720922
