Criado como novo conjunto de dados;"e2410_daniel_v2.spp","36363.9 Secs"
cm-1;Abs
10000.000000;0.557739
9999.000000;0.557419
9998.000000;0.557017
9997.000000;0.556443
9996.000000;0.555737
9995.000000;0.555054
9994.000000;0.554457
9993.000000;0.553903
9992.000000;0.553412
9991.000000;0.553069
9990.000000;0.552827
9989.000000;0.552505
9988.000000;0.552018
9987.000000;0.551485
9986.000000;0.551078
9985.000000;0.550867
9984.000000;0.550771
9983.000000;0.550548
9982.000000;0.549889
9981.000000;0.548734
9980.000000;0.547457
9979.000000;0.546543
9978.000000;0.546090
9977.000000;0.545788
9976.000000;0.545375
9975.000000;0.544919
9974.000000;0.544617
9973.000000;0.544520
9972.000000;0.544499
9971.000000;0.544338
9970.000000;0.543825
9969.000000;0.542926
9968.000000;0.541896
9967.000000;0.541101
9966.000000;0.540674
9965.000000;0.540447
9964.000000;0.540191
9963.000000;0.539791
9962.000000;0.539215
9961.000000;0.538486
9960.000000;0.537739
9959.000000;0.537135
9958.000000;0.536673
9957.000000;0.536205
9956.000000;0.535644
9955.000000;0.535065
9954.000000;0.534559
9953.000000;0.534118
9952.000000;0.533703
9951.000000;0.533302
9950.000000;0.532911
9949.000000;0.532548
9948.000000;0.532264
9947.000000;0.532027
9946.000000;0.531633
9945.000000;0.530900
9944.000000;0.529965
9943.000000;0.529194
9942.000000;0.528768
9941.000000;0.528514
9940.000000;0.528195
9939.000000;0.527798
9938.000000;0.527440
9937.000000;0.527130
9936.000000;0.526733
9935.000000;0.526126
9934.000000;0.525312
9933.000000;0.524434
9932.000000;0.523700
9931.000000;0.523229
9930.000000;0.522920
9929.000000;0.522525
9928.000000;0.521885
9927.000000;0.521087
9926.000000;0.520395
9925.000000;0.520055
9924.000000;0.520122
9923.000000;0.520390
9922.000000;0.520489
9921.000000;0.520160
9920.000000;0.519444
9919.000000;0.518568
9918.000000;0.517717
9917.000000;0.516957
9916.000000;0.516327
9915.000000;0.515824
9914.000000;0.515334
9913.000000;0.514698
9912.000000;0.513896
9911.000000;0.513082
9910.000000;0.512428
9909.000000;0.511987
9908.000000;0.511685
9907.000000;0.511364
9906.000000;0.510864
9905.000000;0.510147
9904.000000;0.509335
9903.000000;0.508582
9902.000000;0.507951
9901.000000;0.507484
9900.000000;0.507270
9899.000000;0.507306
9898.000000;0.507356
9897.000000;0.507131
9896.000000;0.506594
9895.000000;0.505937
9894.000000;0.505289
9893.000000;0.504616
9892.000000;0.503910
9891.000000;0.503282
9890.000000;0.502826
9889.000000;0.502524
9888.000000;0.502330
9887.000000;0.502215
9886.000000;0.502093
9885.000000;0.501818
9884.000000;0.501318
9883.000000;0.500651
9882.000000;0.499887
9881.000000;0.499048
9880.000000;0.498205
9879.000000;0.497512
9878.000000;0.497069
9877.000000;0.496801
9876.000000;0.496540
9875.000000;0.496164
9874.000000;0.495630
9873.000000;0.494942
9872.000000;0.494164
9871.000000;0.493441
9870.000000;0.492934
9869.000000;0.492678
9868.000000;0.492519
9867.000000;0.492203
9866.000000;0.491599
9865.000000;0.490839
9864.000000;0.490206
9863.000000;0.489874
9862.000000;0.489797
9861.000000;0.489807
9860.000000;0.489747
9859.000000;0.489489
9858.000000;0.488979
9857.000000;0.488322
9856.000000;0.487717
9855.000000;0.487224
9854.000000;0.486687
9853.000000;0.485970
9852.000000;0.485147
9851.000000;0.484382
9850.000000;0.483733
9849.000000;0.483210
9848.000000;0.482873
9847.000000;0.482720
9846.000000;0.482544
9845.000000;0.482117
9844.000000;0.481468
9843.000000;0.480821
9842.000000;0.480297
9841.000000;0.479843
9840.000000;0.479395
9839.000000;0.478939
9838.000000;0.478427
9837.000000;0.477809
9836.000000;0.477185
9835.000000;0.476731
9834.000000;0.476451
9833.000000;0.476131
9832.000000;0.475603
9831.000000;0.474957
9830.000000;0.474434
9829.000000;0.474178
9828.000000;0.474101
9827.000000;0.473955
9826.000000;0.473537
9825.000000;0.472883
9824.000000;0.472214
9823.000000;0.471647
9822.000000;0.471052
9821.000000;0.470285
9820.000000;0.469462
9819.000000;0.468833
9818.000000;0.468458
9817.000000;0.468182
9816.000000;0.467884
9815.000000;0.467554
9814.000000;0.467141
9813.000000;0.466535
9812.000000;0.465764
9811.000000;0.465038
9810.000000;0.464519
9809.000000;0.464166
9808.000000;0.463866
9807.000000;0.463580
9806.000000;0.463277
9805.000000;0.462846
9804.000000;0.462187
9803.000000;0.461366
9802.000000;0.460609
9801.000000;0.460141
9800.000000;0.460029
9799.000000;0.460109
9798.000000;0.460054
9797.000000;0.459611
9796.000000;0.458834
9795.000000;0.458052
9794.000000;0.457550
9793.000000;0.457299
9792.000000;0.457000
9791.000000;0.456383
9790.000000;0.455459
9789.000000;0.454510
9788.000000;0.453849
9787.000000;0.453565
9786.000000;0.453482
9785.000000;0.453336
9784.000000;0.452967
9783.000000;0.452391
9782.000000;0.451747
9781.000000;0.451207
9780.000000;0.450833
9779.000000;0.450495
9778.000000;0.449994
9777.000000;0.449305
9776.000000;0.448626
9775.000000;0.448148
9774.000000;0.447866
9773.000000;0.447651
9772.000000;0.447394
9771.000000;0.447024
9770.000000;0.446526
9769.000000;0.446007
9768.000000;0.445622
9767.000000;0.445341
9766.000000;0.444934
9765.000000;0.444307
9764.000000;0.443682
9763.000000;0.443274
9762.000000;0.442952
9761.000000;0.442437
9760.000000;0.441731
9759.000000;0.441082
9758.000000;0.440582
9757.000000;0.440076
9756.000000;0.439494
9755.000000;0.439011
9754.000000;0.438780
9753.000000;0.438678
9752.000000;0.438441
9751.000000;0.437954
9750.000000;0.437323
9749.000000;0.436752
9748.000000;0.436372
9747.000000;0.436137
9746.000000;0.435862
9745.000000;0.435412
9744.000000;0.434832
9743.000000;0.434240
9742.000000;0.433636
9741.000000;0.432957
9740.000000;0.432259
9739.000000;0.431706
9738.000000;0.431352
9737.000000;0.431104
9736.000000;0.430892
9735.000000;0.430766
9734.000000;0.430751
9733.000000;0.430743
9732.000000;0.430594
9731.000000;0.430222
9730.000000;0.429629
9729.000000;0.428884
9728.000000;0.428137
9727.000000;0.427532
9726.000000;0.427083
9725.000000;0.426681
9724.000000;0.426259
9723.000000;0.425852
9722.000000;0.425499
9721.000000;0.425161
9720.000000;0.424764
9719.000000;0.424244
9718.000000;0.423542
9717.000000;0.422657
9716.000000;0.421715
9715.000000;0.420899
9714.000000;0.420281
9713.000000;0.419796
9712.000000;0.419384
9711.000000;0.419057
9710.000000;0.418782
9709.000000;0.418432
9708.000000;0.417950
9707.000000;0.417478
9706.000000;0.417216
9705.000000;0.417171
9704.000000;0.417115
9703.000000;0.416804
9702.000000;0.416205
9701.000000;0.415481
9700.000000;0.414795
9699.000000;0.414165
9698.000000;0.413522
9697.000000;0.412882
9696.000000;0.412387
9695.000000;0.412137
9694.000000;0.412058
9693.000000;0.411964
9692.000000;0.411742
9691.000000;0.411388
9690.000000;0.410918
9689.000000;0.410314
9688.000000;0.409581
9687.000000;0.408809
9686.000000;0.408130
9685.000000;0.407635
9684.000000;0.407327
9683.000000;0.407138
9682.000000;0.406987
9681.000000;0.406815
9680.000000;0.406578
9679.000000;0.406213
9678.000000;0.405688
9677.000000;0.405077
9676.000000;0.404527
9675.000000;0.404110
9674.000000;0.403750
9673.000000;0.403322
9672.000000;0.402783
9671.000000;0.402179
9670.000000;0.401585
9669.000000;0.401068
9668.000000;0.400672
9667.000000;0.400381
9666.000000;0.400125
9665.000000;0.399835
9664.000000;0.399462
9663.000000;0.398957
9662.000000;0.398295
9661.000000;0.397546
9660.000000;0.396856
9659.000000;0.396322
9658.000000;0.395947
9657.000000;0.395692
9656.000000;0.395505
9655.000000;0.395288
9654.000000;0.394962
9653.000000;0.394584
9652.000000;0.394270
9651.000000;0.393989
9650.000000;0.393576
9649.000000;0.392991
9648.000000;0.392416
9647.000000;0.392002
9646.000000;0.391685
9645.000000;0.391350
9644.000000;0.391023
9643.000000;0.390750
9642.000000;0.390430
9641.000000;0.389946
9640.000000;0.389387
9639.000000;0.388956
9638.000000;0.388693
9637.000000;0.388449
9636.000000;0.388079
9635.000000;0.387559
9634.000000;0.386933
9633.000000;0.386266
9632.000000;0.385655
9631.000000;0.385159
9630.000000;0.384746
9629.000000;0.384363
9628.000000;0.384017
9627.000000;0.383706
9626.000000;0.383336
9625.000000;0.382799
9624.000000;0.382097
9623.000000;0.381334
9622.000000;0.380633
9621.000000;0.380113
9620.000000;0.379856
9619.000000;0.379772
9618.000000;0.379611
9617.000000;0.379221
9616.000000;0.378732
9615.000000;0.378371
9614.000000;0.378160
9613.000000;0.377940
9612.000000;0.377595
9611.000000;0.377128
9610.000000;0.376575
9609.000000;0.376003
9608.000000;0.375554
9607.000000;0.375298
9606.000000;0.375089
9605.000000;0.374689
9604.000000;0.374048
9603.000000;0.373326
9602.000000;0.372666
9601.000000;0.372109
9600.000000;0.371703
9599.000000;0.371515
9598.000000;0.371475
9597.000000;0.371364
9596.000000;0.371024
9595.000000;0.370499
9594.000000;0.369931
9593.000000;0.369413
9592.000000;0.368966
9591.000000;0.368596
9590.000000;0.368290
9589.000000;0.367989
9588.000000;0.367603
9587.000000;0.367064
9586.000000;0.366393
9585.000000;0.365718
9584.000000;0.365183
9583.000000;0.364806
9582.000000;0.364482
9581.000000;0.364145
9580.000000;0.363843
9579.000000;0.363597
9578.000000;0.363303
9577.000000;0.362872
9576.000000;0.362380
9575.000000;0.361959
9574.000000;0.361597
9573.000000;0.361177
9572.000000;0.360679
9571.000000;0.360212
9570.000000;0.359860
9569.000000;0.359597
9568.000000;0.359351
9567.000000;0.359054
9566.000000;0.358654
9565.000000;0.358162
9564.000000;0.357675
9563.000000;0.357259
9562.000000;0.356856
9561.000000;0.356363
9560.000000;0.355792
9559.000000;0.355267
9558.000000;0.354896
9557.000000;0.354708
9556.000000;0.354653
9555.000000;0.354593
9554.000000;0.354334
9553.000000;0.353808
9552.000000;0.353170
9551.000000;0.352629
9550.000000;0.352221
9549.000000;0.351837
9548.000000;0.351400
9547.000000;0.350905
9546.000000;0.350332
9545.000000;0.349663
9544.000000;0.348986
9543.000000;0.348460
9542.000000;0.348159
9541.000000;0.348029
9540.000000;0.347964
9539.000000;0.347851
9538.000000;0.347573
9537.000000;0.347085
9536.000000;0.346482
9535.000000;0.345903
9534.000000;0.345406
9533.000000;0.344973
9532.000000;0.344596
9531.000000;0.344262
9530.000000;0.343926
9529.000000;0.343583
9528.000000;0.343330
9527.000000;0.343214
9526.000000;0.343081
9525.000000;0.342694
9524.000000;0.342015
9523.000000;0.341255
9522.000000;0.340647
9521.000000;0.340258
9520.000000;0.339997
9519.000000;0.339724
9518.000000;0.339357
9517.000000;0.338960
9516.000000;0.338693
9515.000000;0.338605
9514.000000;0.338521
9513.000000;0.338218
9512.000000;0.337676
9511.000000;0.337049
9510.000000;0.336446
9509.000000;0.335876
9508.000000;0.335374
9507.000000;0.335016
9506.000000;0.334792
9505.000000;0.334568
9504.000000;0.334230
9503.000000;0.333789
9502.000000;0.333337
9501.000000;0.332956
9500.000000;0.332661
9499.000000;0.332394
9498.000000;0.332065
9497.000000;0.331668
9496.000000;0.331307
9495.000000;0.331059
9494.000000;0.330867
9493.000000;0.330625
9492.000000;0.330312
9491.000000;0.329957
9490.000000;0.329561
9489.000000;0.329121
9488.000000;0.328676
9487.000000;0.328236
9486.000000;0.327740
9485.000000;0.327184
9484.000000;0.326712
9483.000000;0.326446
9482.000000;0.326307
9481.000000;0.326112
9480.000000;0.325816
9479.000000;0.325488
9478.000000;0.325131
9477.000000;0.324683
9476.000000;0.324189
9475.000000;0.323788
9474.000000;0.323517
9473.000000;0.323259
9472.000000;0.322913
9471.000000;0.322518
9470.000000;0.322159
9469.000000;0.321846
9468.000000;0.321502
9467.000000;0.321028
9466.000000;0.320411
9465.000000;0.319790
9464.000000;0.319373
9463.000000;0.319197
9462.000000;0.319061
9461.000000;0.318777
9460.000000;0.318408
9459.000000;0.318140
9458.000000;0.318010
9457.000000;0.317887
9456.000000;0.317646
9455.000000;0.317215
9454.000000;0.316536
9453.000000;0.315664
9452.000000;0.314872
9451.000000;0.314453
9450.000000;0.314404
9449.000000;0.314453
9448.000000;0.314360
9447.000000;0.314063
9446.000000;0.313574
9445.000000;0.312951
9444.000000;0.312369
9443.000000;0.312013
9442.000000;0.311858
9441.000000;0.311718
9440.000000;0.311524
9439.000000;0.311376
9438.000000;0.311294
9437.000000;0.311114
9436.000000;0.310713
9435.000000;0.310166
9434.000000;0.309580
9433.000000;0.308943
9432.000000;0.308237
9431.000000;0.307592
9430.000000;0.307176
9429.000000;0.306995
9428.000000;0.306876
9427.000000;0.306617
9426.000000;0.306133
9425.000000;0.305535
9424.000000;0.305072
9423.000000;0.304921
9422.000000;0.304981
9421.000000;0.304967
9420.000000;0.304715
9419.000000;0.304318
9418.000000;0.303934
9417.000000;0.303584
9416.000000;0.303203
9415.000000;0.302785
9414.000000;0.302374
9413.000000;0.301990
9412.000000;0.301632
9411.000000;0.301301
9410.000000;0.300962
9409.000000;0.300539
9408.000000;0.299986
9407.000000;0.299366
9406.000000;0.298817
9405.000000;0.298447
9404.000000;0.298278
9403.000000;0.298224
9402.000000;0.298148
9401.000000;0.297970
9400.000000;0.297745
9399.000000;0.297571
9398.000000;0.297442
9397.000000;0.297241
9396.000000;0.296879
9395.000000;0.296373
9394.000000;0.295798
9393.000000;0.295240
9392.000000;0.294774
9391.000000;0.294433
9390.000000;0.294173
9389.000000;0.293938
9388.000000;0.293727
9387.000000;0.293547
9386.000000;0.293327
9385.000000;0.292983
9384.000000;0.292538
9383.000000;0.292115
9382.000000;0.291775
9381.000000;0.291475
9380.000000;0.291160
9379.000000;0.290801
9378.000000;0.290366
9377.000000;0.289851
9376.000000;0.289373
9375.000000;0.289101
9374.000000;0.289060
9373.000000;0.289073
9372.000000;0.288925
9371.000000;0.288537
9370.000000;0.287971
9369.000000;0.287360
9368.000000;0.286846
9367.000000;0.286501
9366.000000;0.286256
9365.000000;0.285977
9364.000000;0.285634
9363.000000;0.285323
9362.000000;0.285134
9361.000000;0.285055
9360.000000;0.285003
9359.000000;0.284864
9358.000000;0.284520
9357.000000;0.283949
9356.000000;0.283319
9355.000000;0.282875
9354.000000;0.282688
9353.000000;0.282600
9352.000000;0.282441
9351.000000;0.282194
9350.000000;0.281891
9349.000000;0.281482
9348.000000;0.280903
9347.000000;0.280234
9346.000000;0.279678
9345.000000;0.279385
9344.000000;0.279330
9343.000000;0.279358
9342.000000;0.279300
9341.000000;0.279064
9340.000000;0.278667
9339.000000;0.278190
9338.000000;0.277717
9337.000000;0.277295
9336.000000;0.276925
9335.000000;0.276569
9334.000000;0.276199
9333.000000;0.275889
9332.000000;0.275784
9331.000000;0.275903
9330.000000;0.276023
9329.000000;0.275859
9328.000000;0.275359
9327.000000;0.274731
9326.000000;0.274183
9325.000000;0.273751
9324.000000;0.273380
9323.000000;0.273043
9322.000000;0.272722
9321.000000;0.272374
9320.000000;0.271994
9319.000000;0.271649
9318.000000;0.271392
9317.000000;0.271174
9316.000000;0.270904
9315.000000;0.270568
9314.000000;0.270233
9313.000000;0.269965
9312.000000;0.269769
9311.000000;0.269590
9310.000000;0.269336
9309.000000;0.268933
9308.000000;0.268402
9307.000000;0.267882
9306.000000;0.267540
9305.000000;0.267431
9304.000000;0.267439
9303.000000;0.267369
9302.000000;0.267124
9301.000000;0.266797
9300.000000;0.266544
9299.000000;0.266394
9298.000000;0.266227
9297.000000;0.265951
9296.000000;0.265612
9295.000000;0.265278
9294.000000;0.264898
9293.000000;0.264405
9292.000000;0.263880
9291.000000;0.263510
9290.000000;0.263348
9289.000000;0.263241
9288.000000;0.263019
9287.000000;0.262678
9286.000000;0.262344
9285.000000;0.262103
9284.000000;0.261913
9283.000000;0.261660
9282.000000;0.261292
9281.000000;0.260882
9280.000000;0.260542
9279.000000;0.260274
9278.000000;0.259959
9277.000000;0.259513
9276.000000;0.259024
9275.000000;0.258658
9274.000000;0.258470
9273.000000;0.258370
9272.000000;0.258243
9271.000000;0.258042
9270.000000;0.257776
9269.000000;0.257475
9268.000000;0.257180
9267.000000;0.256913
9266.000000;0.256670
9265.000000;0.256460
9264.000000;0.256306
9263.000000;0.256165
9262.000000;0.255920
9261.000000;0.255520
9260.000000;0.255075
9259.000000;0.254733
9258.000000;0.254501
9257.000000;0.254274
9256.000000;0.254008
9255.000000;0.253737
9254.000000;0.253468
9253.000000;0.253167
9252.000000;0.252856
9251.000000;0.252621
9250.000000;0.252469
9249.000000;0.252298
9248.000000;0.252026
9247.000000;0.251681
9246.000000;0.251343
9245.000000;0.251049
9244.000000;0.250786
9243.000000;0.250526
9242.000000;0.250248
9241.000000;0.249973
9240.000000;0.249764
9239.000000;0.249641
9238.000000;0.249510
9237.000000;0.249244
9236.000000;0.248845
9235.000000;0.248440
9234.000000;0.248129
9233.000000;0.247898
9232.000000;0.247704
9231.000000;0.247551
9230.000000;0.247449
9229.000000;0.247354
9228.000000;0.247195
9227.000000;0.246924
9226.000000;0.246529
9225.000000;0.246041
9224.000000;0.245546
9223.000000;0.245141
9222.000000;0.244869
9221.000000;0.244707
9220.000000;0.244619
9219.000000;0.244571
9218.000000;0.244504
9217.000000;0.244359
9216.000000;0.244147
9215.000000;0.243940
9214.000000;0.243771
9213.000000;0.243578
9212.000000;0.243275
9211.000000;0.242841
9210.000000;0.242347
9209.000000;0.241896
9208.000000;0.241542
9207.000000;0.241253
9206.000000;0.240960
9205.000000;0.240661
9204.000000;0.240427
9203.000000;0.240291
9202.000000;0.240182
9201.000000;0.240016
9200.000000;0.239780
9199.000000;0.239484
9198.000000;0.239106
9197.000000;0.238691
9196.000000;0.238401
9195.000000;0.238342
9194.000000;0.238369
9193.000000;0.238220
9192.000000;0.237845
9191.000000;0.237446
9190.000000;0.237173
9189.000000;0.236939
9188.000000;0.236593
9187.000000;0.236159
9186.000000;0.235791
9185.000000;0.235586
9184.000000;0.235515
9183.000000;0.235499
9182.000000;0.235470
9181.000000;0.235380
9180.000000;0.235221
9179.000000;0.235027
9178.000000;0.234819
9177.000000;0.234574
9176.000000;0.234268
9175.000000;0.233902
9174.000000;0.233489
9173.000000;0.233059
9172.000000;0.232693
9171.000000;0.232490
9170.000000;0.232449
9169.000000;0.232444
9168.000000;0.232362
9167.000000;0.232225
9166.000000;0.232109
9165.000000;0.231996
9164.000000;0.231780
9163.000000;0.231413
9162.000000;0.230962
9161.000000;0.230526
9160.000000;0.230146
9159.000000;0.229820
9158.000000;0.229574
9157.000000;0.229438
9156.000000;0.229371
9155.000000;0.229261
9154.000000;0.229022
9153.000000;0.228692
9152.000000;0.228400
9151.000000;0.228232
9150.000000;0.228132
9149.000000;0.227970
9148.000000;0.227663
9147.000000;0.227241
9146.000000;0.226814
9145.000000;0.226493
9144.000000;0.226352
9143.000000;0.226379
9142.000000;0.226460
9141.000000;0.226414
9140.000000;0.226112
9139.000000;0.225591
9138.000000;0.225058
9137.000000;0.224740
9136.000000;0.224697
9135.000000;0.224768
9134.000000;0.224729
9133.000000;0.224483
9132.000000;0.224118
9131.000000;0.223795
9130.000000;0.223618
9129.000000;0.223591
9128.000000;0.223605
9127.000000;0.223483
9126.000000;0.223094
9125.000000;0.222488
9124.000000;0.221874
9123.000000;0.221434
9122.000000;0.221200
9121.000000;0.221100
9120.000000;0.221064
9119.000000;0.221038
9118.000000;0.220952
9117.000000;0.220749
9116.000000;0.220432
9115.000000;0.220054
9114.000000;0.219672
9113.000000;0.219348
9112.000000;0.219148
9111.000000;0.219084
9110.000000;0.219070
9109.000000;0.218987
9108.000000;0.218799
9107.000000;0.218570
9106.000000;0.218371
9105.000000;0.218192
9104.000000;0.217974
9103.000000;0.217687
9102.000000;0.217372
9101.000000;0.217082
9100.000000;0.216818
9099.000000;0.216542
9098.000000;0.216257
9097.000000;0.216019
9096.000000;0.215843
9095.000000;0.215647
9094.000000;0.215360
9093.000000;0.215036
9092.000000;0.214781
9091.000000;0.214589
9090.000000;0.214383
9089.000000;0.214201
9088.000000;0.214204
9087.000000;0.214441
9086.000000;0.214719
9085.000000;0.214796
9084.000000;0.214619
9083.000000;0.214283
9082.000000;0.213861
9081.000000;0.213365
9080.000000;0.212850
9079.000000;0.212422
9078.000000;0.212139
9077.000000;0.211977
9076.000000;0.211883
9075.000000;0.211818
9074.000000;0.211759
9073.000000;0.211698
9072.000000;0.211640
9071.000000;0.211573
9070.000000;0.211453
9069.000000;0.211249
9068.000000;0.210971
9067.000000;0.210631
9066.000000;0.210225
9065.000000;0.209787
9064.000000;0.209409
9063.000000;0.209175
9062.000000;0.209086
9061.000000;0.209069
9060.000000;0.209035
9059.000000;0.208917
9058.000000;0.208703
9057.000000;0.208457
9056.000000;0.208261
9055.000000;0.208098
9054.000000;0.207872
9053.000000;0.207547
