Criado como novo conjunto de dados;"e2410_daniel_v2.spp","27723.7 Secs"
cm-1;Abs
10000.000000;0.506297
9999.000000;0.505686
9998.000000;0.505276
9997.000000;0.505061
9996.000000;0.504865
9995.000000;0.504491
9994.000000;0.503952
9993.000000;0.503414
9992.000000;0.502938
9991.000000;0.502456
9990.000000;0.501953
9989.000000;0.501483
9988.000000;0.501004
9987.000000;0.500404
9986.000000;0.499699
9985.000000;0.499033
9984.000000;0.498454
9983.000000;0.497904
9982.000000;0.497418
9981.000000;0.497130
9980.000000;0.497028
9979.000000;0.496910
9978.000000;0.496633
9977.000000;0.496217
9976.000000;0.495683
9975.000000;0.495005
9974.000000;0.494259
9973.000000;0.493607
9972.000000;0.493074
9971.000000;0.492522
9970.000000;0.491893
9969.000000;0.491269
9968.000000;0.490669
9967.000000;0.490017
9966.000000;0.489366
9965.000000;0.488932
9964.000000;0.488783
9963.000000;0.488734
9962.000000;0.488621
9961.000000;0.488441
9960.000000;0.488136
9959.000000;0.487528
9958.000000;0.486657
9957.000000;0.485919
9956.000000;0.485649
9955.000000;0.485703
9954.000000;0.485651
9953.000000;0.485246
9952.000000;0.484523
9951.000000;0.483593
9950.000000;0.482552
9949.000000;0.481518
9948.000000;0.480612
9947.000000;0.479905
9946.000000;0.479458
9945.000000;0.479284
9944.000000;0.479193
9943.000000;0.478855
9942.000000;0.478149
9941.000000;0.477339
9940.000000;0.476749
9939.000000;0.476396
9938.000000;0.476078
9937.000000;0.475683
9936.000000;0.475246
9935.000000;0.474798
9934.000000;0.474345
9933.000000;0.473942
9932.000000;0.473617
9931.000000;0.473282
9930.000000;0.472839
9929.000000;0.472319
9928.000000;0.471810
9927.000000;0.471300
9926.000000;0.470736
9925.000000;0.470171
9924.000000;0.469727
9923.000000;0.469422
9922.000000;0.469127
9921.000000;0.468723
9920.000000;0.468205
9919.000000;0.467657
9918.000000;0.467150
9917.000000;0.466675
9916.000000;0.466177
9915.000000;0.465680
9914.000000;0.465356
9913.000000;0.465316
9912.000000;0.465348
9911.000000;0.465016
9910.000000;0.464113
9909.000000;0.462907
9908.000000;0.461840
9907.000000;0.461114
9906.000000;0.460645
9905.000000;0.460296
9904.000000;0.459979
9903.000000;0.459604
9902.000000;0.459074
9901.000000;0.458370
9900.000000;0.457596
9899.000000;0.456919
9898.000000;0.456472
9897.000000;0.456238
9896.000000;0.456021
9895.000000;0.455594
9894.000000;0.454926
9893.000000;0.454210
9892.000000;0.453652
9891.000000;0.453279
9890.000000;0.452977
9889.000000;0.452618
9888.000000;0.452129
9887.000000;0.451532
9886.000000;0.450969
9885.000000;0.450607
9884.000000;0.450469
9883.000000;0.450420
9882.000000;0.450303
9881.000000;0.450023
9880.000000;0.449505
9879.000000;0.448724
9878.000000;0.447805
9877.000000;0.446962
9876.000000;0.446303
9875.000000;0.445769
9874.000000;0.445283
9873.000000;0.444825
9872.000000;0.444353
9871.000000;0.443811
9870.000000;0.443269
9869.000000;0.442902
9868.000000;0.442739
9867.000000;0.442565
9866.000000;0.442178
9865.000000;0.441626
9864.000000;0.441090
9863.000000;0.440639
9862.000000;0.440203
9861.000000;0.439711
9860.000000;0.439168
9859.000000;0.438642
9858.000000;0.438228
9857.000000;0.437950
9856.000000;0.437671
9855.000000;0.437165
9854.000000;0.436367
9853.000000;0.435470
9852.000000;0.434718
9851.000000;0.434195
9850.000000;0.433840
9849.000000;0.433568
9848.000000;0.433296
9847.000000;0.432920
9846.000000;0.432388
9845.000000;0.431739
9844.000000;0.431058
9843.000000;0.430405
9842.000000;0.429833
9841.000000;0.429380
9840.000000;0.429038
9839.000000;0.428771
9838.000000;0.428577
9837.000000;0.428445
9836.000000;0.428254
9835.000000;0.427842
9834.000000;0.427185
9833.000000;0.426414
9832.000000;0.425639
9831.000000;0.424877
9830.000000;0.424175
9829.000000;0.423647
9828.000000;0.423309
9827.000000;0.423029
9826.000000;0.422693
9825.000000;0.422339
9824.000000;0.422043
9823.000000;0.421771
9822.000000;0.421415
9821.000000;0.420915
9820.000000;0.420306
9819.000000;0.419698
9818.000000;0.419237
9817.000000;0.418986
9816.000000;0.418835
9815.000000;0.418607
9814.000000;0.418262
9813.000000;0.417884
9812.000000;0.417478
9811.000000;0.416931
9810.000000;0.416223
9809.000000;0.415519
9808.000000;0.414953
9807.000000;0.414484
9806.000000;0.414015
9805.000000;0.413556
9804.000000;0.413159
9803.000000;0.412794
9802.000000;0.412382
9801.000000;0.411893
9800.000000;0.411337
9799.000000;0.410743
9798.000000;0.410186
9797.000000;0.409742
9796.000000;0.409362
9795.000000;0.408901
9794.000000;0.408311
9793.000000;0.407720
9792.000000;0.407254
9791.000000;0.406891
9790.000000;0.406558
9789.000000;0.406240
9788.000000;0.405912
9787.000000;0.405472
9786.000000;0.404849
9785.000000;0.404114
9784.000000;0.403394
9783.000000;0.402731
9782.000000;0.402126
9781.000000;0.401641
9780.000000;0.401364
9779.000000;0.401254
9778.000000;0.401123
9777.000000;0.400771
9776.000000;0.400152
9775.000000;0.399421
9774.000000;0.398823
9773.000000;0.398497
9772.000000;0.398354
9771.000000;0.398185
9770.000000;0.397844
9769.000000;0.397309
9768.000000;0.396622
9767.000000;0.395874
9766.000000;0.395206
9765.000000;0.394692
9764.000000;0.394235
9763.000000;0.393708
9762.000000;0.393172
9761.000000;0.392799
9760.000000;0.392589
9759.000000;0.392328
9758.000000;0.391880
9757.000000;0.391349
9756.000000;0.390889
9755.000000;0.390501
9754.000000;0.390112
9753.000000;0.389709
9752.000000;0.389320
9751.000000;0.388941
9750.000000;0.388574
9749.000000;0.388247
9748.000000;0.387938
9747.000000;0.387555
9746.000000;0.387046
9745.000000;0.386458
9744.000000;0.385849
9743.000000;0.385230
9742.000000;0.384638
9741.000000;0.384148
9740.000000;0.383769
9739.000000;0.383421
9738.000000;0.383042
9737.000000;0.382634
9736.000000;0.382186
9735.000000;0.381658
9734.000000;0.381092
9733.000000;0.380609
9732.000000;0.380236
9731.000000;0.379846
9730.000000;0.379329
9729.000000;0.378738
9728.000000;0.378205
9727.000000;0.377784
9726.000000;0.377451
9725.000000;0.377172
9724.000000;0.376909
9723.000000;0.376610
9722.000000;0.376238
9721.000000;0.375776
9720.000000;0.375210
9719.000000;0.374567
9718.000000;0.373957
9717.000000;0.373467
9716.000000;0.373043
9715.000000;0.372576
9714.000000;0.372072
9713.000000;0.371604
9712.000000;0.371125
9711.000000;0.370498
9710.000000;0.369759
9709.000000;0.369146
9708.000000;0.368821
9707.000000;0.368698
9706.000000;0.368606
9705.000000;0.368464
9704.000000;0.368246
9703.000000;0.367931
9702.000000;0.367566
9701.000000;0.367238
9700.000000;0.366904
9699.000000;0.366389
9698.000000;0.365641
9697.000000;0.364853
9696.000000;0.364225
9695.000000;0.363744
9694.000000;0.363304
9693.000000;0.362915
9692.000000;0.362644
9691.000000;0.362454
9690.000000;0.362227
9689.000000;0.361895
9688.000000;0.361459
9687.000000;0.360904
9686.000000;0.360203
9685.000000;0.359386
9684.000000;0.358554
9683.000000;0.357847
9682.000000;0.357390
9681.000000;0.357192
9680.000000;0.357094
9679.000000;0.356895
9678.000000;0.356570
9677.000000;0.356261
9676.000000;0.356031
9675.000000;0.355754
9674.000000;0.355295
9673.000000;0.354679
9672.000000;0.354035
9671.000000;0.353465
9670.000000;0.353022
9669.000000;0.352706
9668.000000;0.352402
9667.000000;0.351936
9666.000000;0.351273
9665.000000;0.350581
9664.000000;0.350035
9663.000000;0.349666
9662.000000;0.349413
9661.000000;0.349220
9660.000000;0.349011
9659.000000;0.348682
9658.000000;0.348228
9657.000000;0.347773
9656.000000;0.347403
9655.000000;0.347054
9654.000000;0.346641
9653.000000;0.346191
9652.000000;0.345767
9651.000000;0.345345
9650.000000;0.344867
9649.000000;0.344353
9648.000000;0.343880
9647.000000;0.343480
9646.000000;0.343125
9645.000000;0.342759
9644.000000;0.342307
9643.000000;0.341716
9642.000000;0.341044
9641.000000;0.340428
9640.000000;0.339955
9639.000000;0.339604
9638.000000;0.339335
9637.000000;0.339130
9636.000000;0.338931
9635.000000;0.338648
9634.000000;0.338284
9633.000000;0.337934
9632.000000;0.337626
9631.000000;0.337271
9630.000000;0.336821
9629.000000;0.336352
9628.000000;0.335936
9627.000000;0.335520
9626.000000;0.335041
9625.000000;0.334547
9624.000000;0.334131
9623.000000;0.333822
9622.000000;0.333581
9621.000000;0.333339
9620.000000;0.332996
9619.000000;0.332486
9618.000000;0.331877
9617.000000;0.331299
9616.000000;0.330765
9615.000000;0.330177
9614.000000;0.329563
9613.000000;0.329128
9612.000000;0.328980
9611.000000;0.328948
9610.000000;0.328767
9609.000000;0.328347
9608.000000;0.327761
9607.000000;0.327110
9606.000000;0.326519
9605.000000;0.326160
9604.000000;0.326094
9603.000000;0.326151
9602.000000;0.326064
9601.000000;0.325716
9600.000000;0.325178
9599.000000;0.324574
9598.000000;0.323979
9597.000000;0.323414
9596.000000;0.322869
9595.000000;0.322353
9594.000000;0.321942
9593.000000;0.321696
9592.000000;0.321515
9591.000000;0.321185
9590.000000;0.320640
9589.000000;0.320034
9588.000000;0.319512
9587.000000;0.319032
9586.000000;0.318511
9585.000000;0.318018
9584.000000;0.317684
9583.000000;0.317489
9582.000000;0.317281
9581.000000;0.316960
9580.000000;0.316541
9579.000000;0.316101
9578.000000;0.315733
9577.000000;0.315516
9576.000000;0.315392
9575.000000;0.315146
9574.000000;0.314585
9573.000000;0.313747
9572.000000;0.312873
9571.000000;0.312201
9570.000000;0.311830
9569.000000;0.311704
9568.000000;0.311657
9567.000000;0.311523
9566.000000;0.311248
9565.000000;0.310882
9564.000000;0.310444
9563.000000;0.309913
9562.000000;0.309359
9561.000000;0.308939
9560.000000;0.308668
9559.000000;0.308341
9558.000000;0.307791
9557.000000;0.307142
9556.000000;0.306666
9555.000000;0.306456
9554.000000;0.306366
9553.000000;0.306210
9552.000000;0.305900
9551.000000;0.305427
9550.000000;0.304846
9549.000000;0.304281
9548.000000;0.303843
9547.000000;0.303522
9546.000000;0.303220
9545.000000;0.302868
9544.000000;0.302466
9543.000000;0.302057
9542.000000;0.301699
9541.000000;0.301420
9540.000000;0.301143
9539.000000;0.300726
9538.000000;0.300143
9537.000000;0.299562
9536.000000;0.299167
9535.000000;0.298956
9534.000000;0.298798
9533.000000;0.298606
9532.000000;0.298369
9531.000000;0.298064
9530.000000;0.297670
9529.000000;0.297244
9528.000000;0.296882
9527.000000;0.296572
9526.000000;0.296174
9525.000000;0.295568
9524.000000;0.294783
9523.000000;0.293982
9522.000000;0.293377
9521.000000;0.293103
9520.000000;0.293102
9519.000000;0.293131
9518.000000;0.292945
9517.000000;0.292499
9516.000000;0.291943
9515.000000;0.291465
9514.000000;0.291154
9513.000000;0.290984
9512.000000;0.290842
9511.000000;0.290589
9510.000000;0.290159
9509.000000;0.289620
9508.000000;0.289112
9507.000000;0.288715
9506.000000;0.288402
9505.000000;0.288084
9504.000000;0.287676
9503.000000;0.287162
9502.000000;0.286636
9501.000000;0.286237
9500.000000;0.285998
9499.000000;0.285779
9498.000000;0.285418
9497.000000;0.284915
9496.000000;0.284408
9495.000000;0.283988
9494.000000;0.283622
9493.000000;0.283260
9492.000000;0.282925
9491.000000;0.282637
9490.000000;0.282290
9489.000000;0.281735
9488.000000;0.281011
9487.000000;0.280415
9486.000000;0.280232
9485.000000;0.280409
9484.000000;0.280564
9483.000000;0.280353
9482.000000;0.279785
9481.000000;0.279125
9480.000000;0.278594
9479.000000;0.278209
9478.000000;0.277867
9477.000000;0.277481
9476.000000;0.277044
9475.000000;0.276621
9474.000000;0.276298
9473.000000;0.276064
9472.000000;0.275800
9471.000000;0.275413
9470.000000;0.274958
9469.000000;0.274546
9468.000000;0.274184
9467.000000;0.273791
9466.000000;0.273359
9465.000000;0.272971
9464.000000;0.272685
9463.000000;0.272473
9462.000000;0.272282
9461.000000;0.272070
9460.000000;0.271787
9459.000000;0.271414
9458.000000;0.271035
9457.000000;0.270744
9456.000000;0.270504
9455.000000;0.270180
9454.000000;0.269745
9453.000000;0.269323
9452.000000;0.269019
9451.000000;0.268772
9450.000000;0.268451
9449.000000;0.268000
9448.000000;0.267474
9447.000000;0.266980
9446.000000;0.266603
9445.000000;0.266340
9444.000000;0.266089
9443.000000;0.265762
9442.000000;0.265378
9441.000000;0.264999
9440.000000;0.264613
9439.000000;0.264186
9438.000000;0.263792
9437.000000;0.263545
9436.000000;0.263413
9435.000000;0.263228
9434.000000;0.262927
9433.000000;0.262628
9432.000000;0.262434
9431.000000;0.262280
9430.000000;0.262038
9429.000000;0.261651
9428.000000;0.261127
9427.000000;0.260506
9426.000000;0.259897
9425.000000;0.259426
9424.000000;0.259090
9423.000000;0.258737
9422.000000;0.258265
9421.000000;0.257768
9420.000000;0.257420
9419.000000;0.257287
9418.000000;0.257291
9417.000000;0.257278
9416.000000;0.257080
9415.000000;0.256611
9414.000000;0.255981
9413.000000;0.255441
9412.000000;0.255139
9411.000000;0.254976
9410.000000;0.254757
9409.000000;0.254406
9408.000000;0.253985
9407.000000;0.253553
9406.000000;0.253116
9405.000000;0.252659
9404.000000;0.252203
9403.000000;0.251810
9402.000000;0.251550
9401.000000;0.251438
9400.000000;0.251386
9399.000000;0.251281
9398.000000;0.251092
9397.000000;0.250843
9396.000000;0.250513
9395.000000;0.250058
9394.000000;0.249530
9393.000000;0.249065
9392.000000;0.248724
9391.000000;0.248453
9390.000000;0.248194
9389.000000;0.247948
9388.000000;0.247707
9387.000000;0.247437
9386.000000;0.247154
9385.000000;0.246906
9384.000000;0.246638
9383.000000;0.246212
9382.000000;0.245617
9381.000000;0.245046
9380.000000;0.244673
9379.000000;0.244442
9378.000000;0.244167
9377.000000;0.243742
9376.000000;0.243202
9375.000000;0.242669
9374.000000;0.242302
9373.000000;0.242220
9372.000000;0.242359
9371.000000;0.242470
9370.000000;0.242351
9369.000000;0.242041
9368.000000;0.241713
9367.000000;0.241438
9366.000000;0.241128
9365.000000;0.240685
9364.000000;0.240128
9363.000000;0.239574
9362.000000;0.239146
9361.000000;0.238882
9360.000000;0.238694
9359.000000;0.238439
9358.000000;0.238060
9357.000000;0.237629
9356.000000;0.237245
9355.000000;0.236955
9354.000000;0.236773
9353.000000;0.236695
9352.000000;0.236641
9351.000000;0.236439
9350.000000;0.235963
9349.000000;0.235256
9348.000000;0.234522
9347.000000;0.233971
9346.000000;0.233685
9345.000000;0.233577
9344.000000;0.233470
9343.000000;0.233256
9342.000000;0.232980
9341.000000;0.232742
9340.000000;0.232549
9339.000000;0.232345
9338.000000;0.232135
9337.000000;0.231967
9336.000000;0.231800
9335.000000;0.231511
9334.000000;0.231077
9333.000000;0.230644
9332.000000;0.230355
9331.000000;0.230201
9330.000000;0.230069
9329.000000;0.229870
9328.000000;0.229559
9327.000000;0.229139
9326.000000;0.228670
9325.000000;0.228250
9324.000000;0.227929
9323.000000;0.227675
9322.000000;0.227435
9321.000000;0.227160
9320.000000;0.226808
9319.000000;0.226397
9318.000000;0.226060
9317.000000;0.225919
9316.000000;0.225890
9315.000000;0.225733
9314.000000;0.225336
9313.000000;0.224853
9312.000000;0.224511
9311.000000;0.224359
9310.000000;0.224274
9309.000000;0.224097
9308.000000;0.223742
9307.000000;0.223238
9306.000000;0.222725
9305.000000;0.222330
9304.000000;0.222020
9303.000000;0.221659
9302.000000;0.221221
9301.000000;0.220826
9300.000000;0.220545
9299.000000;0.220296
9298.000000;0.220001
9297.000000;0.219710
9296.000000;0.219492
9295.000000;0.219295
9294.000000;0.219021
9293.000000;0.218681
9292.000000;0.218368
9291.000000;0.218130
9290.000000;0.217943
9289.000000;0.217758
9288.000000;0.217534
9287.000000;0.217255
9286.000000;0.216956
9285.000000;0.216697
9284.000000;0.216487
9283.000000;0.216284
9282.000000;0.216072
9281.000000;0.215875
9280.000000;0.215665
9279.000000;0.215373
9278.000000;0.215004
9277.000000;0.214656
9276.000000;0.214388
9275.000000;0.214156
9274.000000;0.213919
9273.000000;0.213703
9272.000000;0.213495
9271.000000;0.213212
9270.000000;0.212823
9269.000000;0.212433
9268.000000;0.212134
9267.000000;0.211890
9266.000000;0.211609
9265.000000;0.211275
9264.000000;0.210919
9263.000000;0.210545
9262.000000;0.210171
9261.000000;0.209865
9260.000000;0.209647
9259.000000;0.209421
9258.000000;0.209086
9257.000000;0.208688
9256.000000;0.208365
9255.000000;0.208191
9254.000000;0.208139
9253.000000;0.208136
9252.000000;0.208083
9251.000000;0.207882
9250.000000;0.207512
9249.000000;0.207081
9248.000000;0.206722
9247.000000;0.206485
9246.000000;0.206337
9245.000000;0.206232
9244.000000;0.206117
9243.000000;0.205924
9242.000000;0.205618
9241.000000;0.205223
9240.000000;0.204783
9239.000000;0.204330
9238.000000;0.203924
9237.000000;0.203641
9236.000000;0.203474
9235.000000;0.203314
9234.000000;0.203082
9233.000000;0.202829
9232.000000;0.202646
9231.000000;0.202532
9230.000000;0.202406
9229.000000;0.202207
9228.000000;0.201915
9227.000000;0.201525
9226.000000;0.201076
9225.000000;0.200670
9224.000000;0.200398
9223.000000;0.200250
9222.000000;0.200142
9221.000000;0.200006
9220.000000;0.199815
9219.000000;0.199562
9218.000000;0.199261
9217.000000;0.198958
9216.000000;0.198712
9215.000000;0.198556
9214.000000;0.198464
9213.000000;0.198361
9212.000000;0.198157
9211.000000;0.197848
9210.000000;0.197538
9209.000000;0.197314
9208.000000;0.197111
9207.000000;0.196796
9206.000000;0.196376
9205.000000;0.196006
9204.000000;0.195788
9203.000000;0.195654
9202.000000;0.195493
9201.000000;0.195286
9200.000000;0.195055
9199.000000;0.194780
9198.000000;0.194434
9197.000000;0.194046
9196.000000;0.193671
9195.000000;0.193345
9194.000000;0.193098
9193.000000;0.192943
9192.000000;0.192827
9191.000000;0.192667
9190.000000;0.192449
9189.000000;0.192229
9188.000000;0.192017
9187.000000;0.191749
9186.000000;0.191405
9185.000000;0.191062
9184.000000;0.190790
9183.000000;0.190589
9182.000000;0.190461
9181.000000;0.190419
9180.000000;0.190384
9179.000000;0.190202
9178.000000;0.189847
9177.000000;0.189500
9176.000000;0.189329
9175.000000;0.189285
9174.000000;0.189209
9173.000000;0.189039
9172.000000;0.188806
9171.000000;0.188520
9170.000000;0.188183
9169.000000;0.187854
9168.000000;0.187588
9167.000000;0.187358
9166.000000;0.187132
9165.000000;0.186965
9164.000000;0.186907
9163.000000;0.186860
9162.000000;0.186665
9161.000000;0.186288
9160.000000;0.185839
9159.000000;0.185411
9158.000000;0.185003
9157.000000;0.184600
9156.000000;0.184223
9155.000000;0.183897
9154.000000;0.183623
9153.000000;0.183399
9152.000000;0.183227
9151.000000;0.183113
9150.000000;0.183089
9149.000000;0.183203
9148.000000;0.183424
9147.000000;0.183597
9146.000000;0.183558
9145.000000;0.183277
9144.000000;0.182849
9143.000000;0.182380
9142.000000;0.181928
9141.000000;0.181538
9140.000000;0.181237
9139.000000;0.181002
9138.000000;0.180800
9137.000000;0.180647
9136.000000;0.180561
9135.000000;0.180481
9134.000000;0.180288
9133.000000;0.179936
9132.000000;0.179515
9131.000000;0.179171
9130.000000;0.178991
9129.000000;0.178956
9128.000000;0.178970
9127.000000;0.178927
9126.000000;0.178777
9125.000000;0.178536
9124.000000;0.178254
9123.000000;0.177980
9122.000000;0.177750
9121.000000;0.177568
9120.000000;0.177389
9119.000000;0.177137
9118.000000;0.176785
9117.000000;0.176377
9116.000000;0.175980
9115.000000;0.175639
9114.000000;0.175372
9113.000000;0.175178
9112.000000;0.175022
9111.000000;0.174863
9110.000000;0.174702
9109.000000;0.174564
9108.000000;0.174445
9107.000000;0.174313
9106.000000;0.174166
9105.000000;0.174013
9104.000000;0.173811
9103.000000;0.173506
9102.000000;0.173147
9101.000000;0.172869
9100.000000;0.172723
9099.000000;0.172621
9098.000000;0.172479
9097.000000;0.172326
9096.000000;0.172210
9095.000000;0.172074
9094.000000;0.171833
9093.000000;0.171501
9092.000000;0.171178
9091.000000;0.170922
9090.000000;0.170732
9089.000000;0.170594
9088.000000;0.170491
9087.000000;0.170369
9086.000000;0.170180
9085.000000;0.169956
9084.000000;0.169792
9083.000000;0.169725
9082.000000;0.169685
9081.000000;0.169540
9080.000000;0.169213
9079.000000;0.168748
9078.000000;0.168303
9077.000000;0.168040
9076.000000;0.168000
9075.000000;0.168082
9074.000000;0.168141
9073.000000;0.168083
9072.000000;0.167888
9071.000000;0.167597
9070.000000;0.167284
9069.000000;0.167009
9068.000000;0.166760
9067.000000;0.166501
9066.000000;0.166245
9065.000000;0.166032
9064.000000;0.165840
9063.000000;0.165592
9062.000000;0.165276
9061.000000;0.164968
9060.000000;0.164728
9059.000000;0.164534
9058.000000;0.164357
9057.000000;0.164211
9056.000000;0.164086
9055.000000;0.163927
9054.000000;0.163724
9053.000000;0.163544
