Criado como novo conjunto de dados;"e2410_daniel_v2.spp","16922.6 Secs"
cm-1;Abs
10000.000000;0.290293
9999.000000;0.289675
9998.000000;0.289095
9997.000000;0.288579
9996.000000;0.288192
9995.000000;0.288008
9994.000000;0.287938
9993.000000;0.287732
9992.000000;0.287232
9991.000000;0.286549
9990.000000;0.285913
9989.000000;0.285426
9988.000000;0.285043
9987.000000;0.284699
9986.000000;0.284326
9985.000000;0.283824
9984.000000;0.283155
9983.000000;0.282437
9982.000000;0.281834
9981.000000;0.281373
9980.000000;0.280934
9979.000000;0.280418
9978.000000;0.279826
9977.000000;0.279185
9976.000000;0.278504
9975.000000;0.277835
9974.000000;0.277300
9973.000000;0.276986
9972.000000;0.276830
9971.000000;0.276643
9970.000000;0.276251
9969.000000;0.275622
9968.000000;0.274869
9967.000000;0.274144
9966.000000;0.273530
9965.000000;0.273033
9964.000000;0.272629
9963.000000;0.272285
9962.000000;0.271936
9961.000000;0.271525
9960.000000;0.271092
9959.000000;0.270747
9958.000000;0.270515
9957.000000;0.270237
9956.000000;0.269718
9955.000000;0.268969
9954.000000;0.268225
9953.000000;0.267700
9952.000000;0.267368
9951.000000;0.267013
9950.000000;0.266480
9949.000000;0.265820
9948.000000;0.265185
9947.000000;0.264625
9946.000000;0.264065
9945.000000;0.263448
9944.000000;0.262827
9943.000000;0.262278
9942.000000;0.261817
9941.000000;0.261439
9940.000000;0.261166
9939.000000;0.260956
9938.000000;0.260636
9937.000000;0.260071
9936.000000;0.259382
9935.000000;0.258847
9934.000000;0.258542
9933.000000;0.258205
9932.000000;0.257536
9931.000000;0.256562
9930.000000;0.255621
9929.000000;0.255023
9928.000000;0.254785
9927.000000;0.254653
9926.000000;0.254342
9925.000000;0.253774
9924.000000;0.253111
9923.000000;0.252565
9922.000000;0.252177
9921.000000;0.251837
9920.000000;0.251475
9919.000000;0.251132
9918.000000;0.250850
9917.000000;0.250564
9916.000000;0.250177
9915.000000;0.249659
9914.000000;0.249030
9913.000000;0.248330
9912.000000;0.247633
9911.000000;0.247048
9910.000000;0.246635
9909.000000;0.246346
9908.000000;0.246078
9907.000000;0.245752
9906.000000;0.245325
9905.000000;0.244780
9904.000000;0.244150
9903.000000;0.243503
9902.000000;0.242880
9901.000000;0.242311
9900.000000;0.241867
9899.000000;0.241608
9898.000000;0.241438
9897.000000;0.241129
9896.000000;0.240557
9895.000000;0.239825
9894.000000;0.239099
9893.000000;0.238430
9892.000000;0.237809
9891.000000;0.237286
9890.000000;0.236916
9889.000000;0.236632
9888.000000;0.236308
9887.000000;0.235916
9886.000000;0.235501
9885.000000;0.235052
9884.000000;0.234508
9883.000000;0.233863
9882.000000;0.233172
9881.000000;0.232453
9880.000000;0.231712
9879.000000;0.231054
9878.000000;0.230639
9877.000000;0.230490
9876.000000;0.230422
9875.000000;0.230223
9874.000000;0.229844
9873.000000;0.229397
9872.000000;0.229010
9871.000000;0.228723
9870.000000;0.228465
9869.000000;0.228107
9868.000000;0.227570
9867.000000;0.226913
9866.000000;0.226294
9865.000000;0.225842
9864.000000;0.225558
9863.000000;0.225320
9862.000000;0.224965
9861.000000;0.224395
9860.000000;0.223668
9859.000000;0.222955
9858.000000;0.222393
9857.000000;0.221957
9856.000000;0.221540
9855.000000;0.221101
9854.000000;0.220674
9853.000000;0.220266
9852.000000;0.219820
9851.000000;0.219313
9850.000000;0.218784
9849.000000;0.218259
9848.000000;0.217710
9847.000000;0.217127
9846.000000;0.216576
9845.000000;0.216137
9844.000000;0.215801
9843.000000;0.215482
9842.000000;0.215099
9841.000000;0.214632
9840.000000;0.214104
9839.000000;0.213561
9838.000000;0.213052
9837.000000;0.212598
9836.000000;0.212172
9835.000000;0.211709
9834.000000;0.211166
9833.000000;0.210575
9832.000000;0.210031
9831.000000;0.209593
9830.000000;0.209211
9829.000000;0.208771
9828.000000;0.208235
9827.000000;0.207693
9826.000000;0.207256
9825.000000;0.206942
9824.000000;0.206670
9823.000000;0.206368
9822.000000;0.206025
9821.000000;0.205670
9820.000000;0.205329
9819.000000;0.204992
9818.000000;0.204605
9817.000000;0.204100
9816.000000;0.203495
9815.000000;0.202908
9814.000000;0.202430
9813.000000;0.201994
9812.000000;0.201432
9811.000000;0.200671
9810.000000;0.199833
9809.000000;0.199112
9808.000000;0.198625
9807.000000;0.198355
9806.000000;0.198207
9805.000000;0.198051
9804.000000;0.197771
9803.000000;0.197321
9802.000000;0.196734
9801.000000;0.196089
9800.000000;0.195463
9799.000000;0.194920
9798.000000;0.194501
9797.000000;0.194186
9796.000000;0.193877
9795.000000;0.193472
9794.000000;0.192963
9793.000000;0.192453
9792.000000;0.192027
9791.000000;0.191651
9790.000000;0.191203
9789.000000;0.190638
9788.000000;0.190060
9787.000000;0.189600
9786.000000;0.189268
9785.000000;0.188959
9784.000000;0.188606
9783.000000;0.188235
9782.000000;0.187875
9781.000000;0.187491
9780.000000;0.187038
9779.000000;0.186530
9778.000000;0.186001
9777.000000;0.185459
9776.000000;0.184914
9775.000000;0.184412
9774.000000;0.183983
9773.000000;0.183568
9772.000000;0.183091
9771.000000;0.182579
9770.000000;0.182148
9769.000000;0.181855
9768.000000;0.181619
9767.000000;0.181289
9766.000000;0.180759
9765.000000;0.180045
9764.000000;0.179277
9763.000000;0.178629
9762.000000;0.178192
9761.000000;0.177890
9760.000000;0.177558
9759.000000;0.177097
9758.000000;0.176536
9757.000000;0.175968
9756.000000;0.175467
9755.000000;0.175065
9754.000000;0.174766
9753.000000;0.174547
9752.000000;0.174371
9751.000000;0.174200
9750.000000;0.173975
9749.000000;0.173614
9748.000000;0.173074
9747.000000;0.172422
9746.000000;0.171791
9745.000000;0.171268
9744.000000;0.170820
9743.000000;0.170364
9742.000000;0.169846
9741.000000;0.169270
9740.000000;0.168686
9739.000000;0.168160
9738.000000;0.167738
9737.000000;0.167414
9736.000000;0.167146
9735.000000;0.166888
9734.000000;0.166586
9733.000000;0.166158
9732.000000;0.165553
9731.000000;0.164828
9730.000000;0.164140
9729.000000;0.163613
9728.000000;0.163262
9727.000000;0.163019
9726.000000;0.162793
9725.000000;0.162498
9724.000000;0.162063
9723.000000;0.161480
9722.000000;0.160835
9721.000000;0.160270
9720.000000;0.159883
9719.000000;0.159651
9718.000000;0.159427
9717.000000;0.159042
9716.000000;0.158456
9715.000000;0.157801
9714.000000;0.157233
9713.000000;0.156767
9712.000000;0.156290
9711.000000;0.155731
9710.000000;0.155151
9709.000000;0.154664
9708.000000;0.154311
9707.000000;0.154063
9706.000000;0.153868
9705.000000;0.153666
9704.000000;0.153386
9703.000000;0.152992
9702.000000;0.152522
9701.000000;0.152055
9700.000000;0.151642
9699.000000;0.151281
9698.000000;0.150943
9697.000000;0.150600
9696.000000;0.150235
9695.000000;0.149843
9694.000000;0.149422
9693.000000;0.148956
9692.000000;0.148433
9691.000000;0.147890
9690.000000;0.147400
9689.000000;0.146990
9688.000000;0.146604
9687.000000;0.146167
9686.000000;0.145681
9685.000000;0.145211
9684.000000;0.144811
9683.000000;0.144474
9682.000000;0.144136
9681.000000;0.143712
9680.000000;0.143162
9679.000000;0.142543
9678.000000;0.141991
9677.000000;0.141582
9676.000000;0.141239
9675.000000;0.140822
9674.000000;0.140308
9673.000000;0.139819
9672.000000;0.139470
9671.000000;0.139230
9670.000000;0.138975
9669.000000;0.138612
9668.000000;0.138130
9667.000000;0.137553
9666.000000;0.136915
9665.000000;0.136274
9664.000000;0.135703
9663.000000;0.135251
9662.000000;0.134918
9661.000000;0.134675
9660.000000;0.134477
9659.000000;0.134254
9658.000000;0.133911
9657.000000;0.133387
9656.000000;0.132715
9655.000000;0.132017
9654.000000;0.131429
9653.000000;0.131033
9652.000000;0.130830
9651.000000;0.130730
9650.000000;0.130590
9649.000000;0.130290
9648.000000;0.129828
9647.000000;0.129303
9646.000000;0.128790
9645.000000;0.128270
9644.000000;0.127700
9643.000000;0.127134
9642.000000;0.126692
9641.000000;0.126426
9640.000000;0.126256
9639.000000;0.126056
9638.000000;0.125750
9637.000000;0.125320
9636.000000;0.124776
9635.000000;0.124178
9634.000000;0.123648
9633.000000;0.123281
9632.000000;0.123055
9631.000000;0.122850
9630.000000;0.122555
9629.000000;0.122136
9628.000000;0.121636
9627.000000;0.121139
9626.000000;0.120731
9625.000000;0.120434
9624.000000;0.120159
9623.000000;0.119786
9622.000000;0.119287
9621.000000;0.118754
9620.000000;0.118280
9619.000000;0.117861
9618.000000;0.117435
9617.000000;0.116967
9616.000000;0.116470
9615.000000;0.115963
9614.000000;0.115456
9613.000000;0.114974
9612.000000;0.114542
9611.000000;0.114155
9610.000000;0.113778
9609.000000;0.113396
9608.000000;0.113039
9607.000000;0.112750
9606.000000;0.112533
9605.000000;0.112331
9604.000000;0.112051
9603.000000;0.111627
9602.000000;0.111074
9601.000000;0.110482
9600.000000;0.109960
9599.000000;0.109556
9598.000000;0.109249
9597.000000;0.108987
9596.000000;0.108745
9595.000000;0.108528
9594.000000;0.108326
9593.000000;0.108079
9592.000000;0.107693
9591.000000;0.107138
9590.000000;0.106499
9589.000000;0.105911
9588.000000;0.105430
9587.000000;0.104991
9586.000000;0.104519
9585.000000;0.104026
9584.000000;0.103576
9583.000000;0.103187
9582.000000;0.102816
9581.000000;0.102443
9580.000000;0.102114
9579.000000;0.101877
9578.000000;0.101708
9577.000000;0.101522
9576.000000;0.101228
9575.000000;0.100774
9574.000000;0.100178
9573.000000;0.099531
9572.000000;0.098959
9571.000000;0.098549
9570.000000;0.098285
9569.000000;0.098065
9568.000000;0.097774
9567.000000;0.097374
9566.000000;0.096937
9565.000000;0.096580
9564.000000;0.096341
9563.000000;0.096122
9562.000000;0.095772
9561.000000;0.095243
9560.000000;0.094639
9559.000000;0.094115
9558.000000;0.093748
9557.000000;0.093503
9556.000000;0.093291
9555.000000;0.093036
9554.000000;0.092712
9553.000000;0.092338
9552.000000;0.091944
9551.000000;0.091530
9550.000000;0.091072
9549.000000;0.090583
9548.000000;0.090122
9547.000000;0.089727
9546.000000;0.089360
9545.000000;0.088941
9544.000000;0.088466
9543.000000;0.088020
9542.000000;0.087682
9541.000000;0.087410
9540.000000;0.087074
9539.000000;0.086602
9538.000000;0.086061
9537.000000;0.085576
9536.000000;0.085200
9535.000000;0.084888
9534.000000;0.084593
9533.000000;0.084319
9532.000000;0.084071
9531.000000;0.083807
9530.000000;0.083487
9529.000000;0.083125
9528.000000;0.082749
9527.000000;0.082342
9526.000000;0.081893
9525.000000;0.081484
9524.000000;0.081228
9523.000000;0.081107
9522.000000;0.080957
9521.000000;0.080626
9520.000000;0.080116
9519.000000;0.079540
9518.000000;0.078999
9517.000000;0.078530
9516.000000;0.078131
9515.000000;0.077757
9514.000000;0.077349
9513.000000;0.076897
9512.000000;0.076470
9511.000000;0.076149
9510.000000;0.075936
9509.000000;0.075760
9508.000000;0.075522
9507.000000;0.075156
9506.000000;0.074674
9505.000000;0.074197
9504.000000;0.073865
9503.000000;0.073690
9502.000000;0.073535
9501.000000;0.073270
9500.000000;0.072882
9499.000000;0.072413
9498.000000;0.071866
9497.000000;0.071256
9496.000000;0.070689
9495.000000;0.070275
9494.000000;0.069990
9493.000000;0.069705
9492.000000;0.069350
9491.000000;0.068978
9490.000000;0.068647
9489.000000;0.068337
9488.000000;0.068009
9487.000000;0.067658
9486.000000;0.067278
9485.000000;0.066848
9484.000000;0.066375
9483.000000;0.065920
9482.000000;0.065524
9481.000000;0.065143
9480.000000;0.064723
9479.000000;0.064292
9478.000000;0.063950
9477.000000;0.063736
9476.000000;0.063573
9475.000000;0.063338
9474.000000;0.062992
9473.000000;0.062612
9472.000000;0.062298
9471.000000;0.062061
9470.000000;0.061816
9469.000000;0.061496
9468.000000;0.061118
9467.000000;0.060746
9466.000000;0.060396
9465.000000;0.060032
9464.000000;0.059619
9463.000000;0.059170
9462.000000;0.058735
9461.000000;0.058366
9460.000000;0.058081
9459.000000;0.057847
9458.000000;0.057615
9457.000000;0.057383
9456.000000;0.057172
9455.000000;0.056944
9454.000000;0.056589
9453.000000;0.056065
9452.000000;0.055499
9451.000000;0.055073
9450.000000;0.054825
9449.000000;0.054631
9448.000000;0.054364
9447.000000;0.054007
9446.000000;0.053605
9445.000000;0.053194
9444.000000;0.052802
9443.000000;0.052449
9442.000000;0.052127
9441.000000;0.051800
9440.000000;0.051457
9439.000000;0.051115
9438.000000;0.050772
9437.000000;0.050405
9436.000000;0.050010
9435.000000;0.049624
9434.000000;0.049267
9433.000000;0.048936
9432.000000;0.048642
9431.000000;0.048421
9430.000000;0.048261
9429.000000;0.048070
9428.000000;0.047748
9427.000000;0.047293
9426.000000;0.046801
9425.000000;0.046400
9424.000000;0.046152
9423.000000;0.046023
9422.000000;0.045898
9421.000000;0.045683
9420.000000;0.045374
9419.000000;0.045018
9418.000000;0.044626
9417.000000;0.044183
9416.000000;0.043727
9415.000000;0.043350
9414.000000;0.043076
9413.000000;0.042811
9412.000000;0.042443
9411.000000;0.041972
9410.000000;0.041503
9409.000000;0.041137
9408.000000;0.040891
9407.000000;0.040697
9406.000000;0.040450
9405.000000;0.040087
9404.000000;0.039641
9403.000000;0.039211
9402.000000;0.038860
9401.000000;0.038568
9400.000000;0.038294
9399.000000;0.038041
9398.000000;0.037825
9397.000000;0.037627
9396.000000;0.037401
9395.000000;0.037119
9394.000000;0.036785
9393.000000;0.036407
9392.000000;0.036007
9391.000000;0.035620
9390.000000;0.035268
9389.000000;0.034947
9388.000000;0.034650
9387.000000;0.034400
9386.000000;0.034208
9385.000000;0.034039
9384.000000;0.033821
9383.000000;0.033519
9382.000000;0.033156
9381.000000;0.032781
9380.000000;0.032427
9379.000000;0.032074
9378.000000;0.031670
9377.000000;0.031186
9376.000000;0.030677
9375.000000;0.030254
9374.000000;0.029985
9373.000000;0.029828
9372.000000;0.029673
9371.000000;0.029431
9370.000000;0.029088
9369.000000;0.028717
9368.000000;0.028425
9367.000000;0.028280
9366.000000;0.028221
9365.000000;0.028076
9364.000000;0.027697
9363.000000;0.027096
9362.000000;0.026438
9361.000000;0.025916
9360.000000;0.025609
9359.000000;0.025455
9358.000000;0.025317
9357.000000;0.025108
9356.000000;0.024843
9355.000000;0.024581
9354.000000;0.024341
9353.000000;0.024100
9352.000000;0.023860
9351.000000;0.023654
9350.000000;0.023468
9349.000000;0.023221
9348.000000;0.022847
9347.000000;0.022376
9346.000000;0.021895
9345.000000;0.021473
9344.000000;0.021127
9343.000000;0.020849
9342.000000;0.020596
9341.000000;0.020309
9340.000000;0.019971
9339.000000;0.019633
9338.000000;0.019348
9337.000000;0.019099
9336.000000;0.018838
9335.000000;0.018578
9334.000000;0.018375
9333.000000;0.018228
9332.000000;0.018050
9331.000000;0.017764
9330.000000;0.017387
9329.000000;0.017005
9328.000000;0.016671
9327.000000;0.016358
9326.000000;0.016004
9325.000000;0.015606
9324.000000;0.015258
9323.000000;0.015072
9322.000000;0.015038
9321.000000;0.014989
9320.000000;0.014747
9319.000000;0.014310
9318.000000;0.013850
9317.000000;0.013527
9316.000000;0.013343
9315.000000;0.013180
9314.000000;0.012944
9313.000000;0.012628
9312.000000;0.012267
9311.000000;0.011877
9310.000000;0.011465
9309.000000;0.011049
9308.000000;0.010667
9307.000000;0.010361
9306.000000;0.010130
9305.000000;0.009914
9304.000000;0.009626
9303.000000;0.009238
9302.000000;0.008829
9301.000000;0.008506
9300.000000;0.008299
9299.000000;0.008145
9298.000000;0.007999
9297.000000;0.007869
9296.000000;0.007756
9295.000000;0.007590
9294.000000;0.007304
9293.000000;0.006945
9292.000000;0.006625
9291.000000;0.006381
9290.000000;0.006137
9289.000000;0.005822
9288.000000;0.005469
9287.000000;0.005154
9286.000000;0.004887
9285.000000;0.004615
9284.000000;0.004293
9283.000000;0.003923
9282.000000;0.003540
9281.000000;0.003191
9280.000000;0.002917
9279.000000;0.002708
9278.000000;0.002500
9277.000000;0.002246
9276.000000;0.001972
9275.000000;0.001735
9274.000000;0.001543
9273.000000;0.001356
9272.000000;0.001132
9271.000000;0.000859
9270.000000;0.000540
9269.000000;0.000199
9268.000000;-0.000131
9267.000000;-0.000439
9266.000000;-0.000744
9265.000000;-0.001026
9264.000000;-0.001210
9263.000000;-0.001265
9262.000000;-0.001289
9261.000000;-0.001425
9260.000000;-0.001701
9259.000000;-0.002027
9258.000000;-0.002334
9257.000000;-0.002632
9256.000000;-0.002918
9255.000000;-0.003143
9254.000000;-0.003305
9253.000000;-0.003505
9252.000000;-0.003824
9251.000000;-0.004208
9250.000000;-0.004519
9249.000000;-0.004698
9248.000000;-0.004814
9247.000000;-0.004974
9246.000000;-0.005236
9245.000000;-0.005591
9244.000000;-0.005979
9243.000000;-0.006337
9242.000000;-0.006643
9241.000000;-0.006918
9240.000000;-0.007181
9239.000000;-0.007420
9238.000000;-0.007617
9237.000000;-0.007786
9236.000000;-0.007954
9235.000000;-0.008136
9234.000000;-0.008356
9233.000000;-0.008648
9232.000000;-0.009018
9231.000000;-0.009412
9230.000000;-0.009766
9229.000000;-0.010073
9228.000000;-0.010373
9227.000000;-0.010671
9226.000000;-0.010910
9225.000000;-0.011051
9224.000000;-0.011140
9223.000000;-0.011282
9222.000000;-0.011534
9221.000000;-0.011849
9220.000000;-0.012130
9219.000000;-0.012341
9218.000000;-0.012538
9217.000000;-0.012788
9216.000000;-0.013078
9215.000000;-0.013334
9214.000000;-0.013534
9213.000000;-0.013754
9212.000000;-0.014090
9211.000000;-0.014536
9210.000000;-0.014975
9209.000000;-0.015278
9208.000000;-0.015420
9207.000000;-0.015491
9206.000000;-0.015617
9205.000000;-0.015846
9204.000000;-0.016120
9203.000000;-0.016351
9202.000000;-0.016504
9201.000000;-0.016619
9200.000000;-0.016758
9199.000000;-0.016953
9198.000000;-0.017184
9197.000000;-0.017404
9196.000000;-0.017586
9195.000000;-0.017770
9194.000000;-0.018041
9193.000000;-0.018413
9192.000000;-0.018798
9191.000000;-0.019103
9190.000000;-0.019351
9189.000000;-0.019638
9188.000000;-0.019990
9187.000000;-0.020326
9186.000000;-0.020561
9185.000000;-0.020698
9184.000000;-0.020793
9183.000000;-0.020899
9182.000000;-0.021055
9181.000000;-0.021281
9180.000000;-0.021548
9179.000000;-0.021792
9178.000000;-0.021981
9177.000000;-0.022128
9176.000000;-0.022256
9175.000000;-0.022382
9174.000000;-0.022559
9173.000000;-0.022855
9172.000000;-0.023253
9171.000000;-0.023633
9170.000000;-0.023907
9169.000000;-0.024117
9168.000000;-0.024350
9167.000000;-0.024592
9166.000000;-0.024750
9165.000000;-0.024807
9164.000000;-0.024869
9163.000000;-0.025060
9162.000000;-0.025406
9161.000000;-0.025837
9160.000000;-0.026266
9159.000000;-0.026616
9158.000000;-0.026836
9157.000000;-0.026918
9156.000000;-0.026918
9155.000000;-0.026932
9154.000000;-0.027043
9153.000000;-0.027288
9152.000000;-0.027637
9151.000000;-0.028010
9150.000000;-0.028304
9149.000000;-0.028462
9148.000000;-0.028522
9147.000000;-0.028597
9146.000000;-0.028786
9145.000000;-0.029085
9144.000000;-0.029402
9143.000000;-0.029648
9142.000000;-0.029814
9141.000000;-0.029961
9140.000000;-0.030165
9139.000000;-0.030462
9138.000000;-0.030806
9137.000000;-0.031071
9136.000000;-0.031141
9135.000000;-0.031050
9134.000000;-0.030982
9133.000000;-0.031097
9132.000000;-0.031382
9131.000000;-0.031710
9130.000000;-0.032006
9129.000000;-0.032288
9128.000000;-0.032570
9127.000000;-0.032827
9126.000000;-0.033077
9125.000000;-0.033386
9124.000000;-0.033748
9123.000000;-0.034047
9122.000000;-0.034181
9121.000000;-0.034203
9120.000000;-0.034262
9119.000000;-0.034452
9118.000000;-0.034750
9117.000000;-0.035076
9116.000000;-0.035351
9115.000000;-0.035509
9114.000000;-0.035533
9113.000000;-0.035505
9112.000000;-0.035565
9111.000000;-0.035802
9110.000000;-0.036161
9109.000000;-0.036496
9108.000000;-0.036694
9107.000000;-0.036773
9106.000000;-0.036853
9105.000000;-0.037044
9104.000000;-0.037359
9103.000000;-0.037740
9102.000000;-0.038120
9101.000000;-0.038447
9100.000000;-0.038658
9099.000000;-0.038726
9098.000000;-0.038722
9097.000000;-0.038790
9096.000000;-0.039007
9095.000000;-0.039318
9094.000000;-0.039614
9093.000000;-0.039840
9092.000000;-0.040010
9091.000000;-0.040142
9090.000000;-0.040237
9089.000000;-0.040293
9088.000000;-0.040320
9087.000000;-0.040348
9086.000000;-0.040436
9085.000000;-0.040646
9084.000000;-0.040981
9083.000000;-0.041374
9082.000000;-0.041754
9081.000000;-0.042095
9080.000000;-0.042392
9079.000000;-0.042630
9078.000000;-0.042821
9077.000000;-0.043019
9076.000000;-0.043257
9075.000000;-0.043476
9074.000000;-0.043596
9073.000000;-0.043629
9072.000000;-0.043686
9071.000000;-0.043841
9070.000000;-0.044050
9069.000000;-0.044214
9068.000000;-0.044303
9067.000000;-0.044379
9066.000000;-0.044521
9065.000000;-0.044747
9064.000000;-0.045004
9063.000000;-0.045230
