Criado como novo conjunto de dados;"e2410_daniel_v2.spp","14762.8 Secs"
cm-1;Abs
10000.000000;0.332657
9999.000000;0.332364
9998.000000;0.331915
9997.000000;0.331222
9996.000000;0.330366
9995.000000;0.329513
9994.000000;0.328894
9993.000000;0.328635
9992.000000;0.328556
9991.000000;0.328277
9990.000000;0.327648
9989.000000;0.326903
9988.000000;0.326294
9987.000000;0.325799
9986.000000;0.325279
9985.000000;0.324725
9984.000000;0.324163
9983.000000;0.323514
9982.000000;0.322747
9981.000000;0.322028
9980.000000;0.321537
9979.000000;0.321245
9978.000000;0.321029
9977.000000;0.320870
9976.000000;0.320752
9975.000000;0.320507
9974.000000;0.319977
9973.000000;0.319257
9972.000000;0.318617
9971.000000;0.318216
9970.000000;0.318003
9969.000000;0.317817
9968.000000;0.317463
9967.000000;0.316816
9966.000000;0.315972
9965.000000;0.315229
9964.000000;0.314761
9963.000000;0.314435
9962.000000;0.314030
9961.000000;0.313526
9960.000000;0.313017
9959.000000;0.312483
9958.000000;0.311856
9957.000000;0.311216
9956.000000;0.310711
9955.000000;0.310329
9954.000000;0.309913
9953.000000;0.309388
9952.000000;0.308842
9951.000000;0.308377
9950.000000;0.307983
9949.000000;0.307555
9948.000000;0.306980
9947.000000;0.306244
9946.000000;0.305517
9945.000000;0.305019
9944.000000;0.304748
9943.000000;0.304453
9942.000000;0.303961
9941.000000;0.303397
9940.000000;0.302968
9939.000000;0.302658
9938.000000;0.302293
9937.000000;0.301806
9936.000000;0.301282
9935.000000;0.300779
9934.000000;0.300272
9933.000000;0.299762
9932.000000;0.299310
9931.000000;0.298947
9930.000000;0.298628
9929.000000;0.298267
9928.000000;0.297797
9927.000000;0.297218
9926.000000;0.296609
9925.000000;0.296052
9924.000000;0.295520
9923.000000;0.294903
9922.000000;0.294172
9921.000000;0.293432
9920.000000;0.292803
9919.000000;0.292328
9918.000000;0.292005
9917.000000;0.291789
9916.000000;0.291552
9915.000000;0.291163
9914.000000;0.290638
9913.000000;0.290096
9912.000000;0.289567
9911.000000;0.288994
9910.000000;0.288401
9909.000000;0.287889
9908.000000;0.287446
9907.000000;0.286950
9906.000000;0.286416
9905.000000;0.286016
9904.000000;0.285787
9903.000000;0.285543
9902.000000;0.285157
9901.000000;0.284709
9900.000000;0.284255
9899.000000;0.283686
9898.000000;0.282972
9897.000000;0.282333
9896.000000;0.281969
9895.000000;0.281773
9894.000000;0.281482
9893.000000;0.280976
9892.000000;0.280274
9891.000000;0.279400
9890.000000;0.278466
9889.000000;0.277722
9888.000000;0.277317
9887.000000;0.277074
9886.000000;0.276698
9885.000000;0.276135
9884.000000;0.275567
9883.000000;0.275139
9882.000000;0.274848
9881.000000;0.274635
9880.000000;0.274409
9879.000000;0.274050
9878.000000;0.273532
9877.000000;0.272999
9876.000000;0.272587
9875.000000;0.272237
9874.000000;0.271796
9873.000000;0.271237
9872.000000;0.270655
9871.000000;0.270112
9870.000000;0.269625
9869.000000;0.269235
9868.000000;0.268954
9867.000000;0.268691
9866.000000;0.268342
9865.000000;0.267917
9864.000000;0.267485
9863.000000;0.267056
9862.000000;0.266602
9861.000000;0.266124
9860.000000;0.265598
9859.000000;0.264968
9858.000000;0.264264
9857.000000;0.263649
9856.000000;0.263226
9855.000000;0.262886
9854.000000;0.262458
9853.000000;0.261938
9852.000000;0.261447
9851.000000;0.261038
9850.000000;0.260661
9849.000000;0.260249
9848.000000;0.259750
9847.000000;0.259133
9846.000000;0.258453
9845.000000;0.257854
9844.000000;0.257400
9843.000000;0.257003
9842.000000;0.256590
9841.000000;0.256236
9840.000000;0.256010
9839.000000;0.255799
9838.000000;0.255419
9837.000000;0.254823
9836.000000;0.254115
9835.000000;0.253424
9834.000000;0.252855
9833.000000;0.252478
9832.000000;0.252233
9831.000000;0.251928
9830.000000;0.251447
9829.000000;0.250889
9828.000000;0.250396
9827.000000;0.249930
9826.000000;0.249364
9825.000000;0.248701
9824.000000;0.248054
9823.000000;0.247476
9822.000000;0.246953
9821.000000;0.246505
9820.000000;0.246154
9819.000000;0.245822
9818.000000;0.245396
9817.000000;0.244896
9816.000000;0.244471
9815.000000;0.244212
9814.000000;0.244038
9813.000000;0.243766
9812.000000;0.243254
9811.000000;0.242513
9810.000000;0.241733
9809.000000;0.241136
9808.000000;0.240767
9807.000000;0.240487
9806.000000;0.240181
9805.000000;0.239859
9804.000000;0.239512
9803.000000;0.239016
9802.000000;0.238306
9801.000000;0.237540
9800.000000;0.236957
9799.000000;0.236614
9798.000000;0.236379
9797.000000;0.236102
9796.000000;0.235700
9795.000000;0.235139
9794.000000;0.234443
9793.000000;0.233710
9792.000000;0.233037
9791.000000;0.232469
9790.000000;0.232043
9789.000000;0.231793
9788.000000;0.231640
9787.000000;0.231380
9786.000000;0.230901
9785.000000;0.230324
9784.000000;0.229826
9783.000000;0.229403
9782.000000;0.228931
9781.000000;0.228397
9780.000000;0.227933
9779.000000;0.227635
9778.000000;0.227463
9777.000000;0.227281
9776.000000;0.226942
9775.000000;0.226363
9774.000000;0.225604
9773.000000;0.224858
9772.000000;0.224290
9771.000000;0.223906
9770.000000;0.223619
9769.000000;0.223371
9768.000000;0.223118
9767.000000;0.222771
9766.000000;0.222260
9765.000000;0.221633
9764.000000;0.221016
9763.000000;0.220478
9762.000000;0.220008
9761.000000;0.219572
9760.000000;0.219159
9759.000000;0.218781
9758.000000;0.218452
9757.000000;0.218147
9756.000000;0.217763
9755.000000;0.217191
9754.000000;0.216459
9753.000000;0.215737
9752.000000;0.215163
9751.000000;0.214730
9750.000000;0.214372
9749.000000;0.214078
9748.000000;0.213848
9747.000000;0.213616
9746.000000;0.213279
9745.000000;0.212785
9744.000000;0.212160
9743.000000;0.211479
9742.000000;0.210837
9741.000000;0.210295
9740.000000;0.209847
9739.000000;0.209479
9738.000000;0.209229
9737.000000;0.209126
9736.000000;0.209061
9735.000000;0.208833
9734.000000;0.208358
9733.000000;0.207744
9732.000000;0.207151
9731.000000;0.206664
9730.000000;0.206286
9729.000000;0.205952
9728.000000;0.205518
9727.000000;0.204877
9726.000000;0.204108
9725.000000;0.203414
9724.000000;0.202891
9723.000000;0.202468
9722.000000;0.202071
9721.000000;0.201695
9720.000000;0.201304
9719.000000;0.200818
9718.000000;0.200262
9717.000000;0.199784
9716.000000;0.199449
9715.000000;0.199156
9714.000000;0.198814
9713.000000;0.198466
9712.000000;0.198157
9711.000000;0.197837
9710.000000;0.197460
9709.000000;0.197071
9708.000000;0.196690
9707.000000;0.196231
9706.000000;0.195639
9705.000000;0.194999
9704.000000;0.194422
9703.000000;0.193931
9702.000000;0.193510
9701.000000;0.193171
9700.000000;0.192880
9699.000000;0.192542
9698.000000;0.192108
9697.000000;0.191625
9696.000000;0.191126
9695.000000;0.190581
9694.000000;0.190012
9693.000000;0.189536
9692.000000;0.189212
9691.000000;0.188966
9690.000000;0.188726
9689.000000;0.188507
9688.000000;0.188284
9687.000000;0.187941
9686.000000;0.187430
9685.000000;0.186866
9684.000000;0.186349
9683.000000;0.185827
9682.000000;0.185233
9681.000000;0.184640
9680.000000;0.184154
9679.000000;0.183749
9678.000000;0.183337
9677.000000;0.182926
9676.000000;0.182586
9675.000000;0.182323
9674.000000;0.182084
9673.000000;0.181807
9672.000000;0.181422
9671.000000;0.180869
9670.000000;0.180208
9669.000000;0.179618
9668.000000;0.179199
9667.000000;0.178872
9666.000000;0.178532
9665.000000;0.178194
9664.000000;0.177900
9663.000000;0.177599
9662.000000;0.177217
9661.000000;0.176754
9660.000000;0.176239
9659.000000;0.175686
9658.000000;0.175163
9657.000000;0.174786
9656.000000;0.174548
9655.000000;0.174271
9654.000000;0.173835
9653.000000;0.173334
9652.000000;0.172906
9651.000000;0.172524
9650.000000;0.172085
9649.000000;0.171587
9648.000000;0.171082
9647.000000;0.170545
9646.000000;0.169966
9645.000000;0.169464
9644.000000;0.169157
9643.000000;0.168947
9642.000000;0.168609
9641.000000;0.168068
9640.000000;0.167459
9639.000000;0.166940
9638.000000;0.166546
9637.000000;0.166229
9636.000000;0.165926
9635.000000;0.165573
9634.000000;0.165154
9633.000000;0.164714
9632.000000;0.164299
9631.000000;0.163888
9630.000000;0.163452
9629.000000;0.163022
9628.000000;0.162652
9627.000000;0.162338
9626.000000;0.162033
9625.000000;0.161680
9624.000000;0.161220
9623.000000;0.160617
9622.000000;0.159966
9621.000000;0.159470
9620.000000;0.159244
9619.000000;0.159163
9618.000000;0.158988
9617.000000;0.158610
9616.000000;0.158095
9615.000000;0.157554
9614.000000;0.157052
9613.000000;0.156613
9612.000000;0.156242
9611.000000;0.155927
9610.000000;0.155641
9609.000000;0.155349
9608.000000;0.154997
9607.000000;0.154568
9606.000000;0.154115
9605.000000;0.153708
9604.000000;0.153325
9603.000000;0.152894
9602.000000;0.152425
9601.000000;0.152024
9600.000000;0.151727
9599.000000;0.151434
9598.000000;0.151042
9597.000000;0.150569
9596.000000;0.150089
9595.000000;0.149642
9594.000000;0.149238
9593.000000;0.148884
9592.000000;0.148546
9591.000000;0.148169
9590.000000;0.147764
9589.000000;0.147400
9588.000000;0.147091
9587.000000;0.146764
9586.000000;0.146377
9585.000000;0.145967
9584.000000;0.145566
9583.000000;0.145143
9582.000000;0.144701
9581.000000;0.144301
9580.000000;0.143957
9579.000000;0.143585
9578.000000;0.143105
9577.000000;0.142530
9576.000000;0.141931
9575.000000;0.141385
9574.000000;0.140971
9573.000000;0.140720
9572.000000;0.140538
9571.000000;0.140278
9570.000000;0.139907
9569.000000;0.139497
9568.000000;0.139065
9567.000000;0.138567
9566.000000;0.138061
9565.000000;0.137711
9564.000000;0.137543
9563.000000;0.137355
9562.000000;0.136961
9561.000000;0.136405
9560.000000;0.135856
9559.000000;0.135400
9558.000000;0.135030
9557.000000;0.134714
9556.000000;0.134396
9555.000000;0.134021
9554.000000;0.133628
9553.000000;0.133325
9552.000000;0.133128
9551.000000;0.132926
9550.000000;0.132662
9549.000000;0.132404
9548.000000;0.132161
9547.000000;0.131789
9546.000000;0.131190
9545.000000;0.130486
9544.000000;0.129874
9543.000000;0.129419
9542.000000;0.129057
9541.000000;0.128722
9540.000000;0.128360
9539.000000;0.127919
9538.000000;0.127419
9537.000000;0.126973
9536.000000;0.126639
9535.000000;0.126343
9534.000000;0.126021
9533.000000;0.125716
9532.000000;0.125459
9531.000000;0.125138
9530.000000;0.124646
9529.000000;0.124054
9528.000000;0.123532
9527.000000;0.123139
9526.000000;0.122791
9525.000000;0.122414
9524.000000;0.122024
9523.000000;0.121691
9522.000000;0.121473
9521.000000;0.121341
9520.000000;0.121143
9519.000000;0.120735
9518.000000;0.120182
9517.000000;0.119727
9516.000000;0.119490
9515.000000;0.119307
9514.000000;0.118949
9513.000000;0.118402
9512.000000;0.117837
9511.000000;0.117381
9510.000000;0.117044
9509.000000;0.116774
9508.000000;0.116491
9507.000000;0.116112
9506.000000;0.115643
9505.000000;0.115191
9504.000000;0.114837
9503.000000;0.114545
9502.000000;0.114245
9501.000000;0.113932
9500.000000;0.113612
9499.000000;0.113231
9498.000000;0.112762
9497.000000;0.112283
9496.000000;0.111892
9495.000000;0.111571
9494.000000;0.111230
9493.000000;0.110840
9492.000000;0.110451
9491.000000;0.110137
9490.000000;0.109943
9489.000000;0.109850
9488.000000;0.109735
9487.000000;0.109435
9486.000000;0.108926
9485.000000;0.108367
9484.000000;0.107932
9483.000000;0.107635
9482.000000;0.107348
9481.000000;0.106946
9480.000000;0.106392
9479.000000;0.105775
9478.000000;0.105251
9477.000000;0.104909
9476.000000;0.104654
9475.000000;0.104329
9474.000000;0.103937
9473.000000;0.103625
9472.000000;0.103433
9471.000000;0.103237
9470.000000;0.102961
9469.000000;0.102683
9468.000000;0.102463
9467.000000;0.102224
9466.000000;0.101889
9465.000000;0.101498
9464.000000;0.101091
9463.000000;0.100607
9462.000000;0.100038
9461.000000;0.099533
9460.000000;0.099229
9459.000000;0.099057
9458.000000;0.098865
9457.000000;0.098623
9456.000000;0.098382
9455.000000;0.098115
9454.000000;0.097753
9453.000000;0.097307
9452.000000;0.096851
9451.000000;0.096405
9450.000000;0.095962
9449.000000;0.095566
9448.000000;0.095267
9447.000000;0.095012
9446.000000;0.094702
9445.000000;0.094311
9444.000000;0.093887
9443.000000;0.093479
9442.000000;0.093116
9441.000000;0.092813
9440.000000;0.092516
9439.000000;0.092116
9438.000000;0.091610
9437.000000;0.091164
9436.000000;0.090937
9435.000000;0.090880
9434.000000;0.090802
9433.000000;0.090582
9432.000000;0.090240
9431.000000;0.089848
9430.000000;0.089455
9429.000000;0.089087
9428.000000;0.088726
9427.000000;0.088318
9426.000000;0.087874
9425.000000;0.087494
9424.000000;0.087256
9423.000000;0.087114
9422.000000;0.086960
9421.000000;0.086745
9420.000000;0.086475
9419.000000;0.086164
9418.000000;0.085830
9417.000000;0.085487
9416.000000;0.085104
9415.000000;0.084627
9414.000000;0.084103
9413.000000;0.083680
9412.000000;0.083434
9411.000000;0.083248
9410.000000;0.082955
9409.000000;0.082511
9408.000000;0.081973
9407.000000;0.081404
9406.000000;0.080884
9405.000000;0.080521
9404.000000;0.080340
9403.000000;0.080211
9402.000000;0.079990
9401.000000;0.079690
9400.000000;0.079417
9399.000000;0.079192
9398.000000;0.078953
9397.000000;0.078687
9396.000000;0.078453
9395.000000;0.078273
9394.000000;0.078084
9393.000000;0.077813
9392.000000;0.077438
9391.000000;0.076978
9390.000000;0.076487
9389.000000;0.076039
9388.000000;0.075692
9387.000000;0.075450
9386.000000;0.075274
9385.000000;0.075102
9384.000000;0.074857
9383.000000;0.074484
9382.000000;0.074022
9381.000000;0.073580
9380.000000;0.073226
9379.000000;0.072936
9378.000000;0.072666
9377.000000;0.072396
9376.000000;0.072094
9375.000000;0.071699
9374.000000;0.071218
9373.000000;0.070759
9372.000000;0.070421
9371.000000;0.070183
9370.000000;0.069961
9369.000000;0.069707
9368.000000;0.069422
9367.000000;0.069118
9366.000000;0.068817
9365.000000;0.068540
9364.000000;0.068248
9363.000000;0.067868
9362.000000;0.067402
9361.000000;0.066954
9360.000000;0.066621
9359.000000;0.066390
9358.000000;0.066196
9357.000000;0.066012
9356.000000;0.065836
9355.000000;0.065640
9354.000000;0.065387
9353.000000;0.065072
9352.000000;0.064722
9351.000000;0.064372
9350.000000;0.064053
9349.000000;0.063751
9348.000000;0.063400
9347.000000;0.062980
9346.000000;0.062589
9345.000000;0.062345
9344.000000;0.062211
9343.000000;0.062016
9342.000000;0.061671
9341.000000;0.061246
9340.000000;0.060829
9339.000000;0.060419
9338.000000;0.060014
9337.000000;0.059670
9336.000000;0.059421
9335.000000;0.059219
9334.000000;0.059011
9333.000000;0.058801
9332.000000;0.058580
9331.000000;0.058287
9330.000000;0.057914
9329.000000;0.057558
9328.000000;0.057305
9327.000000;0.057123
9326.000000;0.056913
9325.000000;0.056635
9324.000000;0.056325
9323.000000;0.056041
9322.000000;0.055820
9321.000000;0.055648
9320.000000;0.055458
9319.000000;0.055201
9318.000000;0.054908
9317.000000;0.054623
9316.000000;0.054307
9315.000000;0.053898
9314.000000;0.053451
9313.000000;0.053083
9312.000000;0.052795
9311.000000;0.052477
9310.000000;0.052109
9309.000000;0.051799
9308.000000;0.051605
9307.000000;0.051464
9306.000000;0.051328
9305.000000;0.051224
9304.000000;0.051096
9303.000000;0.050785
9302.000000;0.050258
9301.000000;0.049717
9300.000000;0.049370
9299.000000;0.049202
9298.000000;0.049076
9297.000000;0.048932
9296.000000;0.048765
9295.000000;0.048521
9294.000000;0.048159
9293.000000;0.047757
9292.000000;0.047430
9291.000000;0.047191
9290.000000;0.046980
9289.000000;0.046769
9288.000000;0.046548
9287.000000;0.046277
9286.000000;0.045948
9285.000000;0.045620
9284.000000;0.045327
9283.000000;0.045009
9282.000000;0.044626
9281.000000;0.044262
9280.000000;0.044022
9279.000000;0.043876
9278.000000;0.043709
9277.000000;0.043472
9276.000000;0.043194
9275.000000;0.042888
9274.000000;0.042541
9273.000000;0.042176
9272.000000;0.041849
9271.000000;0.041587
9270.000000;0.041363
9269.000000;0.041116
9268.000000;0.040780
9267.000000;0.040343
9266.000000;0.039905
9265.000000;0.039604
9264.000000;0.039449
9263.000000;0.039302
9262.000000;0.039058
9261.000000;0.038777
9260.000000;0.038567
9259.000000;0.038440
9258.000000;0.038328
9257.000000;0.038177
9256.000000;0.037958
9255.000000;0.037647
9254.000000;0.037274
9253.000000;0.036923
9252.000000;0.036630
9251.000000;0.036341
9250.000000;0.036016
9249.000000;0.035703
9248.000000;0.035463
9247.000000;0.035266
9246.000000;0.035049
9245.000000;0.034791
9244.000000;0.034503
9243.000000;0.034184
9242.000000;0.033865
9241.000000;0.033624
9240.000000;0.033496
9239.000000;0.033423
9238.000000;0.033333
9237.000000;0.033199
9236.000000;0.033006
9235.000000;0.032715
9234.000000;0.032339
9233.000000;0.031969
9232.000000;0.031665
9231.000000;0.031389
9230.000000;0.031083
9229.000000;0.030766
9228.000000;0.030476
9227.000000;0.030204
9226.000000;0.029917
9225.000000;0.029624
9224.000000;0.029344
9223.000000;0.029085
9222.000000;0.028876
9221.000000;0.028762
9220.000000;0.028726
9219.000000;0.028666
9218.000000;0.028499
9217.000000;0.028228
9216.000000;0.027895
9215.000000;0.027547
9214.000000;0.027260
9213.000000;0.027085
9212.000000;0.026962
9211.000000;0.026761
9210.000000;0.026458
9209.000000;0.026161
9208.000000;0.025928
9207.000000;0.025679
9206.000000;0.025347
9205.000000;0.024994
9204.000000;0.024703
9203.000000;0.024468
9202.000000;0.024263
9201.000000;0.024110
9200.000000;0.023988
9199.000000;0.023788
9198.000000;0.023447
9197.000000;0.023061
9196.000000;0.022761
9195.000000;0.022552
9194.000000;0.022352
9193.000000;0.022122
9192.000000;0.021864
9191.000000;0.021570
9190.000000;0.021250
9189.000000;0.020986
9188.000000;0.020835
9187.000000;0.020743
9186.000000;0.020603
9185.000000;0.020375
9184.000000;0.020086
9183.000000;0.019781
9182.000000;0.019514
9181.000000;0.019341
9180.000000;0.019250
9179.000000;0.019146
9178.000000;0.018967
9177.000000;0.018747
9176.000000;0.018521
9175.000000;0.018256
9174.000000;0.017932
9173.000000;0.017607
9172.000000;0.017335
9171.000000;0.017070
9170.000000;0.016759
9169.000000;0.016445
9168.000000;0.016194
9167.000000;0.015991
9166.000000;0.015789
9165.000000;0.015611
9164.000000;0.015511
9163.000000;0.015455
9162.000000;0.015348
9161.000000;0.015147
9160.000000;0.014890
9159.000000;0.014635
9158.000000;0.014421
9157.000000;0.014259
9156.000000;0.014114
9155.000000;0.013923
9154.000000;0.013659
9153.000000;0.013369
9152.000000;0.013113
9151.000000;0.012914
9150.000000;0.012780
9149.000000;0.012706
9148.000000;0.012623
9147.000000;0.012435
9146.000000;0.012128
9145.000000;0.011801
9144.000000;0.011532
9143.000000;0.011295
9142.000000;0.011056
9141.000000;0.010861
9140.000000;0.010761
9139.000000;0.010713
9138.000000;0.010631
9137.000000;0.010482
9136.000000;0.010276
9135.000000;0.010031
9134.000000;0.009768
9133.000000;0.009506
9132.000000;0.009218
9131.000000;0.008862
9130.000000;0.008478
9129.000000;0.008177
9128.000000;0.007984
9127.000000;0.007803
9126.000000;0.007565
9125.000000;0.007329
9124.000000;0.007166
9123.000000;0.007050
9122.000000;0.006931
9121.000000;0.006830
9120.000000;0.006771
9119.000000;0.006691
9118.000000;0.006508
9117.000000;0.006230
9116.000000;0.005912
9115.000000;0.005566
9114.000000;0.005186
9113.000000;0.004816
9112.000000;0.004508
9111.000000;0.004260
9110.000000;0.004057
9109.000000;0.003922
9108.000000;0.003860
9107.000000;0.003807
9106.000000;0.003684
9105.000000;0.003476
9104.000000;0.003208
9103.000000;0.002914
9102.000000;0.002659
9101.000000;0.002516
9100.000000;0.002464
9099.000000;0.002367
9098.000000;0.002126
9097.000000;0.001793
9096.000000;0.001463
9095.000000;0.001145
9094.000000;0.000808
9093.000000;0.000490
9092.000000;0.000272
9091.000000;0.000172
9090.000000;0.000129
9089.000000;0.000063
9088.000000;-0.000082
9087.000000;-0.000316
9086.000000;-0.000556
9085.000000;-0.000675
9084.000000;-0.000651
9083.000000;-0.000621
9082.000000;-0.000737
9081.000000;-0.001020
9080.000000;-0.001388
9079.000000;-0.001756
9078.000000;-0.002054
9077.000000;-0.002225
9076.000000;-0.002291
9075.000000;-0.002371
9074.000000;-0.002540
9073.000000;-0.002735
9072.000000;-0.002862
9071.000000;-0.002948
9070.000000;-0.003091
9069.000000;-0.003311
9068.000000;-0.003545
9067.000000;-0.003760
9066.000000;-0.004003
9065.000000;-0.004316
9064.000000;-0.004665
9063.000000;-0.004961
9062.000000;-0.005132
9061.000000;-0.005195
9060.000000;-0.005260
9059.000000;-0.005414
9058.000000;-0.005607
9057.000000;-0.005723
9056.000000;-0.005765
9055.000000;-0.005876
