Criado como novo conjunto de dados;"e2410_daniel_v2.spp","7562.6 Secs"
cm-1;Abs
10000.000000;0.200951
9999.000000;0.200572
9998.000000;0.200193
9997.000000;0.199816
9996.000000;0.199434
9995.000000;0.199065
9994.000000;0.198659
9993.000000;0.198089
9992.000000;0.197422
9991.000000;0.196847
9990.000000;0.196501
9989.000000;0.196293
9988.000000;0.196001
9987.000000;0.195514
9986.000000;0.194936
9985.000000;0.194426
9984.000000;0.194015
9983.000000;0.193602
9982.000000;0.193077
9981.000000;0.192399
9980.000000;0.191615
9979.000000;0.190844
9978.000000;0.190216
9977.000000;0.189787
9976.000000;0.189504
9975.000000;0.189278
9974.000000;0.189055
9973.000000;0.188776
9972.000000;0.188347
9971.000000;0.187728
9970.000000;0.187032
9969.000000;0.186453
9968.000000;0.186064
9967.000000;0.185754
9966.000000;0.185366
9965.000000;0.184825
9964.000000;0.184154
9963.000000;0.183434
9962.000000;0.182808
9961.000000;0.182402
9960.000000;0.182179
9959.000000;0.181925
9958.000000;0.181460
9957.000000;0.180825
9956.000000;0.180184
9955.000000;0.179592
9954.000000;0.178971
9953.000000;0.178302
9952.000000;0.177701
9951.000000;0.177263
9950.000000;0.176926
9949.000000;0.176560
9948.000000;0.176139
9947.000000;0.175738
9946.000000;0.175395
9945.000000;0.175052
9944.000000;0.174637
9943.000000;0.174125
9942.000000;0.173528
9941.000000;0.172894
9940.000000;0.172323
9939.000000;0.171914
9938.000000;0.171653
9937.000000;0.171411
9936.000000;0.171084
9935.000000;0.170686
9934.000000;0.170256
9933.000000;0.169753
9932.000000;0.169116
9931.000000;0.168408
9930.000000;0.167790
9929.000000;0.167329
9928.000000;0.166927
9927.000000;0.166484
9926.000000;0.166038
9925.000000;0.165668
9924.000000;0.165331
9923.000000;0.164887
9922.000000;0.164277
9921.000000;0.163574
9920.000000;0.162876
9919.000000;0.162223
9918.000000;0.161663
9917.000000;0.161281
9916.000000;0.161089
9915.000000;0.160953
9914.000000;0.160694
9913.000000;0.160265
9912.000000;0.159754
9911.000000;0.159252
9910.000000;0.158780
9909.000000;0.158327
9908.000000;0.157865
9907.000000;0.157327
9906.000000;0.156645
9905.000000;0.155858
9904.000000;0.155128
9903.000000;0.154579
9902.000000;0.154174
9901.000000;0.153801
9900.000000;0.153432
9899.000000;0.153124
9898.000000;0.152864
9897.000000;0.152518
9896.000000;0.151971
9895.000000;0.151276
9894.000000;0.150619
9893.000000;0.150163
9892.000000;0.149913
9891.000000;0.149726
9890.000000;0.149421
9889.000000;0.148919
9888.000000;0.148306
9887.000000;0.147744
9886.000000;0.147295
9885.000000;0.146872
9884.000000;0.146365
9883.000000;0.145786
9882.000000;0.145252
9881.000000;0.144828
9880.000000;0.144449
9879.000000;0.143999
9878.000000;0.143441
9877.000000;0.142858
9876.000000;0.142377
9875.000000;0.142063
9874.000000;0.141863
9873.000000;0.141639
9872.000000;0.141267
9871.000000;0.140712
9870.000000;0.140045
9869.000000;0.139393
9868.000000;0.138873
9867.000000;0.138505
9866.000000;0.138182
9865.000000;0.137744
9864.000000;0.137139
9863.000000;0.136464
9862.000000;0.135852
9861.000000;0.135334
9860.000000;0.134863
9859.000000;0.134419
9858.000000;0.134013
9857.000000;0.133613
9856.000000;0.133166
9855.000000;0.132715
9854.000000;0.132403
9853.000000;0.132287
9852.000000;0.132207
9851.000000;0.131919
9850.000000;0.131340
9849.000000;0.130611
9848.000000;0.129927
9847.000000;0.129367
9846.000000;0.128877
9845.000000;0.128366
9844.000000;0.127792
9843.000000;0.127190
9842.000000;0.126643
9841.000000;0.126211
9840.000000;0.125880
9839.000000;0.125575
9838.000000;0.125236
9837.000000;0.124851
9836.000000;0.124448
9835.000000;0.124064
9834.000000;0.123714
9833.000000;0.123351
9832.000000;0.122885
9831.000000;0.122267
9830.000000;0.121559
9829.000000;0.120900
9828.000000;0.120382
9827.000000;0.119987
9826.000000;0.119641
9825.000000;0.119297
9824.000000;0.118947
9823.000000;0.118579
9822.000000;0.118154
9821.000000;0.117632
9820.000000;0.117017
9819.000000;0.116377
9818.000000;0.115810
9817.000000;0.115382
9816.000000;0.115072
9815.000000;0.114795
9814.000000;0.114480
9813.000000;0.114107
9812.000000;0.113682
9811.000000;0.113206
9810.000000;0.112684
9809.000000;0.112132
9808.000000;0.111550
9807.000000;0.110928
9806.000000;0.110303
9805.000000;0.109776
9804.000000;0.109422
9803.000000;0.109181
9802.000000;0.108891
9801.000000;0.108453
9800.000000;0.107928
9799.000000;0.107453
9798.000000;0.107111
9797.000000;0.106871
9796.000000;0.106648
9795.000000;0.106352
9794.000000;0.105932
9793.000000;0.105402
9792.000000;0.104840
9791.000000;0.104317
9790.000000;0.103832
9789.000000;0.103338
9788.000000;0.102823
9787.000000;0.102332
9786.000000;0.101902
9785.000000;0.101512
9784.000000;0.101130
9783.000000;0.100736
9782.000000;0.100302
9781.000000;0.099776
9780.000000;0.099153
9779.000000;0.098535
9778.000000;0.098043
9777.000000;0.097663
9776.000000;0.097251
9775.000000;0.096710
9774.000000;0.096116
9773.000000;0.095624
9772.000000;0.095303
9771.000000;0.095079
9770.000000;0.094843
9769.000000;0.094536
9768.000000;0.094155
9767.000000;0.093717
9766.000000;0.093236
9765.000000;0.092709
9764.000000;0.092111
9763.000000;0.091424
9762.000000;0.090688
9761.000000;0.090011
9760.000000;0.089488
9759.000000;0.089118
9758.000000;0.088825
9757.000000;0.088532
9756.000000;0.088206
9755.000000;0.087831
9754.000000;0.087387
9753.000000;0.086888
9752.000000;0.086411
9751.000000;0.086057
9750.000000;0.085839
9749.000000;0.085643
9748.000000;0.085308
9747.000000;0.084765
9746.000000;0.084086
9745.000000;0.083419
9744.000000;0.082862
9743.000000;0.082419
9742.000000;0.082040
9741.000000;0.081699
9740.000000;0.081389
9739.000000;0.081064
9738.000000;0.080624
9737.000000;0.080028
9736.000000;0.079368
9735.000000;0.078792
9734.000000;0.078343
9733.000000;0.077934
9732.000000;0.077501
9731.000000;0.077097
9730.000000;0.076797
9729.000000;0.076551
9728.000000;0.076236
9727.000000;0.075805
9726.000000;0.075316
9725.000000;0.074836
9724.000000;0.074390
9723.000000;0.074020
9722.000000;0.073773
9721.000000;0.073610
9720.000000;0.073390
9719.000000;0.073006
9718.000000;0.072480
9717.000000;0.071889
9716.000000;0.071260
9715.000000;0.070604
9714.000000;0.069988
9713.000000;0.069498
9712.000000;0.069145
9711.000000;0.068885
9710.000000;0.068679
9709.000000;0.068487
9708.000000;0.068213
9707.000000;0.067752
9706.000000;0.067131
9705.000000;0.066512
9704.000000;0.066034
9703.000000;0.065682
9702.000000;0.065352
9701.000000;0.064974
9700.000000;0.064553
9699.000000;0.064115
9698.000000;0.063673
9697.000000;0.063229
9696.000000;0.062789
9695.000000;0.062368
9694.000000;0.061990
9693.000000;0.061661
9692.000000;0.061340
9691.000000;0.060961
9690.000000;0.060504
9689.000000;0.060023
9688.000000;0.059591
9687.000000;0.059225
9686.000000;0.058871
9685.000000;0.058466
9684.000000;0.057988
9683.000000;0.057470
9682.000000;0.056974
9681.000000;0.056538
9680.000000;0.056140
9679.000000;0.055723
9678.000000;0.055259
9677.000000;0.054767
9676.000000;0.054262
9675.000000;0.053735
9674.000000;0.053195
9673.000000;0.052707
9672.000000;0.052340
9671.000000;0.052089
9670.000000;0.051882
9669.000000;0.051633
9668.000000;0.051303
9667.000000;0.050900
9666.000000;0.050445
9665.000000;0.049954
9664.000000;0.049422
9663.000000;0.048861
9662.000000;0.048328
9661.000000;0.047886
9660.000000;0.047528
9659.000000;0.047175
9658.000000;0.046774
9657.000000;0.046361
9656.000000;0.046006
9655.000000;0.045717
9654.000000;0.045433
9653.000000;0.045113
9652.000000;0.044760
9651.000000;0.044373
9650.000000;0.043940
9649.000000;0.043461
9648.000000;0.042969
9647.000000;0.042494
9646.000000;0.042046
9645.000000;0.041634
9644.000000;0.041258
9643.000000;0.040885
9642.000000;0.040478
9641.000000;0.040061
9640.000000;0.039713
9639.000000;0.039455
9638.000000;0.039176
9637.000000;0.038726
9636.000000;0.038085
9635.000000;0.037384
9634.000000;0.036792
9633.000000;0.036368
9632.000000;0.036060
9631.000000;0.035786
9630.000000;0.035509
9629.000000;0.035233
9628.000000;0.034945
9627.000000;0.034603
9626.000000;0.034174
9625.000000;0.033692
9624.000000;0.033239
9623.000000;0.032879
9622.000000;0.032604
9621.000000;0.032343
9620.000000;0.032023
9619.000000;0.031622
9618.000000;0.031179
9617.000000;0.030734
9616.000000;0.030276
9615.000000;0.029761
9614.000000;0.029201
9613.000000;0.028704
9612.000000;0.028376
9611.000000;0.028195
9610.000000;0.028023
9609.000000;0.027750
9608.000000;0.027374
9607.000000;0.026938
9606.000000;0.026447
9605.000000;0.025906
9604.000000;0.025384
9603.000000;0.024974
9602.000000;0.024696
9601.000000;0.024463
9600.000000;0.024151
9599.000000;0.023686
9598.000000;0.023093
9597.000000;0.022483
9596.000000;0.021993
9595.000000;0.021683
9594.000000;0.021484
9593.000000;0.021261
9592.000000;0.020935
9591.000000;0.020533
9590.000000;0.020131
9589.000000;0.019767
9588.000000;0.019406
9587.000000;0.018987
9586.000000;0.018490
9585.000000;0.017963
9584.000000;0.017472
9583.000000;0.017031
9582.000000;0.016603
9581.000000;0.016179
9580.000000;0.015814
9579.000000;0.015555
9578.000000;0.015359
9577.000000;0.015132
9576.000000;0.014823
9575.000000;0.014458
9574.000000;0.014069
9573.000000;0.013660
9572.000000;0.013224
9571.000000;0.012779
9570.000000;0.012344
9569.000000;0.011930
9568.000000;0.011536
9567.000000;0.011157
9566.000000;0.010771
9565.000000;0.010366
9564.000000;0.009973
9563.000000;0.009642
9562.000000;0.009371
9561.000000;0.009075
9560.000000;0.008662
9559.000000;0.008140
9558.000000;0.007624
9557.000000;0.007237
9556.000000;0.006999
9555.000000;0.006803
9554.000000;0.006516
9553.000000;0.006102
9552.000000;0.005643
9551.000000;0.005222
9550.000000;0.004828
9549.000000;0.004399
9548.000000;0.003938
9547.000000;0.003516
9546.000000;0.003159
9545.000000;0.002800
9544.000000;0.002369
9543.000000;0.001898
9542.000000;0.001485
9541.000000;0.001165
9540.000000;0.000878
9539.000000;0.000554
9538.000000;0.000189
9537.000000;-0.000172
9536.000000;-0.000508
9535.000000;-0.000836
9534.000000;-0.001171
9533.000000;-0.001492
9532.000000;-0.001774
9531.000000;-0.002042
9530.000000;-0.002360
9529.000000;-0.002769
9528.000000;-0.003238
9527.000000;-0.003706
9526.000000;-0.004139
9525.000000;-0.004540
9524.000000;-0.004903
9523.000000;-0.005207
9522.000000;-0.005453
9521.000000;-0.005687
9520.000000;-0.005976
9519.000000;-0.006358
9518.000000;-0.006828
9517.000000;-0.007328
9516.000000;-0.007778
9515.000000;-0.008140
9514.000000;-0.008460
9513.000000;-0.008827
9512.000000;-0.009274
9511.000000;-0.009747
9510.000000;-0.010175
9509.000000;-0.010538
9508.000000;-0.010850
9507.000000;-0.011114
9506.000000;-0.011321
9505.000000;-0.011498
9504.000000;-0.011716
9503.000000;-0.012043
9502.000000;-0.012490
9501.000000;-0.012996
9500.000000;-0.013476
9499.000000;-0.013891
9498.000000;-0.014261
9497.000000;-0.014617
9496.000000;-0.014956
9495.000000;-0.015255
9494.000000;-0.015522
9493.000000;-0.015796
9492.000000;-0.016106
9491.000000;-0.016451
9490.000000;-0.016814
9489.000000;-0.017165
9488.000000;-0.017465
9487.000000;-0.017703
9486.000000;-0.017938
9485.000000;-0.018250
9484.000000;-0.018641
9483.000000;-0.019028
9482.000000;-0.019365
9481.000000;-0.019709
9480.000000;-0.020145
9479.000000;-0.020677
9478.000000;-0.021221
9477.000000;-0.021686
9476.000000;-0.022024
9475.000000;-0.022242
9474.000000;-0.022398
9473.000000;-0.022588
9472.000000;-0.022866
9471.000000;-0.023199
9470.000000;-0.023515
9469.000000;-0.023809
9468.000000;-0.024145
9467.000000;-0.024557
9466.000000;-0.024986
9465.000000;-0.025331
9464.000000;-0.025565
9463.000000;-0.025772
9462.000000;-0.026079
9461.000000;-0.026537
9460.000000;-0.027077
9459.000000;-0.027564
9458.000000;-0.027910
9457.000000;-0.028144
9456.000000;-0.028371
9455.000000;-0.028680
9454.000000;-0.029060
9453.000000;-0.029408
9452.000000;-0.029635
9451.000000;-0.029761
9450.000000;-0.029912
9449.000000;-0.030195
9448.000000;-0.030602
9447.000000;-0.031048
9446.000000;-0.031479
9445.000000;-0.031898
9444.000000;-0.032306
9443.000000;-0.032672
9442.000000;-0.032981
9441.000000;-0.033266
9440.000000;-0.033568
9439.000000;-0.033891
9438.000000;-0.034231
9437.000000;-0.034606
9436.000000;-0.035027
9435.000000;-0.035461
9434.000000;-0.035840
9433.000000;-0.036124
9432.000000;-0.036346
9431.000000;-0.036604
9430.000000;-0.036990
9429.000000;-0.037514
9428.000000;-0.038069
9427.000000;-0.038531
9426.000000;-0.038864
9425.000000;-0.039136
9424.000000;-0.039412
9423.000000;-0.039690
9422.000000;-0.039940
9421.000000;-0.040146
9420.000000;-0.040312
9419.000000;-0.040460
9418.000000;-0.040644
9417.000000;-0.040919
9416.000000;-0.041271
9415.000000;-0.041631
9414.000000;-0.041972
9413.000000;-0.042335
9412.000000;-0.042724
9411.000000;-0.043068
9410.000000;-0.043326
9409.000000;-0.043578
9408.000000;-0.043923
9407.000000;-0.044337
9406.000000;-0.044712
9405.000000;-0.045007
9404.000000;-0.045288
9403.000000;-0.045616
9402.000000;-0.045974
9401.000000;-0.046320
9400.000000;-0.046652
9399.000000;-0.047004
9398.000000;-0.047406
9397.000000;-0.047855
9396.000000;-0.048307
9395.000000;-0.048692
9394.000000;-0.048973
9393.000000;-0.049173
9392.000000;-0.049333
9391.000000;-0.049482
9390.000000;-0.049666
9389.000000;-0.049952
9388.000000;-0.050357
9387.000000;-0.050778
9386.000000;-0.051088
9385.000000;-0.051282
9384.000000;-0.051475
9383.000000;-0.051764
9382.000000;-0.052145
9381.000000;-0.052561
9380.000000;-0.052970
9379.000000;-0.053350
9378.000000;-0.053689
9377.000000;-0.054006
9376.000000;-0.054322
9375.000000;-0.054609
9374.000000;-0.054815
9373.000000;-0.054954
9372.000000;-0.055129
9371.000000;-0.055418
9370.000000;-0.055795
9369.000000;-0.056174
9368.000000;-0.056517
9367.000000;-0.056850
9366.000000;-0.057202
9365.000000;-0.057537
9364.000000;-0.057787
9363.000000;-0.057924
9362.000000;-0.058021
9361.000000;-0.058213
9360.000000;-0.058577
9359.000000;-0.059055
9358.000000;-0.059513
9357.000000;-0.059869
9356.000000;-0.060133
9355.000000;-0.060360
9354.000000;-0.060592
9353.000000;-0.060858
9352.000000;-0.061166
9351.000000;-0.061490
9350.000000;-0.061776
9349.000000;-0.061997
9348.000000;-0.062183
9347.000000;-0.062403
9346.000000;-0.062728
9345.000000;-0.063170
9344.000000;-0.063655
9343.000000;-0.064056
9342.000000;-0.064303
9341.000000;-0.064444
9340.000000;-0.064597
9339.000000;-0.064834
9338.000000;-0.065135
9337.000000;-0.065449
9336.000000;-0.065738
9335.000000;-0.065990
9334.000000;-0.066219
9333.000000;-0.066474
9332.000000;-0.066777
9331.000000;-0.067085
9330.000000;-0.067319
9329.000000;-0.067469
9328.000000;-0.067608
9327.000000;-0.067824
9326.000000;-0.068159
9325.000000;-0.068591
9324.000000;-0.069041
9323.000000;-0.069410
9322.000000;-0.069663
9321.000000;-0.069881
9320.000000;-0.070172
9319.000000;-0.070525
9318.000000;-0.070827
9317.000000;-0.071026
9316.000000;-0.071206
9315.000000;-0.071452
9314.000000;-0.071744
9313.000000;-0.072009
9312.000000;-0.072245
9311.000000;-0.072517
9310.000000;-0.072858
9309.000000;-0.073235
9308.000000;-0.073603
9307.000000;-0.073942
9306.000000;-0.074258
9305.000000;-0.074565
9304.000000;-0.074876
9303.000000;-0.075184
9302.000000;-0.075458
9301.000000;-0.075673
9300.000000;-0.075844
9299.000000;-0.076019
9298.000000;-0.076248
9297.000000;-0.076560
9296.000000;-0.076954
9295.000000;-0.077376
9294.000000;-0.077746
9293.000000;-0.078008
9292.000000;-0.078175
9291.000000;-0.078312
9290.000000;-0.078496
9289.000000;-0.078769
9288.000000;-0.079109
9287.000000;-0.079428
9286.000000;-0.079647
9285.000000;-0.079781
9284.000000;-0.079928
9283.000000;-0.080160
9282.000000;-0.080452
9281.000000;-0.080741
9280.000000;-0.081012
9279.000000;-0.081301
9278.000000;-0.081633
9277.000000;-0.081985
9276.000000;-0.082308
9275.000000;-0.082564
9274.000000;-0.082765
9273.000000;-0.082964
9272.000000;-0.083205
9271.000000;-0.083473
9270.000000;-0.083730
9269.000000;-0.083992
9268.000000;-0.084320
9267.000000;-0.084721
9266.000000;-0.085098
9265.000000;-0.085333
9264.000000;-0.085406
9263.000000;-0.085399
9262.000000;-0.085420
9261.000000;-0.085547
9260.000000;-0.085806
9259.000000;-0.086161
9258.000000;-0.086531
9257.000000;-0.086854
9256.000000;-0.087127
9255.000000;-0.087386
9254.000000;-0.087662
9253.000000;-0.087960
9252.000000;-0.088269
9251.000000;-0.088571
9250.000000;-0.088856
9249.000000;-0.089141
9248.000000;-0.089456
9247.000000;-0.089776
9246.000000;-0.090026
9245.000000;-0.090169
9244.000000;-0.090276
9243.000000;-0.090456
9242.000000;-0.090734
9241.000000;-0.091039
9240.000000;-0.091301
9239.000000;-0.091512
9238.000000;-0.091703
9237.000000;-0.091902
9236.000000;-0.092126
9235.000000;-0.092392
9234.000000;-0.092712
9233.000000;-0.093087
9232.000000;-0.093491
9231.000000;-0.093863
9230.000000;-0.094122
9229.000000;-0.094227
9228.000000;-0.094236
9227.000000;-0.094288
9226.000000;-0.094506
9225.000000;-0.094902
9224.000000;-0.095368
9223.000000;-0.095745
9222.000000;-0.095946
9221.000000;-0.096019
9220.000000;-0.096088
9219.000000;-0.096224
9218.000000;-0.096399
9217.000000;-0.096572
9216.000000;-0.096777
9215.000000;-0.097062
9214.000000;-0.097383
9213.000000;-0.097623
9212.000000;-0.097738
9211.000000;-0.097828
9210.000000;-0.098026
9209.000000;-0.098354
9208.000000;-0.098714
9207.000000;-0.099006
9206.000000;-0.099215
9205.000000;-0.099406
9204.000000;-0.099649
9203.000000;-0.099954
9202.000000;-0.100271
9201.000000;-0.100540
9200.000000;-0.100759
9199.000000;-0.100989
9198.000000;-0.101276
9197.000000;-0.101581
9196.000000;-0.101814
9195.000000;-0.101956
9194.000000;-0.102089
9193.000000;-0.102294
9192.000000;-0.102546
9191.000000;-0.102751
9190.000000;-0.102877
9189.000000;-0.102998
9188.000000;-0.103191
9187.000000;-0.103447
9186.000000;-0.103714
9185.000000;-0.103984
9184.000000;-0.104281
9183.000000;-0.104591
9182.000000;-0.104850
9181.000000;-0.105021
9180.000000;-0.105138
9179.000000;-0.105259
9178.000000;-0.105419
9177.000000;-0.105632
9176.000000;-0.105896
9175.000000;-0.106183
9174.000000;-0.106443
9173.000000;-0.106646
9172.000000;-0.106820
9171.000000;-0.107016
9170.000000;-0.107259
9169.000000;-0.107531
9168.000000;-0.107802
9167.000000;-0.108056
9166.000000;-0.108288
9165.000000;-0.108494
9164.000000;-0.108677
9163.000000;-0.108851
9162.000000;-0.109048
9161.000000;-0.109285
9160.000000;-0.109545
9159.000000;-0.109793
9158.000000;-0.110023
9157.000000;-0.110274
9156.000000;-0.110570
9155.000000;-0.110871
9154.000000;-0.111104
9153.000000;-0.111248
9152.000000;-0.111343
9151.000000;-0.111442
9150.000000;-0.111577
9149.000000;-0.111766
9148.000000;-0.112018
9147.000000;-0.112315
9146.000000;-0.112618
9145.000000;-0.112909
9144.000000;-0.113188
9143.000000;-0.113434
9142.000000;-0.113608
9141.000000;-0.113708
9140.000000;-0.113792
9139.000000;-0.113913
9138.000000;-0.114060
9137.000000;-0.114199
9136.000000;-0.114338
9135.000000;-0.114519
9134.000000;-0.114752
9133.000000;-0.115001
9132.000000;-0.115231
9131.000000;-0.115443
9130.000000;-0.115651
9129.000000;-0.115851
9128.000000;-0.116022
9127.000000;-0.116172
9126.000000;-0.116352
9125.000000;-0.116616
9124.000000;-0.116956
9123.000000;-0.117282
9122.000000;-0.117492
9121.000000;-0.117574
9120.000000;-0.117606
9119.000000;-0.117681
9118.000000;-0.117833
9117.000000;-0.118049
9116.000000;-0.118305
9115.000000;-0.118582
9114.000000;-0.118861
9113.000000;-0.119122
9112.000000;-0.119358
9111.000000;-0.119563
9110.000000;-0.119739
9109.000000;-0.119898
9108.000000;-0.120064
9107.000000;-0.120248
9106.000000;-0.120457
9105.000000;-0.120702
9104.000000;-0.120985
9103.000000;-0.121270
9102.000000;-0.121498
9101.000000;-0.121646
9100.000000;-0.121747
9099.000000;-0.121852
9098.000000;-0.121980
9097.000000;-0.122132
9096.000000;-0.122310
9095.000000;-0.122502
9094.000000;-0.122677
9093.000000;-0.122819
9092.000000;-0.122951
9091.000000;-0.123120
9090.000000;-0.123340
9089.000000;-0.123579
9088.000000;-0.123780
9087.000000;-0.123911
9086.000000;-0.123995
9085.000000;-0.124111
9084.000000;-0.124344
9083.000000;-0.124696
9082.000000;-0.125077
9081.000000;-0.125374
9080.000000;-0.125544
9079.000000;-0.125624
9078.000000;-0.125680
9077.000000;-0.125760
9076.000000;-0.125876
9075.000000;-0.126008
