Criado como novo conjunto de dados;"e2410_daniel_v2.spp","26643.1 Secs"
cm-1;Abs
10000.000000;0.514416
9999.000000;0.513833
9998.000000;0.513451
9997.000000;0.513214
9996.000000;0.513109
9995.000000;0.513091
9994.000000;0.513015
9993.000000;0.512716
9992.000000;0.512195
9991.000000;0.511653
9990.000000;0.511237
9989.000000;0.510854
9988.000000;0.510349
9987.000000;0.509730
9986.000000;0.509096
9985.000000;0.508431
9984.000000;0.507684
9983.000000;0.506957
9982.000000;0.506421
9981.000000;0.506051
9980.000000;0.505656
9979.000000;0.505136
9978.000000;0.504572
9977.000000;0.504067
9976.000000;0.503641
9975.000000;0.503280
9974.000000;0.502935
9973.000000;0.502484
9972.000000;0.501835
9971.000000;0.501086
9970.000000;0.500437
9969.000000;0.499961
9968.000000;0.499552
9967.000000;0.499114
9966.000000;0.498672
9965.000000;0.498303
9964.000000;0.498031
9963.000000;0.497782
9962.000000;0.497413
9961.000000;0.496828
9960.000000;0.496109
9959.000000;0.495444
9958.000000;0.494875
9957.000000;0.494247
9956.000000;0.493470
9955.000000;0.492700
9954.000000;0.492152
9953.000000;0.491875
9952.000000;0.491795
9951.000000;0.491806
9950.000000;0.491675
9949.000000;0.491092
9948.000000;0.490021
9947.000000;0.488901
9946.000000;0.488224
9945.000000;0.488017
9944.000000;0.487889
9943.000000;0.487498
9942.000000;0.486798
9941.000000;0.485928
9940.000000;0.485100
9939.000000;0.484526
9938.000000;0.484246
9937.000000;0.484061
9936.000000;0.483792
9935.000000;0.483508
9934.000000;0.483327
9933.000000;0.483129
9932.000000;0.482707
9931.000000;0.482109
9930.000000;0.481565
9929.000000;0.481147
9928.000000;0.480734
9927.000000;0.480291
9926.000000;0.479895
9925.000000;0.479517
9924.000000;0.479009
9923.000000;0.478350
9922.000000;0.477671
9921.000000;0.477028
9920.000000;0.476372
9919.000000;0.475762
9918.000000;0.475377
9917.000000;0.475242
9916.000000;0.475093
9915.000000;0.474612
9914.000000;0.473731
9913.000000;0.472670
9912.000000;0.471773
9911.000000;0.471284
9910.000000;0.471186
9909.000000;0.471223
9908.000000;0.471131
9907.000000;0.470811
9906.000000;0.470273
9905.000000;0.469555
9904.000000;0.468793
9903.000000;0.468209
9902.000000;0.467874
9901.000000;0.467586
9900.000000;0.467148
9899.000000;0.466650
9898.000000;0.466268
9897.000000;0.465916
9896.000000;0.465340
9895.000000;0.464510
9894.000000;0.463668
9893.000000;0.462998
9892.000000;0.462465
9891.000000;0.462002
9890.000000;0.461626
9889.000000;0.461330
9888.000000;0.461001
9887.000000;0.460528
9886.000000;0.459919
9885.000000;0.459311
9884.000000;0.458893
9883.000000;0.458741
9882.000000;0.458655
9881.000000;0.458263
9880.000000;0.457411
9879.000000;0.456359
9878.000000;0.455492
9877.000000;0.454954
9876.000000;0.454668
9875.000000;0.454544
9874.000000;0.454454
9873.000000;0.454164
9872.000000;0.453534
9871.000000;0.452732
9870.000000;0.452045
9869.000000;0.451553
9868.000000;0.451144
9867.000000;0.450760
9866.000000;0.450402
9865.000000;0.449984
9864.000000;0.449418
9863.000000;0.448808
9862.000000;0.448320
9861.000000;0.447925
9860.000000;0.447481
9859.000000;0.447007
9858.000000;0.446639
9857.000000;0.446340
9856.000000;0.445916
9855.000000;0.445330
9854.000000;0.444764
9853.000000;0.444345
9852.000000;0.444008
9851.000000;0.443659
9850.000000;0.443273
9849.000000;0.442802
9848.000000;0.442159
9847.000000;0.441369
9846.000000;0.440596
9845.000000;0.440000
9844.000000;0.439648
9843.000000;0.439522
9842.000000;0.439492
9841.000000;0.439327
9840.000000;0.438905
9839.000000;0.438370
9838.000000;0.437928
9837.000000;0.437554
9836.000000;0.437073
9835.000000;0.436450
9834.000000;0.435794
9833.000000;0.435110
9832.000000;0.434312
9831.000000;0.433491
9830.000000;0.432910
9829.000000;0.432671
9828.000000;0.432556
9827.000000;0.432279
9826.000000;0.431755
9825.000000;0.431079
9824.000000;0.430397
9823.000000;0.429844
9822.000000;0.429487
9821.000000;0.429249
9820.000000;0.428990
9819.000000;0.428674
9818.000000;0.428354
9817.000000;0.427996
9816.000000;0.427468
9815.000000;0.426736
9814.000000;0.425952
9813.000000;0.425306
9812.000000;0.424854
9811.000000;0.424511
9810.000000;0.424138
9809.000000;0.423626
9808.000000;0.422960
9807.000000;0.422231
9806.000000;0.421544
9805.000000;0.420935
9804.000000;0.420393
9803.000000;0.419912
9802.000000;0.419471
9801.000000;0.419052
9800.000000;0.418714
9799.000000;0.418545
9798.000000;0.418478
9797.000000;0.418295
9796.000000;0.417895
9795.000000;0.417438
9794.000000;0.417098
9793.000000;0.416803
9792.000000;0.416376
9791.000000;0.415819
9790.000000;0.415263
9789.000000;0.414749
9788.000000;0.414229
9787.000000;0.413726
9786.000000;0.413301
9785.000000;0.412908
9784.000000;0.412431
9783.000000;0.411839
9782.000000;0.411173
9781.000000;0.410444
9780.000000;0.409680
9779.000000;0.409023
9778.000000;0.408599
9777.000000;0.408344
9776.000000;0.408084
9775.000000;0.407726
9774.000000;0.407279
9773.000000;0.406754
9772.000000;0.406199
9771.000000;0.405734
9770.000000;0.405395
9769.000000;0.405048
9768.000000;0.404582
9767.000000;0.404109
9766.000000;0.403775
9765.000000;0.403499
9764.000000;0.403101
9763.000000;0.402608
9762.000000;0.402198
9761.000000;0.401888
9760.000000;0.401504
9759.000000;0.400954
9758.000000;0.400318
9757.000000;0.399693
9756.000000;0.399119
9755.000000;0.398644
9754.000000;0.398293
9753.000000;0.397975
9752.000000;0.397602
9751.000000;0.397236
9750.000000;0.396982
9749.000000;0.396772
9748.000000;0.396465
9747.000000;0.396083
9746.000000;0.395766
9745.000000;0.395498
9744.000000;0.395112
9743.000000;0.394553
9742.000000;0.393930
9741.000000;0.393301
9740.000000;0.392605
9739.000000;0.391828
9738.000000;0.391070
9737.000000;0.390387
9736.000000;0.389758
9735.000000;0.389210
9734.000000;0.388842
9733.000000;0.388659
9732.000000;0.388533
9731.000000;0.388343
9730.000000;0.388043
9729.000000;0.387617
9728.000000;0.387092
9727.000000;0.386597
9726.000000;0.386261
9725.000000;0.386054
9724.000000;0.385837
9723.000000;0.385535
9722.000000;0.385135
9721.000000;0.384570
9720.000000;0.383786
9719.000000;0.382913
9718.000000;0.382171
9717.000000;0.381612
9716.000000;0.381106
9715.000000;0.380595
9714.000000;0.380166
9713.000000;0.379852
9712.000000;0.379568
9711.000000;0.379271
9710.000000;0.379014
9709.000000;0.378775
9708.000000;0.378384
9707.000000;0.377721
9706.000000;0.376887
9705.000000;0.376104
9704.000000;0.375533
9703.000000;0.375221
9702.000000;0.375116
9701.000000;0.375065
9700.000000;0.374865
9699.000000;0.374422
9698.000000;0.373840
9697.000000;0.373324
9696.000000;0.373019
9695.000000;0.372904
9694.000000;0.372812
9693.000000;0.372551
9692.000000;0.372063
9691.000000;0.371452
9690.000000;0.370846
9689.000000;0.370278
9688.000000;0.369734
9687.000000;0.369236
9686.000000;0.368810
9685.000000;0.368434
9684.000000;0.368094
9683.000000;0.367819
9682.000000;0.367587
9681.000000;0.367260
9680.000000;0.366723
9679.000000;0.366032
9678.000000;0.365351
9677.000000;0.364780
9676.000000;0.364309
9675.000000;0.363864
9674.000000;0.363349
9673.000000;0.362714
9672.000000;0.362049
9671.000000;0.361527
9670.000000;0.361199
9669.000000;0.360933
9668.000000;0.360619
9667.000000;0.360286
9666.000000;0.359947
9665.000000;0.359495
9664.000000;0.358874
9663.000000;0.358220
9662.000000;0.357674
9661.000000;0.357199
9660.000000;0.356718
9659.000000;0.356311
9658.000000;0.356074
9657.000000;0.355905
9656.000000;0.355621
9655.000000;0.355228
9654.000000;0.354860
9653.000000;0.354547
9652.000000;0.354196
9651.000000;0.353772
9650.000000;0.353304
9649.000000;0.352787
9648.000000;0.352232
9647.000000;0.351731
9646.000000;0.351317
9645.000000;0.350841
9644.000000;0.350184
9643.000000;0.349491
9642.000000;0.349001
9641.000000;0.348716
9640.000000;0.348447
9639.000000;0.348135
9638.000000;0.347899
9637.000000;0.347779
9636.000000;0.347661
9635.000000;0.347460
9634.000000;0.347171
9633.000000;0.346754
9632.000000;0.346161
9631.000000;0.345491
9630.000000;0.344927
9629.000000;0.344505
9628.000000;0.344118
9627.000000;0.343738
9626.000000;0.343461
9625.000000;0.343287
9624.000000;0.343052
9623.000000;0.342616
9622.000000;0.342007
9621.000000;0.341351
9620.000000;0.340770
9619.000000;0.340354
9618.000000;0.340081
9617.000000;0.339782
9616.000000;0.339302
9615.000000;0.338698
9614.000000;0.338153
9613.000000;0.337745
9612.000000;0.337426
9611.000000;0.337174
9610.000000;0.336987
9609.000000;0.336742
9608.000000;0.336297
9607.000000;0.335719
9606.000000;0.335225
9605.000000;0.334864
9604.000000;0.334448
9603.000000;0.333861
9602.000000;0.333253
9601.000000;0.332829
9600.000000;0.332589
9599.000000;0.332370
9598.000000;0.332061
9597.000000;0.331673
9596.000000;0.331265
9595.000000;0.330863
9594.000000;0.330426
9593.000000;0.329888
9592.000000;0.329268
9591.000000;0.328729
9590.000000;0.328422
9589.000000;0.328304
9588.000000;0.328179
9587.000000;0.327914
9586.000000;0.327499
9585.000000;0.326951
9584.000000;0.326265
9583.000000;0.325517
9582.000000;0.324867
9581.000000;0.324424
9580.000000;0.324165
9579.000000;0.323986
9578.000000;0.323796
9577.000000;0.323552
9576.000000;0.323273
9575.000000;0.323026
9574.000000;0.322817
9573.000000;0.322534
9572.000000;0.322061
9571.000000;0.321446
9570.000000;0.320870
9569.000000;0.320455
9568.000000;0.320169
9567.000000;0.319884
9566.000000;0.319471
9565.000000;0.318860
9564.000000;0.318096
9563.000000;0.317348
9562.000000;0.316801
9561.000000;0.316541
9560.000000;0.316523
9559.000000;0.316595
9558.000000;0.316545
9557.000000;0.316219
9556.000000;0.315660
9555.000000;0.315074
9554.000000;0.314601
9553.000000;0.314210
9552.000000;0.313839
9551.000000;0.313503
9550.000000;0.313174
9549.000000;0.312716
9548.000000;0.312093
9547.000000;0.311520
9546.000000;0.311231
9545.000000;0.311165
9544.000000;0.311050
9543.000000;0.310725
9542.000000;0.310242
9541.000000;0.309672
9540.000000;0.309011
9539.000000;0.308291
9538.000000;0.307638
9537.000000;0.307184
9536.000000;0.306978
9535.000000;0.306963
9534.000000;0.306972
9533.000000;0.306822
9532.000000;0.306488
9531.000000;0.306129
9530.000000;0.305857
9529.000000;0.305586
9528.000000;0.305193
9527.000000;0.304734
9526.000000;0.304335
9525.000000;0.303962
9524.000000;0.303473
9523.000000;0.302861
9522.000000;0.302283
9521.000000;0.301846
9520.000000;0.301508
9519.000000;0.301176
9518.000000;0.300790
9517.000000;0.300317
9516.000000;0.299786
9515.000000;0.299288
9514.000000;0.298887
9513.000000;0.298534
9512.000000;0.298170
9511.000000;0.297832
9510.000000;0.297583
9509.000000;0.297388
9508.000000;0.297177
9507.000000;0.296960
9506.000000;0.296755
9505.000000;0.296486
9504.000000;0.296072
9503.000000;0.295583
9502.000000;0.295154
9501.000000;0.294803
9500.000000;0.294448
9499.000000;0.294059
9498.000000;0.293656
9497.000000;0.293214
9496.000000;0.292694
9495.000000;0.292142
9494.000000;0.291654
9493.000000;0.291278
9492.000000;0.291029
9491.000000;0.290929
9490.000000;0.290897
9489.000000;0.290722
9488.000000;0.290264
9487.000000;0.289649
9486.000000;0.289106
9485.000000;0.288700
9484.000000;0.288361
9483.000000;0.288073
9482.000000;0.287851
9481.000000;0.287596
9480.000000;0.287151
9479.000000;0.286527
9478.000000;0.285903
9477.000000;0.285439
9476.000000;0.285179
9475.000000;0.285102
9474.000000;0.285101
9473.000000;0.284968
9472.000000;0.284594
9471.000000;0.284136
9470.000000;0.283839
9469.000000;0.283697
9468.000000;0.283456
9467.000000;0.282949
9466.000000;0.282270
9465.000000;0.281627
9464.000000;0.281149
9463.000000;0.280846
9462.000000;0.280609
9461.000000;0.280259
9460.000000;0.279708
9459.000000;0.279095
9458.000000;0.278636
9457.000000;0.278374
9456.000000;0.278179
9455.000000;0.277948
9454.000000;0.277689
9453.000000;0.277418
9452.000000;0.277141
9451.000000;0.276896
9450.000000;0.276688
9449.000000;0.276411
9448.000000;0.275956
9447.000000;0.275393
9446.000000;0.274896
9445.000000;0.274510
9444.000000;0.274123
9443.000000;0.273656
9442.000000;0.273145
9441.000000;0.272657
9440.000000;0.272261
9439.000000;0.272061
9438.000000;0.272092
9437.000000;0.272184
9436.000000;0.272071
9435.000000;0.271674
9434.000000;0.271154
9433.000000;0.270670
9432.000000;0.270232
9431.000000;0.269797
9430.000000;0.269380
9429.000000;0.269007
9428.000000;0.268667
9427.000000;0.268351
9426.000000;0.268068
9425.000000;0.267795
9424.000000;0.267488
9423.000000;0.267160
9422.000000;0.266876
9421.000000;0.266664
9420.000000;0.266483
9419.000000;0.266271
9418.000000;0.265988
9417.000000;0.265630
9416.000000;0.265240
9415.000000;0.264871
9414.000000;0.264496
9413.000000;0.264019
9412.000000;0.263450
9411.000000;0.262964
9410.000000;0.262690
9409.000000;0.262530
9408.000000;0.262299
9407.000000;0.261954
9406.000000;0.261583
9405.000000;0.261217
9404.000000;0.260822
9403.000000;0.260412
9402.000000;0.260021
9401.000000;0.259611
9400.000000;0.259142
9399.000000;0.258706
9398.000000;0.258445
9397.000000;0.258342
9396.000000;0.258234
9395.000000;0.258025
9394.000000;0.257755
9393.000000;0.257477
9392.000000;0.257190
9391.000000;0.256907
9390.000000;0.256656
9389.000000;0.256413
9388.000000;0.256108
9387.000000;0.255708
9386.000000;0.255217
9385.000000;0.254649
9384.000000;0.254071
9383.000000;0.253617
9382.000000;0.253377
9381.000000;0.253275
9380.000000;0.253166
9379.000000;0.252970
9378.000000;0.252658
9377.000000;0.252206
9376.000000;0.251677
9375.000000;0.251264
9374.000000;0.251072
9373.000000;0.250941
9372.000000;0.250629
9371.000000;0.250142
9370.000000;0.249702
9369.000000;0.249433
9368.000000;0.249239
9367.000000;0.248981
9366.000000;0.248629
9365.000000;0.248228
9364.000000;0.247863
9363.000000;0.247632
9362.000000;0.247539
9361.000000;0.247427
9360.000000;0.247141
9359.000000;0.246725
9358.000000;0.246335
9357.000000;0.246012
9356.000000;0.245688
9355.000000;0.245373
9354.000000;0.245146
9353.000000;0.244976
9352.000000;0.244716
9351.000000;0.244306
9350.000000;0.243834
9349.000000;0.243405
9348.000000;0.243049
9347.000000;0.242772
9346.000000;0.242557
9345.000000;0.242304
9344.000000;0.241913
9343.000000;0.241417
9342.000000;0.240931
9341.000000;0.240485
9340.000000;0.240026
9339.000000;0.239591
9338.000000;0.239294
9337.000000;0.239153
9336.000000;0.239060
9335.000000;0.238942
9334.000000;0.238837
9333.000000;0.238770
9332.000000;0.238681
9331.000000;0.238507
9330.000000;0.238224
9329.000000;0.237802
9328.000000;0.237223
9327.000000;0.236571
9326.000000;0.236008
9325.000000;0.235636
9324.000000;0.235447
9323.000000;0.235368
9322.000000;0.235294
9321.000000;0.235090
9320.000000;0.234695
9319.000000;0.234203
9318.000000;0.233753
9317.000000;0.233370
9316.000000;0.233021
9315.000000;0.232768
9314.000000;0.232716
9313.000000;0.232809
9312.000000;0.232839
9311.000000;0.232679
9310.000000;0.232376
9309.000000;0.232015
9308.000000;0.231607
9307.000000;0.231150
9306.000000;0.230680
9305.000000;0.230223
9304.000000;0.229783
9303.000000;0.229389
9302.000000;0.229079
9301.000000;0.228850
9300.000000;0.228697
9299.000000;0.228662
9298.000000;0.228729
9297.000000;0.228714
9296.000000;0.228414
9295.000000;0.227863
9294.000000;0.227294
9293.000000;0.226857
9292.000000;0.226495
9291.000000;0.226123
9290.000000;0.225766
9289.000000;0.225476
9288.000000;0.225252
9287.000000;0.225092
9286.000000;0.225025
9285.000000;0.225008
9284.000000;0.224904
9283.000000;0.224630
9282.000000;0.224262
9281.000000;0.223944
9280.000000;0.223721
9279.000000;0.223513
9278.000000;0.223216
9277.000000;0.222812
9276.000000;0.222391
9275.000000;0.222071
9274.000000;0.221862
9273.000000;0.221656
9272.000000;0.221359
9271.000000;0.221008
9270.000000;0.220702
9269.000000;0.220475
9268.000000;0.220301
9267.000000;0.220142
9266.000000;0.219919
9265.000000;0.219510
9264.000000;0.218909
9263.000000;0.218321
9262.000000;0.217972
9261.000000;0.217857
9260.000000;0.217784
9259.000000;0.217632
9258.000000;0.217436
9257.000000;0.217218
9256.000000;0.216918
9255.000000;0.216510
9254.000000;0.216075
9253.000000;0.215715
9252.000000;0.215464
9251.000000;0.215301
9250.000000;0.215174
9249.000000;0.215012
9248.000000;0.214790
9247.000000;0.214565
9246.000000;0.214372
9245.000000;0.214140
9244.000000;0.213790
9243.000000;0.213396
9242.000000;0.213120
9241.000000;0.213001
9240.000000;0.212915
9239.000000;0.212734
9238.000000;0.212422
9237.000000;0.211993
9236.000000;0.211492
9235.000000;0.211029
9234.000000;0.210706
9233.000000;0.210493
9232.000000;0.210268
9231.000000;0.209985
9230.000000;0.209714
9229.000000;0.209516
9228.000000;0.209369
9227.000000;0.209227
9226.000000;0.209069
9225.000000;0.208860
9224.000000;0.208572
9223.000000;0.208242
9222.000000;0.207936
9221.000000;0.207652
9220.000000;0.207349
9219.000000;0.207065
9218.000000;0.206899
9217.000000;0.206864
9216.000000;0.206848
9215.000000;0.206754
9214.000000;0.206568
9213.000000;0.206287
9212.000000;0.205878
9211.000000;0.205352
9210.000000;0.204809
9209.000000;0.204362
9208.000000;0.204062
9207.000000;0.203899
9206.000000;0.203829
9205.000000;0.203760
9204.000000;0.203612
9203.000000;0.203396
9202.000000;0.203199
9201.000000;0.203054
9200.000000;0.202881
9199.000000;0.202593
9198.000000;0.202203
9197.000000;0.201811
9196.000000;0.201509
9195.000000;0.201323
9194.000000;0.201215
9193.000000;0.201117
9192.000000;0.200992
9191.000000;0.200847
9190.000000;0.200703
9189.000000;0.200552
9188.000000;0.200367
9187.000000;0.200125
9186.000000;0.199825
9185.000000;0.199505
9184.000000;0.199247
9183.000000;0.199102
9182.000000;0.199004
9181.000000;0.198814
9180.000000;0.198469
9179.000000;0.198024
9178.000000;0.197549
9177.000000;0.197058
9176.000000;0.196588
9175.000000;0.196229
9174.000000;0.196008
9173.000000;0.195830
9172.000000;0.195620
9171.000000;0.195423
9170.000000;0.195291
9169.000000;0.195152
9168.000000;0.194917
9167.000000;0.194636
9166.000000;0.194427
9165.000000;0.194292
9164.000000;0.194137
9163.000000;0.193930
9162.000000;0.193727
9161.000000;0.193554
9160.000000;0.193354
9159.000000;0.193077
9158.000000;0.192729
9157.000000;0.192361
9156.000000;0.192060
9155.000000;0.191905
9154.000000;0.191874
9153.000000;0.191814
9152.000000;0.191592
9151.000000;0.191247
9150.000000;0.190923
9149.000000;0.190710
9148.000000;0.190606
9147.000000;0.190585
9146.000000;0.190588
9145.000000;0.190495
9144.000000;0.190215
9143.000000;0.189815
9142.000000;0.189464
9141.000000;0.189247
9140.000000;0.189099
9139.000000;0.188914
9138.000000;0.188654
9137.000000;0.188366
9136.000000;0.188131
9135.000000;0.187976
9134.000000;0.187814
9133.000000;0.187514
9132.000000;0.187063
9131.000000;0.186605
9130.000000;0.186273
9129.000000;0.186057
9128.000000;0.185886
9127.000000;0.185750
9126.000000;0.185654
9125.000000;0.185539
9124.000000;0.185375
9123.000000;0.185238
9122.000000;0.185206
9121.000000;0.185210
9120.000000;0.185109
9119.000000;0.184879
9118.000000;0.184608
9117.000000;0.184349
9116.000000;0.184084
9115.000000;0.183807
9114.000000;0.183547
9113.000000;0.183304
9112.000000;0.183068
9111.000000;0.182880
9110.000000;0.182785
9109.000000;0.182735
9108.000000;0.182612
9107.000000;0.182352
9106.000000;0.181982
9105.000000;0.181566
9104.000000;0.181177
9103.000000;0.180871
9102.000000;0.180650
9101.000000;0.180441
9100.000000;0.180198
9099.000000;0.179963
9098.000000;0.179800
9097.000000;0.179702
9096.000000;0.179632
9095.000000;0.179588
9094.000000;0.179563
9093.000000;0.179491
9092.000000;0.179310
9091.000000;0.179030
9090.000000;0.178700
9089.000000;0.178353
9088.000000;0.178047
9087.000000;0.177874
9086.000000;0.177841
9085.000000;0.177821
9084.000000;0.177684
9083.000000;0.177441
9082.000000;0.177165
9081.000000;0.176874
9080.000000;0.176569
9079.000000;0.176300
9078.000000;0.176092
9077.000000;0.175875
9076.000000;0.175614
9075.000000;0.175425
9074.000000;0.175434
9073.000000;0.175573
9072.000000;0.175644
9071.000000;0.175546
9070.000000;0.175310
9069.000000;0.174980
9068.000000;0.174572
9067.000000;0.174161
9066.000000;0.173852
9065.000000;0.173673
9064.000000;0.173566
9063.000000;0.173455
9062.000000;0.173267
9061.000000;0.172943
9060.000000;0.172542
9059.000000;0.172273
9058.000000;0.172288
9057.000000;0.172479
9056.000000;0.172586
9055.000000;0.172486
9054.000000;0.172253
9053.000000;0.171969
