Criado como novo conjunto de dados;"e2410_daniel_v2.spp","23043.0 Secs"
cm-1;Abs
10000.000000;0.631845
9999.000000;0.631357
9998.000000;0.630896
9997.000000;0.630535
9996.000000;0.630227
9995.000000;0.629752
9994.000000;0.628997
9993.000000;0.628104
9992.000000;0.627254
9991.000000;0.626504
9990.000000;0.625891
9989.000000;0.625476
9988.000000;0.625191
9987.000000;0.624834
9986.000000;0.624321
9985.000000;0.623778
9984.000000;0.623310
9983.000000;0.622879
9982.000000;0.622456
9981.000000;0.622098
9980.000000;0.621784
9979.000000;0.621396
9978.000000;0.620927
9977.000000;0.620522
9976.000000;0.620199
9975.000000;0.619743
9974.000000;0.618982
9973.000000;0.618022
9972.000000;0.617097
9971.000000;0.616347
9970.000000;0.615790
9969.000000;0.615365
9968.000000;0.614949
9967.000000;0.614465
9966.000000;0.614024
9965.000000;0.613761
9964.000000;0.613553
9963.000000;0.613098
9962.000000;0.612332
9961.000000;0.611527
9960.000000;0.610926
9959.000000;0.610529
9958.000000;0.610263
9957.000000;0.610111
9956.000000;0.609953
9955.000000;0.609548
9954.000000;0.608825
9953.000000;0.608005
9952.000000;0.607307
9951.000000;0.606720
9950.000000;0.606197
9949.000000;0.605861
9948.000000;0.605830
9947.000000;0.605947
9946.000000;0.605875
9945.000000;0.605404
9944.000000;0.604597
9943.000000;0.603703
9942.000000;0.602984
9941.000000;0.602522
9940.000000;0.602138
9939.000000;0.601591
9938.000000;0.600869
9937.000000;0.600182
9936.000000;0.599670
9935.000000;0.599242
9934.000000;0.598728
9933.000000;0.598063
9932.000000;0.597329
9931.000000;0.596738
9930.000000;0.596520
9929.000000;0.596655
9928.000000;0.596756
9927.000000;0.596440
9926.000000;0.595799
9925.000000;0.595256
9924.000000;0.594988
9923.000000;0.594738
9922.000000;0.594246
9921.000000;0.593575
9920.000000;0.592933
9919.000000;0.592404
9918.000000;0.591957
9917.000000;0.591526
9916.000000;0.590982
9915.000000;0.590224
9914.000000;0.589364
9913.000000;0.588636
9912.000000;0.588088
9911.000000;0.587546
9910.000000;0.586942
9909.000000;0.586423
9908.000000;0.586057
9907.000000;0.585655
9906.000000;0.585030
9905.000000;0.584275
9904.000000;0.583645
9903.000000;0.583287
9902.000000;0.583164
9901.000000;0.583106
9900.000000;0.582875
9899.000000;0.582316
9898.000000;0.581557
9897.000000;0.580923
9896.000000;0.580608
9895.000000;0.580495
9894.000000;0.580330
9893.000000;0.579956
9892.000000;0.579371
9891.000000;0.578696
9890.000000;0.578096
9889.000000;0.577618
9888.000000;0.577140
9887.000000;0.576580
9886.000000;0.576089
9885.000000;0.575837
9884.000000;0.575669
9883.000000;0.575218
9882.000000;0.574375
9881.000000;0.573423
9880.000000;0.572707
9879.000000;0.572347
9878.000000;0.572268
9877.000000;0.572257
9876.000000;0.572000
9875.000000;0.571320
9874.000000;0.570421
9873.000000;0.569687
9872.000000;0.569229
9871.000000;0.568845
9870.000000;0.568397
9869.000000;0.567950
9868.000000;0.567526
9867.000000;0.566995
9866.000000;0.566340
9865.000000;0.565766
9864.000000;0.565447
9863.000000;0.565345
9862.000000;0.565324
9861.000000;0.565261
9860.000000;0.564992
9859.000000;0.564370
9858.000000;0.563466
9857.000000;0.562515
9856.000000;0.561641
9855.000000;0.560804
9854.000000;0.560051
9853.000000;0.559542
9852.000000;0.559279
9851.000000;0.559049
9850.000000;0.558712
9849.000000;0.558332
9848.000000;0.557950
9847.000000;0.557492
9846.000000;0.557010
9845.000000;0.556752
9844.000000;0.556828
9843.000000;0.556971
9842.000000;0.556812
9841.000000;0.556250
9840.000000;0.555450
9839.000000;0.554611
9838.000000;0.553846
9837.000000;0.553176
9836.000000;0.552532
9835.000000;0.551855
9834.000000;0.551224
9833.000000;0.550758
9832.000000;0.550397
9831.000000;0.549940
9830.000000;0.549343
9829.000000;0.548802
9828.000000;0.548471
9827.000000;0.548271
9826.000000;0.548010
9825.000000;0.547573
9824.000000;0.546940
9823.000000;0.546192
9822.000000;0.545535
9821.000000;0.545154
9820.000000;0.544995
9819.000000;0.544814
9818.000000;0.544477
9817.000000;0.544060
9816.000000;0.543656
9815.000000;0.543245
9814.000000;0.542803
9813.000000;0.542340
9812.000000;0.541822
9811.000000;0.541192
9810.000000;0.540526
9809.000000;0.540002
9808.000000;0.539672
9807.000000;0.539384
9806.000000;0.538945
9805.000000;0.538253
9804.000000;0.537319
9803.000000;0.536326
9802.000000;0.535602
9801.000000;0.535358
9800.000000;0.535447
9799.000000;0.535540
9798.000000;0.535477
9797.000000;0.535262
9796.000000;0.534852
9795.000000;0.534203
9794.000000;0.533489
9793.000000;0.532947
9792.000000;0.532535
9791.000000;0.532009
9790.000000;0.531350
9789.000000;0.530788
9788.000000;0.530397
9787.000000;0.529978
9786.000000;0.529441
9785.000000;0.528968
9784.000000;0.528721
9783.000000;0.528627
9782.000000;0.528540
9781.000000;0.528372
9780.000000;0.527978
9779.000000;0.527206
9778.000000;0.526153
9777.000000;0.525161
9776.000000;0.524448
9775.000000;0.523976
9774.000000;0.523696
9773.000000;0.523650
9772.000000;0.523712
9771.000000;0.523542
9770.000000;0.522973
9769.000000;0.522220
9768.000000;0.521556
9767.000000;0.520991
9766.000000;0.520422
9765.000000;0.519892
9764.000000;0.519489
9763.000000;0.519164
9762.000000;0.518800
9761.000000;0.518377
9760.000000;0.517947
9759.000000;0.517550
9758.000000;0.517236
9757.000000;0.517030
9756.000000;0.516806
9755.000000;0.516349
9754.000000;0.515619
9753.000000;0.514831
9752.000000;0.514193
9751.000000;0.513708
9750.000000;0.513284
9749.000000;0.512868
9748.000000;0.512422
9747.000000;0.511900
9746.000000;0.511342
9745.000000;0.510855
9744.000000;0.510487
9743.000000;0.510202
9742.000000;0.509973
9741.000000;0.509766
9740.000000;0.509459
9739.000000;0.508978
9738.000000;0.508472
9737.000000;0.508127
9736.000000;0.507844
9735.000000;0.507357
9734.000000;0.506690
9733.000000;0.506187
9732.000000;0.506020
9731.000000;0.505951
9730.000000;0.505659
9729.000000;0.505081
9728.000000;0.504339
9727.000000;0.503559
9726.000000;0.502886
9725.000000;0.502428
9724.000000;0.502090
9723.000000;0.501638
9722.000000;0.501018
9721.000000;0.500420
9720.000000;0.499966
9719.000000;0.499567
9718.000000;0.499155
9717.000000;0.498817
9716.000000;0.498584
9715.000000;0.498307
9714.000000;0.497880
9713.000000;0.497379
9712.000000;0.496859
9711.000000;0.496247
9710.000000;0.495556
9709.000000;0.495009
9708.000000;0.494758
9707.000000;0.494663
9706.000000;0.494497
9705.000000;0.494212
9704.000000;0.493857
9703.000000;0.493394
9702.000000;0.492760
9701.000000;0.492010
9700.000000;0.491268
9699.000000;0.490631
9698.000000;0.490189
9697.000000;0.489982
9696.000000;0.489853
9695.000000;0.489502
9694.000000;0.488817
9693.000000;0.488018
9692.000000;0.487397
9691.000000;0.487021
9690.000000;0.486784
9689.000000;0.486570
9688.000000;0.486273
9687.000000;0.485803
9686.000000;0.485201
9685.000000;0.484656
9684.000000;0.484301
9683.000000;0.484079
9682.000000;0.483883
9681.000000;0.483699
9680.000000;0.483514
9679.000000;0.483216
9678.000000;0.482699
9677.000000;0.481986
9676.000000;0.481206
9675.000000;0.480509
9674.000000;0.480017
9673.000000;0.479729
9672.000000;0.479435
9671.000000;0.478860
9670.000000;0.477976
9669.000000;0.477062
9668.000000;0.476422
9667.000000;0.476141
9666.000000;0.476113
9665.000000;0.476150
9664.000000;0.476040
9663.000000;0.475662
9662.000000;0.475119
9661.000000;0.474619
9660.000000;0.474209
9659.000000;0.473746
9658.000000;0.473149
9657.000000;0.472522
9656.000000;0.471999
9655.000000;0.471632
9654.000000;0.471445
9653.000000;0.471417
9652.000000;0.471382
9651.000000;0.471116
9650.000000;0.470598
9649.000000;0.470024
9648.000000;0.469522
9647.000000;0.469009
9646.000000;0.468398
9645.000000;0.467754
9644.000000;0.467176
9643.000000;0.466678
9642.000000;0.466270
9641.000000;0.465986
9640.000000;0.465766
9639.000000;0.465445
9638.000000;0.464950
9637.000000;0.464392
9636.000000;0.463892
9635.000000;0.463437
9634.000000;0.462978
9633.000000;0.462519
9632.000000;0.462070
9631.000000;0.461606
9630.000000;0.461145
9629.000000;0.460753
9628.000000;0.460440
9627.000000;0.460139
9626.000000;0.459819
9625.000000;0.459522
9624.000000;0.459275
9623.000000;0.459068
9622.000000;0.458905
9621.000000;0.458745
9620.000000;0.458422
9619.000000;0.457814
9618.000000;0.457067
9617.000000;0.456470
9616.000000;0.456089
9615.000000;0.455734
9614.000000;0.455289
9613.000000;0.454865
9612.000000;0.454540
9611.000000;0.454168
9610.000000;0.453568
9609.000000;0.452790
9608.000000;0.452060
9607.000000;0.451563
9606.000000;0.451311
9605.000000;0.451186
9604.000000;0.451042
9603.000000;0.450831
9602.000000;0.450600
9601.000000;0.450333
9600.000000;0.449894
9599.000000;0.449220
9598.000000;0.448490
9597.000000;0.447925
9596.000000;0.447517
9595.000000;0.447132
9594.000000;0.446774
9593.000000;0.446530
9592.000000;0.446336
9591.000000;0.446060
9590.000000;0.445780
9589.000000;0.445674
9588.000000;0.445678
9587.000000;0.445515
9586.000000;0.445089
9585.000000;0.444553
9584.000000;0.443983
9583.000000;0.443285
9582.000000;0.442504
9581.000000;0.441890
9580.000000;0.441551
9579.000000;0.441287
9578.000000;0.440897
9577.000000;0.440422
9576.000000;0.439972
9575.000000;0.439559
9574.000000;0.439203
9573.000000;0.438986
9572.000000;0.438875
9571.000000;0.438653
9570.000000;0.438174
9569.000000;0.437530
9568.000000;0.436872
9567.000000;0.436252
9566.000000;0.435714
9565.000000;0.435342
9564.000000;0.435102
9563.000000;0.434789
9562.000000;0.434286
9561.000000;0.433740
9560.000000;0.433382
9559.000000;0.433262
9558.000000;0.433238
9557.000000;0.433115
9556.000000;0.432741
9555.000000;0.432117
9554.000000;0.431452
9553.000000;0.430996
9552.000000;0.430779
9551.000000;0.430623
9550.000000;0.430396
9549.000000;0.430090
9548.000000;0.429686
9547.000000;0.429140
9546.000000;0.428552
9545.000000;0.428123
9544.000000;0.427905
9543.000000;0.427765
9542.000000;0.427608
9541.000000;0.427441
9540.000000;0.427196
9539.000000;0.426733
9538.000000;0.426070
9537.000000;0.425408
9536.000000;0.424854
9535.000000;0.424351
9534.000000;0.423892
9533.000000;0.423593
9532.000000;0.423440
9531.000000;0.423225
9530.000000;0.422821
9529.000000;0.422332
9528.000000;0.421868
9527.000000;0.421381
9526.000000;0.420828
9525.000000;0.420302
9524.000000;0.419874
9523.000000;0.419494
9522.000000;0.419141
9521.000000;0.418910
9520.000000;0.418822
9519.000000;0.418728
9518.000000;0.418508
9517.000000;0.418193
9516.000000;0.417811
9515.000000;0.417296
9514.000000;0.416662
9513.000000;0.416090
9512.000000;0.415701
9511.000000;0.415394
9510.000000;0.415010
9509.000000;0.414545
9508.000000;0.414103
9507.000000;0.413772
9506.000000;0.413610
9505.000000;0.413596
9504.000000;0.413540
9503.000000;0.413187
9502.000000;0.412510
9501.000000;0.411748
9500.000000;0.411107
9499.000000;0.410583
9498.000000;0.410139
9497.000000;0.409825
9496.000000;0.409637
9495.000000;0.409426
9494.000000;0.409102
9493.000000;0.408766
9492.000000;0.408529
9491.000000;0.408335
9490.000000;0.408076
9489.000000;0.407761
9488.000000;0.407456
9487.000000;0.407165
9486.000000;0.406870
9485.000000;0.406578
9484.000000;0.406270
9483.000000;0.405892
9482.000000;0.405442
9481.000000;0.404948
9480.000000;0.404357
9479.000000;0.403614
9478.000000;0.402873
9477.000000;0.402415
9476.000000;0.402304
9475.000000;0.402291
9474.000000;0.402137
9473.000000;0.401837
9472.000000;0.401483
9471.000000;0.401112
9470.000000;0.400789
9469.000000;0.400607
9468.000000;0.400481
9467.000000;0.400152
9466.000000;0.399529
9465.000000;0.398848
9464.000000;0.398367
9463.000000;0.398068
9462.000000;0.397788
9461.000000;0.397489
9460.000000;0.397224
9459.000000;0.396994
9458.000000;0.396771
9457.000000;0.396567
9456.000000;0.396340
9455.000000;0.395976
9454.000000;0.395453
9453.000000;0.394912
9452.000000;0.394462
9451.000000;0.394054
9450.000000;0.393640
9449.000000;0.393298
9448.000000;0.393072
9447.000000;0.392841
9446.000000;0.392507
9445.000000;0.392154
9444.000000;0.391911
9443.000000;0.391744
9442.000000;0.391546
9441.000000;0.391313
9440.000000;0.391085
9439.000000;0.390796
9438.000000;0.390342
9437.000000;0.389729
9436.000000;0.389059
9435.000000;0.388440
9434.000000;0.387979
9433.000000;0.387754
9432.000000;0.387695
9431.000000;0.387577
9430.000000;0.387252
9429.000000;0.386797
9428.000000;0.386354
9427.000000;0.385948
9426.000000;0.385543
9425.000000;0.385158
9424.000000;0.384810
9423.000000;0.384447
9422.000000;0.384055
9421.000000;0.383743
9420.000000;0.383591
9419.000000;0.383495
9418.000000;0.383258
9417.000000;0.382795
9416.000000;0.382173
9415.000000;0.381515
9414.000000;0.380952
9413.000000;0.380584
9412.000000;0.380401
9411.000000;0.380298
9410.000000;0.380211
9409.000000;0.380159
9408.000000;0.380113
9407.000000;0.379945
9406.000000;0.379576
9405.000000;0.379084
9404.000000;0.378590
9403.000000;0.378142
9402.000000;0.377754
9401.000000;0.377455
9400.000000;0.377207
9399.000000;0.376907
9398.000000;0.376539
9397.000000;0.376211
9396.000000;0.375969
9395.000000;0.375695
9394.000000;0.375299
9393.000000;0.374877
9392.000000;0.374566
9391.000000;0.374343
9390.000000;0.374090
9389.000000;0.373787
9388.000000;0.373497
9387.000000;0.373217
9386.000000;0.372854
9385.000000;0.372358
9384.000000;0.371780
9383.000000;0.371232
9382.000000;0.370828
9381.000000;0.370592
9380.000000;0.370402
9379.000000;0.370096
9378.000000;0.369670
9377.000000;0.369303
9376.000000;0.369133
9375.000000;0.369098
9374.000000;0.369048
9373.000000;0.368927
9372.000000;0.368746
9371.000000;0.368481
9370.000000;0.368092
9369.000000;0.367597
9368.000000;0.367063
9367.000000;0.366546
9366.000000;0.366099
9365.000000;0.365771
9364.000000;0.365536
9363.000000;0.365305
9362.000000;0.365053
9361.000000;0.364858
9360.000000;0.364754
9359.000000;0.364628
9358.000000;0.364356
9357.000000;0.363980
9356.000000;0.363655
9355.000000;0.363428
9354.000000;0.363166
9353.000000;0.362705
9352.000000;0.362047
9351.000000;0.361402
9350.000000;0.360992
9349.000000;0.360829
9348.000000;0.360693
9347.000000;0.360400
9346.000000;0.360027
9345.000000;0.359782
9344.000000;0.359685
9343.000000;0.359535
9342.000000;0.359198
9341.000000;0.358777
9340.000000;0.358441
9339.000000;0.358200
9338.000000;0.357958
9337.000000;0.357672
9336.000000;0.357385
9335.000000;0.357123
9334.000000;0.356858
9333.000000;0.356546
9332.000000;0.356168
9331.000000;0.355744
9330.000000;0.355334
9329.000000;0.354991
9328.000000;0.354701
9327.000000;0.354419
9326.000000;0.354127
9325.000000;0.353846
9324.000000;0.353590
9323.000000;0.353374
9322.000000;0.353203
9321.000000;0.353008
9320.000000;0.352644
9319.000000;0.352070
9318.000000;0.351484
9317.000000;0.351157
9316.000000;0.351135
9315.000000;0.351198
9314.000000;0.351118
9313.000000;0.350827
9312.000000;0.350380
9311.000000;0.349865
9310.000000;0.349388
9309.000000;0.349025
9308.000000;0.348757
9307.000000;0.348529
9306.000000;0.348343
9305.000000;0.348212
9304.000000;0.348039
9303.000000;0.347700
9302.000000;0.347243
9301.000000;0.346878
9300.000000;0.346729
9299.000000;0.346713
9298.000000;0.346670
9297.000000;0.346508
9296.000000;0.346204
9295.000000;0.345810
9294.000000;0.345463
9293.000000;0.345274
9292.000000;0.345174
9291.000000;0.344969
9290.000000;0.344581
9289.000000;0.344133
9288.000000;0.343773
9287.000000;0.343524
9286.000000;0.343324
9285.000000;0.343104
9284.000000;0.342808
9283.000000;0.342447
9282.000000;0.342127
9281.000000;0.341927
9280.000000;0.341750
9279.000000;0.341410
9278.000000;0.340889
9277.000000;0.340377
9276.000000;0.340050
9275.000000;0.339918
9274.000000;0.339876
9273.000000;0.339792
9272.000000;0.339519
9271.000000;0.338992
9270.000000;0.338346
9269.000000;0.337833
9268.000000;0.337571
9267.000000;0.337479
9266.000000;0.337440
9265.000000;0.337406
9264.000000;0.337336
9263.000000;0.337174
9262.000000;0.336919
9261.000000;0.336602
9260.000000;0.336196
9259.000000;0.335693
9258.000000;0.335232
9257.000000;0.334992
9256.000000;0.334923
9255.000000;0.334783
9254.000000;0.334475
9253.000000;0.334145
9252.000000;0.333904
9251.000000;0.333639
9250.000000;0.333225
9249.000000;0.332749
9248.000000;0.332402
9247.000000;0.332249
9246.000000;0.332209
9245.000000;0.332169
9244.000000;0.332018
9243.000000;0.331680
9242.000000;0.331212
9241.000000;0.330811
9240.000000;0.330628
9239.000000;0.330615
9238.000000;0.330607
9237.000000;0.330484
9236.000000;0.330215
9235.000000;0.329832
9234.000000;0.329409
9233.000000;0.329035
9232.000000;0.328746
9231.000000;0.328522
9230.000000;0.328348
9229.000000;0.328192
9228.000000;0.327976
9227.000000;0.327645
9226.000000;0.327275
9225.000000;0.326986
9224.000000;0.326750
9223.000000;0.326435
9222.000000;0.326035
9221.000000;0.325712
9220.000000;0.325565
9219.000000;0.325493
9218.000000;0.325361
9217.000000;0.325157
9216.000000;0.324931
9215.000000;0.324692
9214.000000;0.324444
9213.000000;0.324220
9212.000000;0.323993
9211.000000;0.323667
9210.000000;0.323215
9209.000000;0.322768
9208.000000;0.322482
9207.000000;0.322375
9206.000000;0.322351
9205.000000;0.322315
9204.000000;0.322231
9203.000000;0.322114
9202.000000;0.322008
9201.000000;0.321919
9200.000000;0.321754
9199.000000;0.321413
9198.000000;0.320947
9197.000000;0.320524
9196.000000;0.320227
9195.000000;0.319974
9194.000000;0.319667
9193.000000;0.319328
9192.000000;0.319036
9191.000000;0.318833
9190.000000;0.318724
9189.000000;0.318680
9188.000000;0.318597
9187.000000;0.318360
9186.000000;0.317979
9185.000000;0.317610
9184.000000;0.317375
9183.000000;0.317238
9182.000000;0.317087
9181.000000;0.316874
9180.000000;0.316622
9179.000000;0.316369
9178.000000;0.316137
9177.000000;0.315913
9176.000000;0.315639
9175.000000;0.315264
9174.000000;0.314817
9173.000000;0.314373
9172.000000;0.313970
9171.000000;0.313618
9170.000000;0.313368
9169.000000;0.313263
9168.000000;0.313248
9167.000000;0.313216
9166.000000;0.313151
9165.000000;0.313100
9164.000000;0.313019
9163.000000;0.312768
9162.000000;0.312316
9161.000000;0.311827
9160.000000;0.311492
9159.000000;0.311350
9158.000000;0.311309
9157.000000;0.311263
9156.000000;0.311145
9155.000000;0.310940
9154.000000;0.310694
9153.000000;0.310464
9152.000000;0.310252
9151.000000;0.310027
9150.000000;0.309794
9149.000000;0.309578
9148.000000;0.309349
9147.000000;0.309045
9146.000000;0.308673
9145.000000;0.308314
9144.000000;0.308044
9143.000000;0.307897
9142.000000;0.307865
9141.000000;0.307849
9140.000000;0.307674
9139.000000;0.307255
9138.000000;0.306741
9137.000000;0.306374
9136.000000;0.306226
9135.000000;0.306169
9134.000000;0.306061
9133.000000;0.305871
9132.000000;0.305630
9131.000000;0.305393
9130.000000;0.305218
9129.000000;0.305070
9128.000000;0.304805
9127.000000;0.304355
9126.000000;0.303892
9125.000000;0.303649
9124.000000;0.303608
9123.000000;0.303538
9122.000000;0.303310
9121.000000;0.303018
9120.000000;0.302786
9119.000000;0.302631
9118.000000;0.302531
9117.000000;0.302464
9116.000000;0.302337
9115.000000;0.302042
9114.000000;0.301636
9113.000000;0.301301
9112.000000;0.301112
9111.000000;0.300981
9110.000000;0.300852
9109.000000;0.300782
9108.000000;0.300779
9107.000000;0.300721
9106.000000;0.300517
9105.000000;0.300224
9104.000000;0.299922
9103.000000;0.299605
9102.000000;0.299271
9101.000000;0.298986
9100.000000;0.298790
9099.000000;0.298635
9098.000000;0.298494
9097.000000;0.298417
9096.000000;0.298407
9095.000000;0.298345
9094.000000;0.298135
9093.000000;0.297837
9092.000000;0.297596
9091.000000;0.297482
9090.000000;0.297448
9089.000000;0.297388
9088.000000;0.297179
9087.000000;0.296759
9086.000000;0.296220
9085.000000;0.295763
9084.000000;0.295520
9083.000000;0.295467
9082.000000;0.295500
9081.000000;0.295521
9080.000000;0.295443
9079.000000;0.295207
9078.000000;0.294867
9077.000000;0.294567
9076.000000;0.294399
9075.000000;0.294310
9074.000000;0.294186
9073.000000;0.293966
9072.000000;0.293672
9071.000000;0.293379
9070.000000;0.293177
9069.000000;0.293100
9068.000000;0.293076
9067.000000;0.292995
9066.000000;0.292818
9065.000000;0.292582
9064.000000;0.292318
9063.000000;0.292052
9062.000000;0.291840
9061.000000;0.291721
9060.000000;0.291644
9059.000000;0.291529
9058.000000;0.291372
9057.000000;0.291218
9056.000000;0.291041
9055.000000;0.290777
9054.000000;0.290440
9053.000000;0.290119
