Criado como novo conjunto de dados;"e2410_daniel_v2.spp","95227.0 Secs"
cm-1;Abs
10000.000000;0.112329
9999.000000;0.113002
9998.000000;0.113924
9997.000000;0.114910
9996.000000;0.115716
9995.000000;0.116278
9994.000000;0.116719
9993.000000;0.117175
9992.000000;0.117673
9991.000000;0.118177
9990.000000;0.118672
9989.000000;0.119186
9988.000000;0.119767
9987.000000;0.120451
9986.000000;0.121229
9985.000000;0.122035
9984.000000;0.122787
9983.000000;0.123448
9982.000000;0.124029
9981.000000;0.124537
9980.000000;0.124968
9979.000000;0.125358
9978.000000;0.125796
9977.000000;0.126360
9976.000000;0.127041
9975.000000;0.127753
9974.000000;0.128428
9973.000000;0.129072
9972.000000;0.129733
9971.000000;0.130423
9970.000000;0.131106
9969.000000;0.131757
9968.000000;0.132404
9967.000000;0.133091
9966.000000;0.133824
9965.000000;0.134581
9964.000000;0.135369
9963.000000;0.136202
9962.000000;0.137035
9961.000000;0.137770
9960.000000;0.138373
9959.000000;0.138926
9958.000000;0.139509
9957.000000;0.140093
9956.000000;0.140612
9955.000000;0.141100
9954.000000;0.141664
9953.000000;0.142318
9952.000000;0.142951
9951.000000;0.143483
9950.000000;0.143978
9949.000000;0.144544
9948.000000;0.145203
9947.000000;0.145898
9946.000000;0.146588
9945.000000;0.147272
9944.000000;0.147948
9943.000000;0.148604
9942.000000;0.149237
9941.000000;0.149835
9940.000000;0.150356
9939.000000;0.150787
9938.000000;0.151207
9937.000000;0.151758
9936.000000;0.152521
9935.000000;0.153458
9934.000000;0.154466
9933.000000;0.155465
9932.000000;0.156414
9931.000000;0.157273
9930.000000;0.157979
9929.000000;0.158491
9928.000000;0.158853
9927.000000;0.159201
9926.000000;0.159665
9925.000000;0.160265
9924.000000;0.160914
9923.000000;0.161532
9922.000000;0.162113
9921.000000;0.162712
9920.000000;0.163397
9919.000000;0.164227
9918.000000;0.165206
9917.000000;0.166222
9916.000000;0.167083
9915.000000;0.167690
9914.000000;0.168164
9913.000000;0.168729
9912.000000;0.169482
9911.000000;0.170309
9910.000000;0.171029
9909.000000;0.171582
9908.000000;0.172089
9907.000000;0.172756
9906.000000;0.173707
9905.000000;0.174853
9904.000000;0.175920
9903.000000;0.176676
9902.000000;0.177153
9901.000000;0.177621
9900.000000;0.178316
9899.000000;0.179216
9898.000000;0.180077
9897.000000;0.180687
9896.000000;0.181047
9895.000000;0.181342
9894.000000;0.181770
9893.000000;0.182394
9892.000000;0.183132
9891.000000;0.183872
9890.000000;0.184580
9889.000000;0.185314
9888.000000;0.186113
9887.000000;0.186918
9886.000000;0.187598
9885.000000;0.188082
9884.000000;0.188443
9883.000000;0.188860
9882.000000;0.189477
9881.000000;0.190319
9880.000000;0.191334
9879.000000;0.192481
9878.000000;0.193718
9877.000000;0.194924
9876.000000;0.195883
9875.000000;0.196431
9874.000000;0.196629
9873.000000;0.196765
9872.000000;0.197157
9871.000000;0.197915
9870.000000;0.198884
9869.000000;0.199814
9868.000000;0.200607
9867.000000;0.201395
9866.000000;0.202351
9865.000000;0.203459
9864.000000;0.204503
9863.000000;0.205300
9862.000000;0.205870
9861.000000;0.206385
9860.000000;0.207005
9859.000000;0.207781
9858.000000;0.208647
9857.000000;0.209457
9856.000000;0.210088
9855.000000;0.210583
9854.000000;0.211153
9853.000000;0.211979
9852.000000;0.213028
9851.000000;0.214091
9850.000000;0.214976
9849.000000;0.215633
9848.000000;0.216143
9847.000000;0.216665
9846.000000;0.217353
9845.000000;0.218237
9844.000000;0.219178
9843.000000;0.220009
9842.000000;0.220698
9841.000000;0.221315
9840.000000;0.221906
9839.000000;0.222480
9838.000000;0.223090
9837.000000;0.223798
9836.000000;0.224569
9835.000000;0.225334
9834.000000;0.226189
9833.000000;0.227356
9832.000000;0.228884
9831.000000;0.230491
9830.000000;0.231800
9829.000000;0.232671
9828.000000;0.233223
9827.000000;0.233605
9826.000000;0.233875
9825.000000;0.234070
9824.000000;0.234274
9823.000000;0.234601
9822.000000;0.235152
9821.000000;0.235982
9820.000000;0.237042
9819.000000;0.238184
9818.000000;0.239244
9817.000000;0.240145
9816.000000;0.240905
9815.000000;0.241617
9814.000000;0.242417
9813.000000;0.243391
9812.000000;0.244450
9811.000000;0.245390
9810.000000;0.246165
9809.000000;0.246995
9808.000000;0.248077
9807.000000;0.249255
9806.000000;0.250139
9805.000000;0.250565
9804.000000;0.250779
9803.000000;0.251157
9802.000000;0.251864
9801.000000;0.252827
9800.000000;0.253886
9799.000000;0.254906
9798.000000;0.255801
9797.000000;0.256565
9796.000000;0.257254
9795.000000;0.257901
9794.000000;0.258534
9793.000000;0.259254
9792.000000;0.260193
9791.000000;0.261331
9790.000000;0.262440
9789.000000;0.263321
9788.000000;0.264043
9787.000000;0.264855
9786.000000;0.265915
9785.000000;0.267174
9784.000000;0.268486
9783.000000;0.269709
9782.000000;0.270732
9781.000000;0.271517
9780.000000;0.272138
9779.000000;0.272723
9778.000000;0.273334
9777.000000;0.273961
9776.000000;0.274588
9775.000000;0.275199
9774.000000;0.275752
9773.000000;0.276267
9772.000000;0.276937
9771.000000;0.277986
9770.000000;0.279358
9769.000000;0.280667
9768.000000;0.281560
9767.000000;0.282085
9766.000000;0.282593
9765.000000;0.283342
9764.000000;0.284276
9763.000000;0.285156
9762.000000;0.285789
9761.000000;0.286160
9760.000000;0.286457
9759.000000;0.286982
9758.000000;0.287933
9757.000000;0.289215
9756.000000;0.290532
9755.000000;0.291676
9754.000000;0.292660
9753.000000;0.293541
9752.000000;0.294257
9751.000000;0.294729
9750.000000;0.295059
9749.000000;0.295503
9748.000000;0.296221
9747.000000;0.297165
9746.000000;0.298208
9745.000000;0.299327
9744.000000;0.300560
9743.000000;0.301833
9742.000000;0.302909
9741.000000;0.303598
9740.000000;0.304023
9739.000000;0.304574
9738.000000;0.305506
9737.000000;0.306647
9736.000000;0.307614
9735.000000;0.308301
9734.000000;0.308986
9733.000000;0.309913
9732.000000;0.310923
9731.000000;0.311643
9730.000000;0.311939
9729.000000;0.312049
9728.000000;0.312354
9727.000000;0.313142
9726.000000;0.314491
9725.000000;0.316169
9724.000000;0.317708
9723.000000;0.318811
9722.000000;0.319696
9721.000000;0.320809
9720.000000;0.322194
9719.000000;0.323403
9718.000000;0.324105
9717.000000;0.324500
9716.000000;0.324975
9715.000000;0.325615
9714.000000;0.326330
9713.000000;0.327235
9712.000000;0.328561
9711.000000;0.330207
9710.000000;0.331705
9709.000000;0.332676
9708.000000;0.333134
9707.000000;0.333311
9706.000000;0.333407
9705.000000;0.333613
9704.000000;0.334140
9703.000000;0.335075
9702.000000;0.336260
9701.000000;0.337425
9700.000000;0.338400
9699.000000;0.339179
9698.000000;0.339864
9697.000000;0.340597
9696.000000;0.341482
9695.000000;0.342498
9694.000000;0.343530
9693.000000;0.344510
9692.000000;0.345463
9691.000000;0.346415
9690.000000;0.347325
9689.000000;0.348150
9688.000000;0.348905
9687.000000;0.349621
9686.000000;0.350349
9685.000000;0.351213
9684.000000;0.352369
9683.000000;0.353819
9682.000000;0.355300
9681.000000;0.356441
9680.000000;0.357048
9679.000000;0.357259
9678.000000;0.357453
9677.000000;0.357981
9676.000000;0.358911
9675.000000;0.360000
9674.000000;0.360960
9673.000000;0.361742
9672.000000;0.362535
9671.000000;0.363516
9670.000000;0.364709
9669.000000;0.366035
9668.000000;0.367364
9667.000000;0.368481
9666.000000;0.369194
9665.000000;0.369541
9664.000000;0.369800
9663.000000;0.370232
9662.000000;0.370873
9661.000000;0.371628
9660.000000;0.372434
9659.000000;0.373276
9658.000000;0.374147
9657.000000;0.375081
9656.000000;0.376145
9655.000000;0.377329
9654.000000;0.378522
9653.000000;0.379646
9652.000000;0.380708
9651.000000;0.381652
9650.000000;0.382308
9649.000000;0.382636
9648.000000;0.382912
9647.000000;0.383513
9646.000000;0.384537
9645.000000;0.385737
9644.000000;0.386776
9643.000000;0.387449
9642.000000;0.387770
9641.000000;0.387996
9640.000000;0.388538
9639.000000;0.389648
9638.000000;0.391156
9637.000000;0.392613
9636.000000;0.393684
9635.000000;0.394335
9634.000000;0.394720
9633.000000;0.395035
9632.000000;0.395496
9631.000000;0.396235
9630.000000;0.397170
9629.000000;0.398097
9628.000000;0.398968
9627.000000;0.399959
9626.000000;0.401218
9625.000000;0.402633
9624.000000;0.403920
9623.000000;0.404848
9622.000000;0.405353
9621.000000;0.405555
9620.000000;0.405756
9619.000000;0.406307
9618.000000;0.407331
9617.000000;0.408601
9616.000000;0.409742
9615.000000;0.410538
9614.000000;0.410985
9613.000000;0.411160
9612.000000;0.411194
9611.000000;0.411346
9610.000000;0.411919
9609.000000;0.412993
9608.000000;0.414309
9607.000000;0.415467
9606.000000;0.416254
9605.000000;0.416779
9604.000000;0.417349
9603.000000;0.418241
9602.000000;0.419514
9601.000000;0.420964
9600.000000;0.422248
9599.000000;0.423119
9598.000000;0.423595
9597.000000;0.423909
9596.000000;0.424317
9595.000000;0.424927
9594.000000;0.425641
9593.000000;0.426227
9592.000000;0.426501
9591.000000;0.426506
9590.000000;0.426520
9589.000000;0.426813
9588.000000;0.427418
9587.000000;0.428168
9586.000000;0.428937
9585.000000;0.429736
9584.000000;0.430584
9583.000000;0.431422
9582.000000;0.432224
9581.000000;0.433066
9580.000000;0.433986
9579.000000;0.434870
9578.000000;0.435587
9577.000000;0.436194
9576.000000;0.436853
9575.000000;0.437615
9574.000000;0.438449
9573.000000;0.439458
9572.000000;0.440841
9571.000000;0.442567
9570.000000;0.444234
9569.000000;0.445372
9568.000000;0.445822
9567.000000;0.445743
9566.000000;0.445393
9565.000000;0.445042
9564.000000;0.444972
9563.000000;0.445383
9562.000000;0.446242
9561.000000;0.447283
9560.000000;0.448161
9559.000000;0.448603
9558.000000;0.448537
9557.000000;0.448177
9556.000000;0.447965
9555.000000;0.448281
9554.000000;0.449188
9553.000000;0.450469
9552.000000;0.451868
9551.000000;0.453205
9550.000000;0.454285
9549.000000;0.454890
9548.000000;0.454980
9547.000000;0.454808
9546.000000;0.454703
9545.000000;0.454705
9544.000000;0.454569
9543.000000;0.454202
9542.000000;0.453995
9541.000000;0.454513
9540.000000;0.455830
9539.000000;0.457346
9538.000000;0.458409
9537.000000;0.459035
9536.000000;0.459792
9535.000000;0.461015
9534.000000;0.462363
9533.000000;0.463248
9532.000000;0.463519
9531.000000;0.463569
9530.000000;0.463850
9529.000000;0.464468
9528.000000;0.465198
9527.000000;0.465764
9526.000000;0.466073
9525.000000;0.466243
9524.000000;0.466480
9523.000000;0.466905
9522.000000;0.467482
9521.000000;0.468072
9520.000000;0.468534
9519.000000;0.468816
9518.000000;0.469001
9517.000000;0.469239
9516.000000;0.469541
9515.000000;0.469698
9514.000000;0.469551
9513.000000;0.469319
9512.000000;0.469444
9511.000000;0.470039
9510.000000;0.470696
9509.000000;0.470955
9508.000000;0.470826
9507.000000;0.470679
9506.000000;0.470762
9505.000000;0.471036
9504.000000;0.471394
9503.000000;0.471816
9502.000000;0.472274
9501.000000;0.472696
9500.000000;0.473079
9499.000000;0.473517
9498.000000;0.474038
9497.000000;0.474490
9496.000000;0.474698
9495.000000;0.474703
9494.000000;0.474783
9493.000000;0.475188
9492.000000;0.475859
9491.000000;0.476465
9490.000000;0.476757
9489.000000;0.476850
9488.000000;0.477097
9487.000000;0.477650
9486.000000;0.478252
9485.000000;0.478522
9484.000000;0.478335
9483.000000;0.477876
9482.000000;0.477477
9481.000000;0.477451
9480.000000;0.477905
9479.000000;0.478576
9478.000000;0.478993
9477.000000;0.478971
9476.000000;0.478824
9475.000000;0.478909
9474.000000;0.479116
9473.000000;0.479053
9472.000000;0.478663
9471.000000;0.478364
9470.000000;0.478540
9469.000000;0.479147
9468.000000;0.479857
9467.000000;0.480366
9466.000000;0.480463
9465.000000;0.480060
9464.000000;0.479342
9463.000000;0.478759
9462.000000;0.478692
9461.000000;0.479153
9460.000000;0.479864
9459.000000;0.480558
9458.000000;0.481112
9457.000000;0.481474
9456.000000;0.481598
9455.000000;0.481459
9454.000000;0.481122
9453.000000;0.480782
9452.000000;0.480672
9451.000000;0.480819
9450.000000;0.480953
9449.000000;0.480801
9448.000000;0.480469
9447.000000;0.480362
9446.000000;0.480677
9445.000000;0.481175
9444.000000;0.481539
9443.000000;0.481727
9442.000000;0.481833
9441.000000;0.481783
9440.000000;0.481434
9439.000000;0.480881
9438.000000;0.480454
9437.000000;0.480360
9436.000000;0.480476
9435.000000;0.480472
9434.000000;0.480055
9433.000000;0.479161
9432.000000;0.478084
9431.000000;0.477381
9430.000000;0.477423
9429.000000;0.478028
9428.000000;0.478665
9427.000000;0.479058
9426.000000;0.479383
9425.000000;0.479804
9424.000000;0.480066
9423.000000;0.479759
9422.000000;0.478884
9421.000000;0.477909
9420.000000;0.477257
9419.000000;0.476930
9418.000000;0.476680
9417.000000;0.476386
9416.000000;0.476165
9415.000000;0.476175
9414.000000;0.476427
9413.000000;0.476791
9412.000000;0.477093
9411.000000;0.477171
9410.000000;0.476927
9409.000000;0.476438
9408.000000;0.475981
9407.000000;0.475832
9406.000000;0.475953
9405.000000;0.475908
9404.000000;0.475261
9403.000000;0.474084
9402.000000;0.472986
9401.000000;0.472527
9400.000000;0.472653
9399.000000;0.472805
9398.000000;0.472597
9397.000000;0.472263
9396.000000;0.472306
9395.000000;0.472775
9394.000000;0.473064
9393.000000;0.472499
9392.000000;0.471079
9391.000000;0.469584
9390.000000;0.468919
9389.000000;0.469391
9388.000000;0.470512
9387.000000;0.471444
9386.000000;0.471628
9385.000000;0.471080
9384.000000;0.470147
9383.000000;0.469076
9382.000000;0.467897
9381.000000;0.466687
9380.000000;0.465764
9379.000000;0.465459
9378.000000;0.465690
9377.000000;0.465921
9376.000000;0.465688
9375.000000;0.465078
9374.000000;0.464559
9373.000000;0.464370
9372.000000;0.464261
9371.000000;0.463875
9370.000000;0.463226
9369.000000;0.462637
9368.000000;0.462298
9367.000000;0.462044
9366.000000;0.461611
9365.000000;0.460940
9364.000000;0.460193
9363.000000;0.459569
9362.000000;0.459198
9361.000000;0.459123
9360.000000;0.459251
9359.000000;0.459322
9358.000000;0.459033
9357.000000;0.458295
9356.000000;0.457344
9355.000000;0.456559
9354.000000;0.456145
9353.000000;0.455967
9352.000000;0.455693
9351.000000;0.455108
9350.000000;0.454329
9349.000000;0.453669
9348.000000;0.453308
9347.000000;0.453131
9346.000000;0.452907
9345.000000;0.452542
9344.000000;0.452080
9343.000000;0.451549
9342.000000;0.450947
9341.000000;0.450346
9340.000000;0.449850
9339.000000;0.449427
9338.000000;0.448921
9337.000000;0.448319
9336.000000;0.447835
9335.000000;0.447604
9334.000000;0.447404
9333.000000;0.446913
9332.000000;0.446188
9331.000000;0.445645
9330.000000;0.445519
9329.000000;0.445550
9328.000000;0.445320
9327.000000;0.444747
9326.000000;0.444075
9325.000000;0.443473
9324.000000;0.442877
9323.000000;0.442202
9322.000000;0.441476
9321.000000;0.440688
9320.000000;0.439727
9319.000000;0.438599
9318.000000;0.437574
9317.000000;0.436931
9316.000000;0.436608
9315.000000;0.436263
9314.000000;0.435681
9313.000000;0.435001
9312.000000;0.434512
9311.000000;0.434354
9310.000000;0.434420
9309.000000;0.434471
9308.000000;0.434300
9307.000000;0.433867
9306.000000;0.433310
9305.000000;0.432755
9304.000000;0.432156
9303.000000;0.431406
9302.000000;0.430590
9301.000000;0.429932
9300.000000;0.429440
9299.000000;0.428791
9298.000000;0.427742
9297.000000;0.426499
9296.000000;0.425504
9295.000000;0.424927
9294.000000;0.424574
9293.000000;0.424242
9292.000000;0.423905
9291.000000;0.423526
9290.000000;0.422918
9289.000000;0.421989
9288.000000;0.420975
9287.000000;0.420245
9286.000000;0.419918
9285.000000;0.419779
9284.000000;0.419593
9283.000000;0.419358
9282.000000;0.419205
9281.000000;0.419138
9280.000000;0.418936
9279.000000;0.418353
9278.000000;0.417383
9277.000000;0.416319
9276.000000;0.415504
9275.000000;0.415036
9274.000000;0.414717
9273.000000;0.414297
9272.000000;0.413705
9271.000000;0.413048
9270.000000;0.412428
9269.000000;0.411839
9268.000000;0.411224
9267.000000;0.410583
9266.000000;0.409986
9265.000000;0.409487
9264.000000;0.409040
9263.000000;0.408520
9262.000000;0.407866
9261.000000;0.407200
9260.000000;0.406757
9259.000000;0.406648
9258.000000;0.406669
9257.000000;0.406391
9256.000000;0.405525
9255.000000;0.404240
9254.000000;0.403069
9253.000000;0.402442
9252.000000;0.402305
9251.000000;0.402226
9250.000000;0.401842
9249.000000;0.401143
9248.000000;0.400339
9247.000000;0.399595
9246.000000;0.398944
9245.000000;0.398344
9244.000000;0.397695
9243.000000;0.396887
9242.000000;0.395931
9241.000000;0.394996
9240.000000;0.394228
9239.000000;0.393634
9238.000000;0.393230
9237.000000;0.393176
9236.000000;0.393524
9235.000000;0.393907
9234.000000;0.393746
9233.000000;0.392816
9232.000000;0.391432
9231.000000;0.390042
9230.000000;0.388870
9229.000000;0.387990
9228.000000;0.387463
9227.000000;0.387205
9226.000000;0.386943
9225.000000;0.386521
9224.000000;0.386106
9223.000000;0.385890
9222.000000;0.385703
9221.000000;0.385178
9220.000000;0.384256
9219.000000;0.383263
9218.000000;0.382491
9217.000000;0.381905
9216.000000;0.381300
9215.000000;0.380563
9214.000000;0.379668
9213.000000;0.378579
9212.000000;0.377283
9211.000000;0.375914
9210.000000;0.374772
9209.000000;0.374182
9208.000000;0.374245
9207.000000;0.374659
9206.000000;0.374864
9205.000000;0.374508
9204.000000;0.373775
9203.000000;0.373117
9202.000000;0.372742
9201.000000;0.372514
9200.000000;0.372258
9199.000000;0.371941
9198.000000;0.371521
9197.000000;0.370871
9196.000000;0.370006
9195.000000;0.369215
9194.000000;0.368778
9193.000000;0.368658
9192.000000;0.368584
9191.000000;0.368330
9190.000000;0.367789
9189.000000;0.366879
9188.000000;0.365580
9187.000000;0.364073
9186.000000;0.362665
9185.000000;0.361570
9184.000000;0.360842
9183.000000;0.360482
9182.000000;0.360475
9181.000000;0.360711
9180.000000;0.360986
9179.000000;0.361090
9178.000000;0.360855
9177.000000;0.360172
9176.000000;0.359120
9175.000000;0.358050
9174.000000;0.357348
9173.000000;0.357066
9172.000000;0.356884
9171.000000;0.356499
9170.000000;0.355904
9169.000000;0.355232
9168.000000;0.354476
9167.000000;0.353531
9166.000000;0.352428
9165.000000;0.351374
9164.000000;0.350573
9163.000000;0.350104
9162.000000;0.349916
9161.000000;0.349830
9160.000000;0.349562
9159.000000;0.348918
9158.000000;0.348008
9157.000000;0.347188
9156.000000;0.346725
9155.000000;0.346562
9154.000000;0.346426
9153.000000;0.346101
9152.000000;0.345563
9151.000000;0.344948
9150.000000;0.344444
9149.000000;0.344159
9148.000000;0.344026
9147.000000;0.343813
9146.000000;0.343286
9145.000000;0.342397
9144.000000;0.341328
9143.000000;0.340373
9142.000000;0.339747
9141.000000;0.339468
9140.000000;0.339379
9139.000000;0.339288
9138.000000;0.339089
9137.000000;0.338756
9136.000000;0.338266
9135.000000;0.337603
9134.000000;0.336822
9133.000000;0.336043
9132.000000;0.335336
9131.000000;0.334669
9130.000000;0.333998
9129.000000;0.333364
9128.000000;0.332864
9127.000000;0.332559
9126.000000;0.332415
9125.000000;0.332294
9124.000000;0.331991
9123.000000;0.331398
9122.000000;0.330676
9121.000000;0.330163
9120.000000;0.330000
9119.000000;0.329913
9118.000000;0.329499
9117.000000;0.328709
9116.000000;0.327890
9115.000000;0.327340
9114.000000;0.326969
9113.000000;0.326476
9112.000000;0.325731
9111.000000;0.324904
9110.000000;0.324246
9109.000000;0.323836
9108.000000;0.323527
9107.000000;0.323094
9106.000000;0.322456
9105.000000;0.321726
9104.000000;0.321050
9103.000000;0.320429
9102.000000;0.319775
9101.000000;0.319119
9100.000000;0.318606
9099.000000;0.318241
9098.000000;0.317799
9097.000000;0.317094
9096.000000;0.316265
9095.000000;0.315606
9094.000000;0.315178
9093.000000;0.314747
9092.000000;0.314120
9091.000000;0.313388
9090.000000;0.312741
9089.000000;0.312200
9088.000000;0.311648
9087.000000;0.311083
9086.000000;0.310658
9085.000000;0.310442
9084.000000;0.310244
9083.000000;0.309786
9082.000000;0.309061
9081.000000;0.308389
9080.000000;0.308059
9079.000000;0.307994
9078.000000;0.307865
9077.000000;0.307521
9076.000000;0.307151
9075.000000;0.306953
9074.000000;0.306825
9073.000000;0.306516
9072.000000;0.305988
9071.000000;0.305439
9070.000000;0.304985
9069.000000;0.304521
9068.000000;0.303952
9067.000000;0.303366
9066.000000;0.302864
9065.000000;0.302359
9064.000000;0.301697
9063.000000;0.300918
9062.000000;0.300260
9061.000000;0.299876
9060.000000;0.299646
9059.000000;0.299314
9058.000000;0.298730
9057.000000;0.297965
9056.000000;0.297234
9055.000000;0.296742
9054.000000;0.296549
9053.000000;0.296546
