Criado como novo conjunto de dados;"e2410_daniel_v2.spp","49504.6 Secs"
cm-1;Abs
10000.000000;0.968471
9999.000000;0.967820
9998.000000;0.967241
9997.000000;0.966470
9996.000000;0.965172
9995.000000;0.963507
9994.000000;0.962194
9993.000000;0.961875
9992.000000;0.962409
9991.000000;0.963119
9990.000000;0.963530
9989.000000;0.963556
9988.000000;0.963113
9987.000000;0.962066
9986.000000;0.960638
9985.000000;0.959413
9984.000000;0.958741
9983.000000;0.958424
9982.000000;0.958102
9981.000000;0.957670
9980.000000;0.957196
9979.000000;0.956683
9978.000000;0.956092
9977.000000;0.955421
9976.000000;0.954652
9975.000000;0.953750
9974.000000;0.952771
9973.000000;0.951852
9972.000000;0.951044
9971.000000;0.950340
9970.000000;0.949868
9969.000000;0.949842
9968.000000;0.950239
9967.000000;0.950702
9966.000000;0.950863
9965.000000;0.950628
9964.000000;0.950129
9963.000000;0.949537
9962.000000;0.948985
9961.000000;0.948521
9960.000000;0.948068
9959.000000;0.947519
9958.000000;0.946924
9957.000000;0.946444
9956.000000;0.946084
9955.000000;0.945616
9954.000000;0.944844
9953.000000;0.943849
9952.000000;0.942902
9951.000000;0.942196
9950.000000;0.941708
9949.000000;0.941317
9948.000000;0.940995
9947.000000;0.940870
9946.000000;0.941048
9945.000000;0.941387
9944.000000;0.941522
9943.000000;0.941151
9942.000000;0.940245
9941.000000;0.938990
9940.000000;0.937676
9939.000000;0.936657
9938.000000;0.936214
9937.000000;0.936256
9936.000000;0.936285
9935.000000;0.935824
9934.000000;0.934855
9933.000000;0.933773
9932.000000;0.933014
9931.000000;0.932773
9930.000000;0.932887
9929.000000;0.932885
9928.000000;0.932332
9927.000000;0.931253
9926.000000;0.930101
9925.000000;0.929210
9924.000000;0.928507
9923.000000;0.927886
9922.000000;0.927568
9921.000000;0.927803
9920.000000;0.928413
9919.000000;0.928942
9918.000000;0.929105
9917.000000;0.928842
9916.000000;0.928084
9915.000000;0.926832
9914.000000;0.925383
9913.000000;0.924144
9912.000000;0.923259
9911.000000;0.922666
9910.000000;0.922398
9909.000000;0.922479
9908.000000;0.922582
9907.000000;0.922209
9906.000000;0.921296
9905.000000;0.920305
9904.000000;0.919630
9903.000000;0.919196
9902.000000;0.918738
9901.000000;0.918193
9900.000000;0.917655
9899.000000;0.917176
9898.000000;0.916800
9897.000000;0.916613
9896.000000;0.916548
9895.000000;0.916263
9894.000000;0.915420
9893.000000;0.914102
9892.000000;0.912804
9891.000000;0.911996
9890.000000;0.911725
9889.000000;0.911636
9888.000000;0.911355
9887.000000;0.910832
9886.000000;0.910312
9885.000000;0.909990
9884.000000;0.909798
9883.000000;0.909526
9882.000000;0.909062
9881.000000;0.908455
9880.000000;0.907835
9879.000000;0.907341
9878.000000;0.907031
9877.000000;0.906777
9876.000000;0.906342
9875.000000;0.905660
9874.000000;0.904955
9873.000000;0.904493
9872.000000;0.904291
9871.000000;0.904142
9870.000000;0.903840
9869.000000;0.903300
9868.000000;0.902576
9867.000000;0.901881
9866.000000;0.901461
9865.000000;0.901275
9864.000000;0.900925
9863.000000;0.900078
9862.000000;0.898917
9861.000000;0.897965
9860.000000;0.897519
9859.000000;0.897400
9858.000000;0.897235
9857.000000;0.896836
9856.000000;0.896303
9855.000000;0.895874
9854.000000;0.895694
9853.000000;0.895655
9852.000000;0.895484
9851.000000;0.895022
9850.000000;0.894383
9849.000000;0.893768
9848.000000;0.893237
9847.000000;0.892721
9846.000000;0.892167
9845.000000;0.891541
9844.000000;0.890796
9843.000000;0.889978
9842.000000;0.889278
9841.000000;0.888858
9840.000000;0.888645
9839.000000;0.888394
9838.000000;0.887932
9837.000000;0.887262
9836.000000;0.886519
9835.000000;0.885888
9834.000000;0.885500
9833.000000;0.885300
9832.000000;0.885086
9831.000000;0.884741
9830.000000;0.884344
9829.000000;0.883969
9828.000000;0.883543
9827.000000;0.882988
9826.000000;0.882384
9825.000000;0.881824
9824.000000;0.881253
9823.000000;0.880588
9822.000000;0.879938
9821.000000;0.879521
9820.000000;0.879372
9819.000000;0.879274
9818.000000;0.878930
9817.000000;0.878147
9816.000000;0.876961
9815.000000;0.875696
9814.000000;0.874810
9813.000000;0.874522
9812.000000;0.874585
9811.000000;0.874547
9810.000000;0.874179
9809.000000;0.873608
9808.000000;0.873082
9807.000000;0.872726
9806.000000;0.872470
9805.000000;0.872107
9804.000000;0.871437
9803.000000;0.870434
9802.000000;0.869267
9801.000000;0.868186
9800.000000;0.867438
9799.000000;0.867240
9798.000000;0.867628
9797.000000;0.868271
9796.000000;0.868618
9795.000000;0.868345
9794.000000;0.867581
9793.000000;0.866693
9792.000000;0.865992
9791.000000;0.865641
9790.000000;0.865568
9789.000000;0.865396
9788.000000;0.864715
9787.000000;0.863594
9786.000000;0.862591
9785.000000;0.862127
9784.000000;0.862033
9783.000000;0.861849
9782.000000;0.861325
9781.000000;0.860486
9780.000000;0.859461
9779.000000;0.858484
9778.000000;0.857833
9777.000000;0.857489
9776.000000;0.857062
9775.000000;0.856330
9774.000000;0.855675
9773.000000;0.855644
9772.000000;0.856212
9771.000000;0.856809
9770.000000;0.857007
9769.000000;0.856838
9768.000000;0.856474
9767.000000;0.855943
9766.000000;0.855254
9765.000000;0.854513
9764.000000;0.853794
9763.000000;0.853068
9762.000000;0.852339
9761.000000;0.851720
9760.000000;0.851287
9759.000000;0.850963
9758.000000;0.850551
9757.000000;0.849870
9756.000000;0.848895
9755.000000;0.847863
9754.000000;0.847140
9753.000000;0.846861
9752.000000;0.846750
9751.000000;0.846438
9750.000000;0.845904
9749.000000;0.845445
9748.000000;0.845248
9747.000000;0.845187
9746.000000;0.845034
9745.000000;0.844710
9744.000000;0.844275
9743.000000;0.843792
9742.000000;0.843261
9741.000000;0.842651
9740.000000;0.841979
9739.000000;0.841346
9738.000000;0.840845
9737.000000;0.840409
9736.000000;0.839869
9735.000000;0.839204
9734.000000;0.838625
9733.000000;0.838330
9732.000000;0.838274
9731.000000;0.838270
9730.000000;0.838179
9729.000000;0.837923
9728.000000;0.837425
9727.000000;0.836707
9726.000000;0.835956
9725.000000;0.835362
9724.000000;0.834941
9723.000000;0.834613
9722.000000;0.834338
9721.000000;0.834052
9720.000000;0.833568
9719.000000;0.832754
9718.000000;0.831769
9717.000000;0.830986
9716.000000;0.830651
9715.000000;0.830669
9714.000000;0.830700
9713.000000;0.830423
9712.000000;0.829773
9711.000000;0.828997
9710.000000;0.828413
9709.000000;0.828055
9708.000000;0.827661
9707.000000;0.827043
9706.000000;0.826336
9705.000000;0.825755
9704.000000;0.825279
9703.000000;0.824759
9702.000000;0.824238
9701.000000;0.823963
9700.000000;0.824020
9699.000000;0.824113
9698.000000;0.823776
9697.000000;0.822807
9696.000000;0.821491
9695.000000;0.820391
9694.000000;0.819870
9693.000000;0.819807
9692.000000;0.819780
9691.000000;0.819475
9690.000000;0.818860
9689.000000;0.818063
9688.000000;0.817285
9687.000000;0.816774
9686.000000;0.816659
9685.000000;0.816749
9684.000000;0.816678
9683.000000;0.816279
9682.000000;0.815660
9681.000000;0.814930
9680.000000;0.814129
9679.000000;0.813436
9678.000000;0.813118
9677.000000;0.813103
9676.000000;0.812905
9675.000000;0.812160
9674.000000;0.811092
9673.000000;0.810225
9672.000000;0.809843
9671.000000;0.809876
9670.000000;0.810133
9669.000000;0.810418
9668.000000;0.810554
9667.000000;0.810484
9666.000000;0.810265
9665.000000;0.809837
9664.000000;0.808995
9663.000000;0.807746
9662.000000;0.806516
9661.000000;0.805757
9660.000000;0.805466
9659.000000;0.805254
9658.000000;0.804803
9657.000000;0.804100
9656.000000;0.803336
9655.000000;0.802760
9654.000000;0.802539
9653.000000;0.802591
9652.000000;0.802621
9651.000000;0.802457
9650.000000;0.802232
9649.000000;0.802118
9648.000000;0.802020
9647.000000;0.801725
9646.000000;0.801200
9645.000000;0.800551
9644.000000;0.799796
9643.000000;0.798916
9642.000000;0.798054
9641.000000;0.797434
9640.000000;0.797092
9639.000000;0.796859
9638.000000;0.796588
9637.000000;0.796263
9636.000000;0.795915
9635.000000;0.795561
9634.000000;0.795212
9633.000000;0.794816
9632.000000;0.794230
9631.000000;0.793362
9630.000000;0.792316
9629.000000;0.791337
9628.000000;0.790657
9627.000000;0.790381
9626.000000;0.790409
9625.000000;0.790413
9624.000000;0.790068
9623.000000;0.789426
9622.000000;0.788914
9621.000000;0.788832
9620.000000;0.788976
9619.000000;0.788891
9618.000000;0.788380
9617.000000;0.787646
9616.000000;0.787021
9615.000000;0.786701
9614.000000;0.786632
9613.000000;0.786524
9612.000000;0.786078
9611.000000;0.785326
9610.000000;0.784644
9609.000000;0.784298
9608.000000;0.784117
9607.000000;0.783740
9606.000000;0.783073
9605.000000;0.782331
9604.000000;0.781733
9603.000000;0.781356
9602.000000;0.781189
9601.000000;0.781140
9600.000000;0.780999
9599.000000;0.780574
9598.000000;0.779879
9597.000000;0.779104
9596.000000;0.778435
9595.000000;0.777961
9594.000000;0.777677
9593.000000;0.777491
9592.000000;0.777284
9591.000000;0.777024
9590.000000;0.776752
9589.000000;0.776416
9588.000000;0.775871
9587.000000;0.775105
9586.000000;0.774326
9585.000000;0.773703
9584.000000;0.773156
9583.000000;0.772539
9582.000000;0.771896
9581.000000;0.771393
9580.000000;0.771063
9579.000000;0.770782
9578.000000;0.770461
9577.000000;0.770147
9576.000000;0.769938
9575.000000;0.769836
9574.000000;0.769691
9573.000000;0.769296
9572.000000;0.768625
9571.000000;0.767938
9570.000000;0.767511
9569.000000;0.767271
9568.000000;0.766912
9567.000000;0.766338
9566.000000;0.765782
9565.000000;0.765417
9564.000000;0.765144
9563.000000;0.764860
9562.000000;0.764676
9561.000000;0.764684
9560.000000;0.764731
9559.000000;0.764633
9558.000000;0.764430
9557.000000;0.764244
9556.000000;0.764014
9555.000000;0.763564
9554.000000;0.762823
9553.000000;0.761837
9552.000000;0.760732
9551.000000;0.759803
9550.000000;0.759425
9549.000000;0.759646
9548.000000;0.759993
9547.000000;0.759889
9546.000000;0.759222
9545.000000;0.758328
9544.000000;0.757523
9543.000000;0.756868
9542.000000;0.756288
9541.000000;0.755730
9540.000000;0.755204
9539.000000;0.754813
9538.000000;0.754691
9537.000000;0.754814
9536.000000;0.754933
9535.000000;0.754810
9534.000000;0.754420
9533.000000;0.753855
9532.000000;0.753138
9531.000000;0.752279
9530.000000;0.751406
9529.000000;0.750694
9528.000000;0.750211
9527.000000;0.749922
9526.000000;0.749753
9525.000000;0.749590
9524.000000;0.749342
9523.000000;0.749083
9522.000000;0.748984
9521.000000;0.749031
9520.000000;0.748965
9519.000000;0.748612
9518.000000;0.748096
9517.000000;0.747609
9516.000000;0.747147
9515.000000;0.746637
9514.000000;0.746145
9513.000000;0.745777
9512.000000;0.745503
9511.000000;0.745267
9510.000000;0.745144
9509.000000;0.745181
9508.000000;0.745174
9507.000000;0.744807
9506.000000;0.743981
9505.000000;0.742895
9504.000000;0.741869
9503.000000;0.741174
9502.000000;0.740920
9501.000000;0.740953
9500.000000;0.740915
9499.000000;0.740560
9498.000000;0.739942
9497.000000;0.739262
9496.000000;0.738638
9495.000000;0.738134
9494.000000;0.737831
9493.000000;0.737722
9492.000000;0.737655
9491.000000;0.737535
9490.000000;0.737480
9489.000000;0.737604
9488.000000;0.737754
9487.000000;0.737605
9486.000000;0.737000
9485.000000;0.736101
9484.000000;0.735243
9483.000000;0.734680
9482.000000;0.734381
9481.000000;0.734020
9480.000000;0.733315
9479.000000;0.732415
9478.000000;0.731785
9477.000000;0.731665
9476.000000;0.731820
9475.000000;0.731891
9474.000000;0.731771
9473.000000;0.731507
9472.000000;0.731082
9471.000000;0.730495
9470.000000;0.729886
9469.000000;0.729345
9468.000000;0.728746
9467.000000;0.727971
9466.000000;0.727194
9465.000000;0.726759
9464.000000;0.726802
9463.000000;0.727136
9462.000000;0.727411
9461.000000;0.727322
9460.000000;0.726761
9459.000000;0.725919
9458.000000;0.725144
9457.000000;0.724628
9456.000000;0.724295
9455.000000;0.724019
9454.000000;0.723764
9453.000000;0.723481
9452.000000;0.723068
9451.000000;0.722566
9450.000000;0.722160
9449.000000;0.721894
9448.000000;0.721566
9447.000000;0.721048
9446.000000;0.720461
9445.000000;0.719915
9444.000000;0.719303
9443.000000;0.718563
9442.000000;0.717907
9441.000000;0.717580
9440.000000;0.717570
9439.000000;0.717698
9438.000000;0.717825
9437.000000;0.717779
9436.000000;0.717366
9435.000000;0.716654
9434.000000;0.716058
9433.000000;0.715874
9432.000000;0.715918
9431.000000;0.715848
9430.000000;0.715624
9429.000000;0.715382
9428.000000;0.715072
9427.000000;0.714567
9426.000000;0.713974
9425.000000;0.713503
9424.000000;0.713112
9423.000000;0.712632
9422.000000;0.712115
9421.000000;0.711752
9420.000000;0.711518
9419.000000;0.711209
9418.000000;0.710820
9417.000000;0.710547
9416.000000;0.710421
9415.000000;0.710232
9414.000000;0.709848
9413.000000;0.709362
9412.000000;0.708895
9411.000000;0.708491
9410.000000;0.708219
9409.000000;0.708150
9408.000000;0.708176
9407.000000;0.708060
9406.000000;0.707700
9405.000000;0.707180
9404.000000;0.706579
9403.000000;0.705897
9402.000000;0.705195
9401.000000;0.704622
9400.000000;0.704261
9399.000000;0.704078
9398.000000;0.704011
9397.000000;0.703973
9396.000000;0.703802
9395.000000;0.703367
9394.000000;0.702744
9393.000000;0.702148
9392.000000;0.701676
9391.000000;0.701232
9390.000000;0.700698
9389.000000;0.700077
9388.000000;0.699464
9387.000000;0.699007
9386.000000;0.698846
9385.000000;0.698977
9384.000000;0.699173
9383.000000;0.699158
9382.000000;0.698862
9381.000000;0.698439
9380.000000;0.698093
9379.000000;0.697947
9378.000000;0.698007
9377.000000;0.698128
9376.000000;0.698062
9375.000000;0.697667
9374.000000;0.697048
9373.000000;0.696421
9372.000000;0.695925
9371.000000;0.695621
9370.000000;0.695541
9369.000000;0.695614
9368.000000;0.695631
9367.000000;0.695418
9366.000000;0.694982
9365.000000;0.694390
9364.000000;0.693650
9363.000000;0.692841
9362.000000;0.692192
9361.000000;0.691825
9360.000000;0.691520
9359.000000;0.690978
9358.000000;0.690250
9357.000000;0.689709
9356.000000;0.689579
9355.000000;0.689708
9354.000000;0.689791
9353.000000;0.689676
9352.000000;0.689403
9351.000000;0.689087
9350.000000;0.688812
9349.000000;0.688555
9348.000000;0.688201
9347.000000;0.687674
9346.000000;0.687060
9345.000000;0.686541
9344.000000;0.686256
9343.000000;0.686241
9342.000000;0.686394
9341.000000;0.686448
9340.000000;0.686117
9339.000000;0.685386
9338.000000;0.684596
9337.000000;0.684116
9336.000000;0.684002
9335.000000;0.684075
9334.000000;0.684200
9333.000000;0.684325
9332.000000;0.684323
9331.000000;0.684014
9330.000000;0.683371
9329.000000;0.682591
9328.000000;0.681916
9327.000000;0.681431
9326.000000;0.681033
9325.000000;0.680556
9324.000000;0.679983
9323.000000;0.679529
9322.000000;0.679431
9321.000000;0.679627
9320.000000;0.679754
9319.000000;0.679508
9318.000000;0.678915
9317.000000;0.678208
9316.000000;0.677584
9315.000000;0.677151
9314.000000;0.676937
9313.000000;0.676831
9312.000000;0.676644
9311.000000;0.676344
9310.000000;0.676105
9309.000000;0.676042
9308.000000;0.676012
9307.000000;0.675798
9306.000000;0.675365
9305.000000;0.674823
9304.000000;0.674270
9303.000000;0.673815
9302.000000;0.673584
9301.000000;0.673557
9300.000000;0.673490
9299.000000;0.673169
9298.000000;0.672649
9297.000000;0.672111
9296.000000;0.671623
9295.000000;0.671183
9294.000000;0.670875
9293.000000;0.670791
9292.000000;0.670872
9291.000000;0.670967
9290.000000;0.670969
9289.000000;0.670781
9288.000000;0.670288
9287.000000;0.669517
9286.000000;0.668736
9285.000000;0.668182
9284.000000;0.667789
9283.000000;0.667356
9282.000000;0.666885
9281.000000;0.666574
9280.000000;0.666508
9279.000000;0.666544
9278.000000;0.666489
9277.000000;0.666279
9276.000000;0.665985
9275.000000;0.665743
9274.000000;0.665631
9273.000000;0.665531
9272.000000;0.665197
9271.000000;0.664567
9270.000000;0.663909
9269.000000;0.663542
9268.000000;0.663488
9267.000000;0.663512
9266.000000;0.663401
9265.000000;0.663109
9264.000000;0.662716
9263.000000;0.662382
9262.000000;0.662242
9261.000000;0.662213
9260.000000;0.662045
9259.000000;0.661643
9258.000000;0.661219
9257.000000;0.660965
9256.000000;0.660782
9255.000000;0.660507
9254.000000;0.660249
9253.000000;0.660200
9252.000000;0.660229
9251.000000;0.659981
9250.000000;0.659373
9249.000000;0.658711
9248.000000;0.658284
9247.000000;0.658056
9246.000000;0.657811
9245.000000;0.657418
9244.000000;0.656880
9243.000000;0.656268
9242.000000;0.655698
9241.000000;0.655291
9240.000000;0.655099
9239.000000;0.655102
9238.000000;0.655251
9237.000000;0.655440
9236.000000;0.655491
9235.000000;0.655286
9234.000000;0.654898
9233.000000;0.654510
9232.000000;0.654224
9231.000000;0.654022
9230.000000;0.653849
9229.000000;0.653645
9228.000000;0.653340
9227.000000;0.652917
9226.000000;0.652457
9225.000000;0.652042
9224.000000;0.651652
9223.000000;0.651233
9222.000000;0.650799
9221.000000;0.650419
9220.000000;0.650149
9219.000000;0.650034
9218.000000;0.650105
9217.000000;0.650290
9216.000000;0.650444
9215.000000;0.650520
9214.000000;0.650604
9213.000000;0.650705
9212.000000;0.650653
9211.000000;0.650321
9210.000000;0.649817
9209.000000;0.649310
9208.000000;0.648776
9207.000000;0.648113
9206.000000;0.647394
9205.000000;0.646823
9204.000000;0.646472
9203.000000;0.646251
9202.000000;0.646095
9201.000000;0.646013
9200.000000;0.645951
9199.000000;0.645784
9198.000000;0.645460
9197.000000;0.645070
9196.000000;0.644735
9195.000000;0.644508
9194.000000;0.644386
9193.000000;0.644339
9192.000000;0.644321
9191.000000;0.644304
9190.000000;0.644253
9189.000000;0.644065
9188.000000;0.643595
9187.000000;0.642842
9186.000000;0.642017
9185.000000;0.641356
9184.000000;0.640904
9183.000000;0.640557
9182.000000;0.640250
9181.000000;0.640018
9180.000000;0.639924
9179.000000;0.639990
9178.000000;0.640147
9177.000000;0.640204
9176.000000;0.639984
9175.000000;0.639539
9174.000000;0.639114
9173.000000;0.638859
9172.000000;0.638689
9171.000000;0.638509
9170.000000;0.638402
9169.000000;0.638448
9168.000000;0.638501
9167.000000;0.638341
9166.000000;0.637970
9165.000000;0.637587
9164.000000;0.637314
9163.000000;0.637124
9162.000000;0.636978
9161.000000;0.636872
9160.000000;0.636734
9159.000000;0.636434
9158.000000;0.635938
9157.000000;0.635374
9156.000000;0.634920
9155.000000;0.634673
9154.000000;0.634595
9153.000000;0.634558
9152.000000;0.634434
9151.000000;0.634206
9150.000000;0.633941
9149.000000;0.633675
9148.000000;0.633391
9147.000000;0.633138
9146.000000;0.633021
9145.000000;0.633039
9144.000000;0.633033
9143.000000;0.632894
9142.000000;0.632717
9141.000000;0.632644
9140.000000;0.632636
9139.000000;0.632516
9138.000000;0.632180
9137.000000;0.631682
9136.000000;0.631147
9135.000000;0.630680
9134.000000;0.630315
9133.000000;0.629998
9132.000000;0.629656
9131.000000;0.629307
9130.000000;0.629036
9129.000000;0.628856
9128.000000;0.628694
9127.000000;0.628523
9126.000000;0.628404
9125.000000;0.628351
9124.000000;0.628294
9123.000000;0.628198
9122.000000;0.628112
9121.000000;0.628038
9120.000000;0.627887
9119.000000;0.627621
9118.000000;0.627308
9117.000000;0.627012
9116.000000;0.626745
9115.000000;0.626557
9114.000000;0.626489
9113.000000;0.626397
9112.000000;0.626014
9111.000000;0.625301
9110.000000;0.624559
9109.000000;0.624090
9108.000000;0.623891
9107.000000;0.623804
9106.000000;0.623767
9105.000000;0.623772
9104.000000;0.623728
9103.000000;0.623543
9102.000000;0.623264
9101.000000;0.623008
9100.000000;0.622830
9099.000000;0.622743
9098.000000;0.622761
9097.000000;0.622813
9096.000000;0.622752
9095.000000;0.622542
9094.000000;0.622321
9093.000000;0.622173
9092.000000;0.621993
9091.000000;0.621664
9090.000000;0.621239
9089.000000;0.620831
9088.000000;0.620461
9087.000000;0.620141
9086.000000;0.619939
9085.000000;0.619847
9084.000000;0.619696
9083.000000;0.619356
9082.000000;0.618908
9081.000000;0.618509
9080.000000;0.618209
9079.000000;0.618010
9078.000000;0.617948
9077.000000;0.617972
9076.000000;0.617896
9075.000000;0.617616
9074.000000;0.617259
9073.000000;0.616984
9072.000000;0.616783
9071.000000;0.616588
9070.000000;0.616416
9069.000000;0.616252
9068.000000;0.615971
9067.000000;0.615549
9066.000000;0.615188
9065.000000;0.615055
9064.000000;0.615029
9063.000000;0.614900
9062.000000;0.614680
9061.000000;0.614517
9060.000000;0.614418
9059.000000;0.614296
9058.000000;0.614179
9057.000000;0.614139
9056.000000;0.614101
9055.000000;0.613934
9054.000000;0.613666
9053.000000;0.613414
