Criado como novo conjunto de dados;"e2410_daniel_v2.spp","96666.9 Secs"
cm-1;Abs
10000.000000;0.102270
9999.000000;0.103096
9998.000000;0.103926
9997.000000;0.104753
9996.000000;0.105589
9995.000000;0.106356
9994.000000;0.106952
9993.000000;0.107380
9992.000000;0.107745
9991.000000;0.108201
9990.000000;0.108813
9989.000000;0.109498
9988.000000;0.110101
9987.000000;0.110580
9986.000000;0.111054
9985.000000;0.111656
9984.000000;0.112385
9983.000000;0.113141
9982.000000;0.113868
9981.000000;0.114575
9980.000000;0.115260
9979.000000;0.115896
9978.000000;0.116481
9977.000000;0.117042
9976.000000;0.117571
9975.000000;0.118040
9974.000000;0.118485
9973.000000;0.119024
9972.000000;0.119728
9971.000000;0.120526
9970.000000;0.121262
9969.000000;0.121826
9968.000000;0.122230
9967.000000;0.122563
9966.000000;0.122936
9965.000000;0.123438
9964.000000;0.124114
9963.000000;0.124937
9962.000000;0.125815
9961.000000;0.126629
9960.000000;0.127318
9959.000000;0.127925
9958.000000;0.128562
9957.000000;0.129314
9956.000000;0.130154
9955.000000;0.130950
9954.000000;0.131565
9953.000000;0.131987
9952.000000;0.132361
9951.000000;0.132857
9950.000000;0.133495
9949.000000;0.134136
9948.000000;0.134659
9947.000000;0.135107
9946.000000;0.135602
9945.000000;0.136174
9944.000000;0.136758
9943.000000;0.137358
9942.000000;0.138089
9941.000000;0.139035
9940.000000;0.140123
9939.000000;0.141197
9938.000000;0.142143
9937.000000;0.142906
9936.000000;0.143458
9935.000000;0.143843
9934.000000;0.144234
9933.000000;0.144840
9932.000000;0.145724
9931.000000;0.146732
9930.000000;0.147635
9929.000000;0.148319
9928.000000;0.148860
9927.000000;0.149418
9926.000000;0.150079
9925.000000;0.150794
9924.000000;0.151467
9923.000000;0.152081
9922.000000;0.152691
9921.000000;0.153344
9920.000000;0.154042
9919.000000;0.154797
9918.000000;0.155615
9917.000000;0.156411
9916.000000;0.157032
9915.000000;0.157432
9914.000000;0.157781
9913.000000;0.158320
9912.000000;0.159122
9911.000000;0.160053
9910.000000;0.160949
9909.000000;0.161760
9908.000000;0.162520
9907.000000;0.163257
9906.000000;0.163967
9905.000000;0.164628
9904.000000;0.165226
9903.000000;0.165784
9902.000000;0.166386
9901.000000;0.167115
9900.000000;0.167951
9899.000000;0.168748
9898.000000;0.169342
9897.000000;0.169705
9896.000000;0.169972
9895.000000;0.170331
9894.000000;0.170879
9893.000000;0.171594
9892.000000;0.172405
9891.000000;0.173241
9890.000000;0.174011
9889.000000;0.174601
9888.000000;0.174982
9887.000000;0.175304
9886.000000;0.175805
9885.000000;0.176603
9884.000000;0.177627
9883.000000;0.178765
9882.000000;0.179975
9881.000000;0.181208
9880.000000;0.182299
9879.000000;0.183089
9878.000000;0.183630
9877.000000;0.184174
9876.000000;0.184914
9875.000000;0.185795
9874.000000;0.186610
9873.000000;0.187227
9872.000000;0.187704
9871.000000;0.188191
9870.000000;0.188780
9869.000000;0.189441
9868.000000;0.190086
9867.000000;0.190696
9866.000000;0.191375
9865.000000;0.192260
9864.000000;0.193371
9863.000000;0.194551
9862.000000;0.195563
9861.000000;0.196270
9860.000000;0.196731
9859.000000;0.197135
9858.000000;0.197619
9857.000000;0.198147
9856.000000;0.198617
9855.000000;0.199068
9854.000000;0.199708
9853.000000;0.200676
9852.000000;0.201831
9851.000000;0.202870
9850.000000;0.203650
9849.000000;0.204299
9848.000000;0.205012
9847.000000;0.205815
9846.000000;0.206596
9845.000000;0.207282
9844.000000;0.207924
9843.000000;0.208609
9842.000000;0.209372
9841.000000;0.210193
9840.000000;0.211027
9839.000000;0.211841
9838.000000;0.212638
9837.000000;0.213460
9836.000000;0.214330
9835.000000;0.215186
9834.000000;0.215933
9833.000000;0.216565
9832.000000;0.217193
9831.000000;0.217925
9830.000000;0.218757
9829.000000;0.219611
9828.000000;0.220451
9827.000000;0.221292
9826.000000;0.222124
9825.000000;0.222898
9824.000000;0.223624
9823.000000;0.224382
9822.000000;0.225211
9821.000000;0.226040
9820.000000;0.226802
9819.000000;0.227560
9818.000000;0.228444
9817.000000;0.229456
9816.000000;0.230419
9815.000000;0.231163
9814.000000;0.231699
9813.000000;0.232209
9812.000000;0.232895
9811.000000;0.233849
9810.000000;0.235011
9809.000000;0.236212
9808.000000;0.237297
9807.000000;0.238240
9806.000000;0.239129
9805.000000;0.240012
9804.000000;0.240790
9803.000000;0.241305
9802.000000;0.241523
9801.000000;0.241615
9800.000000;0.241868
9799.000000;0.242501
9798.000000;0.243525
9797.000000;0.244741
9796.000000;0.245914
9795.000000;0.246960
9794.000000;0.247939
9793.000000;0.248863
9792.000000;0.249624
9791.000000;0.250185
9790.000000;0.250770
9789.000000;0.251681
9788.000000;0.252905
9787.000000;0.254032
9786.000000;0.254668
9785.000000;0.254861
9784.000000;0.255044
9783.000000;0.255580
9782.000000;0.256485
9781.000000;0.257546
9780.000000;0.258601
9779.000000;0.259601
9778.000000;0.260493
9777.000000;0.261182
9776.000000;0.261678
9775.000000;0.262210
9774.000000;0.263082
9773.000000;0.264377
9772.000000;0.265835
9771.000000;0.267051
9770.000000;0.267815
9769.000000;0.268263
9768.000000;0.268719
9767.000000;0.269402
9766.000000;0.270284
9765.000000;0.271183
9764.000000;0.271988
9763.000000;0.272788
9762.000000;0.273771
9761.000000;0.275000
9760.000000;0.276286
9759.000000;0.277302
9758.000000;0.277855
9757.000000;0.278056
9756.000000;0.278263
9755.000000;0.278823
9754.000000;0.279839
9753.000000;0.281103
9752.000000;0.282273
9751.000000;0.283142
9750.000000;0.283781
9749.000000;0.284418
9748.000000;0.285207
9747.000000;0.286122
9746.000000;0.287093
9745.000000;0.288171
9744.000000;0.289495
9743.000000;0.291078
9742.000000;0.292692
9741.000000;0.294009
9740.000000;0.294865
9739.000000;0.295377
9738.000000;0.295803
9737.000000;0.296339
9736.000000;0.297042
9735.000000;0.297890
9734.000000;0.298858
9733.000000;0.299905
9732.000000;0.300921
9731.000000;0.301755
9730.000000;0.302347
9729.000000;0.302838
9728.000000;0.303499
9727.000000;0.304477
9726.000000;0.305647
9725.000000;0.306744
9724.000000;0.307630
9723.000000;0.308381
9722.000000;0.309117
9721.000000;0.309836
9720.000000;0.310483
9719.000000;0.311099
9718.000000;0.311800
9717.000000;0.312635
9716.000000;0.313552
9715.000000;0.314497
9714.000000;0.315466
9713.000000;0.316425
9712.000000;0.317275
9711.000000;0.317964
9710.000000;0.318600
9709.000000;0.319358
9708.000000;0.320288
9707.000000;0.321265
9706.000000;0.322154
9705.000000;0.322965
9704.000000;0.323813
9703.000000;0.324751
9702.000000;0.325707
9701.000000;0.326592
9700.000000;0.327432
9699.000000;0.328350
9698.000000;0.329447
9697.000000;0.330714
9696.000000;0.332061
9695.000000;0.333368
9694.000000;0.334512
9693.000000;0.335422
9692.000000;0.336153
9691.000000;0.336881
9690.000000;0.337735
9689.000000;0.338629
9688.000000;0.339329
9687.000000;0.339729
9686.000000;0.340006
9685.000000;0.340462
9684.000000;0.341244
9683.000000;0.342247
9682.000000;0.343286
9681.000000;0.344280
9680.000000;0.345258
9679.000000;0.346229
9678.000000;0.347148
9677.000000;0.348009
9676.000000;0.348898
9675.000000;0.349897
9674.000000;0.350938
9673.000000;0.351838
9672.000000;0.352508
9671.000000;0.353070
9670.000000;0.353727
9669.000000;0.354550
9668.000000;0.355465
9667.000000;0.356403
9666.000000;0.357384
9665.000000;0.358411
9664.000000;0.359381
9663.000000;0.360178
9662.000000;0.360811
9661.000000;0.361430
9660.000000;0.362189
9659.000000;0.363143
9658.000000;0.364228
9657.000000;0.365302
9656.000000;0.366215
9655.000000;0.366918
9654.000000;0.367512
9653.000000;0.368161
9652.000000;0.368964
9651.000000;0.369955
9650.000000;0.371180
9649.000000;0.372667
9648.000000;0.374280
9647.000000;0.375717
9646.000000;0.376755
9645.000000;0.377477
9644.000000;0.378180
9643.000000;0.379063
9642.000000;0.380061
9641.000000;0.380974
9640.000000;0.381690
9639.000000;0.382271
9638.000000;0.382895
9637.000000;0.383729
9636.000000;0.384806
9635.000000;0.385968
9634.000000;0.386971
9633.000000;0.387692
9632.000000;0.388225
9631.000000;0.388752
9630.000000;0.389366
9629.000000;0.390057
9628.000000;0.390828
9627.000000;0.391720
9626.000000;0.392717
9625.000000;0.393686
9624.000000;0.394442
9623.000000;0.394890
9622.000000;0.395128
9621.000000;0.395447
9620.000000;0.396175
9619.000000;0.397430
9618.000000;0.398974
9617.000000;0.400356
9616.000000;0.401261
9615.000000;0.401748
9614.000000;0.402158
9613.000000;0.402817
9612.000000;0.403818
9611.000000;0.405017
9610.000000;0.406202
9609.000000;0.407244
9608.000000;0.408118
9607.000000;0.408837
9606.000000;0.409440
9605.000000;0.410074
9604.000000;0.410988
9603.000000;0.412310
9602.000000;0.413814
9601.000000;0.415037
9600.000000;0.415722
9599.000000;0.416080
9598.000000;0.416539
9597.000000;0.417284
9596.000000;0.418126
9595.000000;0.418793
9594.000000;0.419255
9593.000000;0.419731
9592.000000;0.420433
9591.000000;0.421356
9590.000000;0.422289
9589.000000;0.423017
9588.000000;0.423522
9587.000000;0.423993
9586.000000;0.424650
9585.000000;0.425523
9584.000000;0.426415
9583.000000;0.427065
9582.000000;0.427372
9581.000000;0.427522
9580.000000;0.427899
9579.000000;0.428802
9578.000000;0.430166
9577.000000;0.431574
9576.000000;0.432618
9575.000000;0.433267
9574.000000;0.433819
9573.000000;0.434502
9572.000000;0.435229
9571.000000;0.435792
9570.000000;0.436183
9569.000000;0.436608
9568.000000;0.437223
9567.000000;0.437987
9566.000000;0.438758
9565.000000;0.439489
9564.000000;0.440260
9563.000000;0.441159
9562.000000;0.442178
9561.000000;0.443231
9560.000000;0.444251
9559.000000;0.445240
9558.000000;0.446195
9557.000000;0.447034
9556.000000;0.447650
9555.000000;0.448055
9554.000000;0.448395
9553.000000;0.448809
9552.000000;0.449347
9551.000000;0.450064
9550.000000;0.451050
9549.000000;0.452223
9548.000000;0.453224
9547.000000;0.453720
9546.000000;0.453808
9545.000000;0.453944
9544.000000;0.454449
9543.000000;0.455251
9542.000000;0.456107
9541.000000;0.456872
9540.000000;0.457485
9539.000000;0.457931
9538.000000;0.458345
9537.000000;0.458955
9536.000000;0.459736
9535.000000;0.460324
9534.000000;0.460468
9533.000000;0.460426
9532.000000;0.460669
9531.000000;0.461300
9530.000000;0.462016
9529.000000;0.462534
9528.000000;0.462805
9527.000000;0.462867
9526.000000;0.462849
9525.000000;0.463117
9524.000000;0.464061
9523.000000;0.465565
9522.000000;0.466974
9521.000000;0.467776
9520.000000;0.468084
9519.000000;0.468288
9518.000000;0.468518
9517.000000;0.468728
9516.000000;0.469086
9515.000000;0.469839
9514.000000;0.470830
9513.000000;0.471519
9512.000000;0.471613
9511.000000;0.471433
9510.000000;0.471499
9509.000000;0.471916
9508.000000;0.472349
9507.000000;0.472551
9506.000000;0.472702
9505.000000;0.473153
9504.000000;0.473954
9503.000000;0.474810
9502.000000;0.475518
9501.000000;0.476243
9500.000000;0.477191
9499.000000;0.478121
9498.000000;0.478513
9497.000000;0.478260
9496.000000;0.477929
9495.000000;0.478137
9494.000000;0.478845
9493.000000;0.479486
9492.000000;0.479708
9491.000000;0.479758
9490.000000;0.480113
9489.000000;0.480897
9488.000000;0.481742
9487.000000;0.482145
9486.000000;0.481950
9485.000000;0.481492
9484.000000;0.481241
9483.000000;0.481333
9482.000000;0.481531
9481.000000;0.481637
9480.000000;0.481764
9479.000000;0.482103
9478.000000;0.482648
9477.000000;0.483284
9476.000000;0.483990
9475.000000;0.484727
9474.000000;0.485256
9473.000000;0.485360
9472.000000;0.485221
9471.000000;0.485310
9470.000000;0.485862
9469.000000;0.486661
9468.000000;0.487366
9467.000000;0.487838
9466.000000;0.488077
9465.000000;0.488071
9464.000000;0.487897
9463.000000;0.487829
9462.000000;0.488125
9461.000000;0.488700
9460.000000;0.489108
9459.000000;0.488928
9458.000000;0.488186
9457.000000;0.487402
9456.000000;0.487171
9455.000000;0.487688
9454.000000;0.488654
9453.000000;0.489621
9452.000000;0.490287
9451.000000;0.490490
9450.000000;0.490147
9449.000000;0.489423
9448.000000;0.488786
9447.000000;0.488660
9446.000000;0.489025
9445.000000;0.489518
9444.000000;0.489861
9443.000000;0.490001
9442.000000;0.489908
9441.000000;0.489540
9440.000000;0.489042
9439.000000;0.488735
9438.000000;0.488832
9437.000000;0.489289
9436.000000;0.489945
9435.000000;0.490588
9434.000000;0.490900
9433.000000;0.490632
9432.000000;0.489962
9431.000000;0.489420
9430.000000;0.489309
9429.000000;0.489379
9428.000000;0.489231
9427.000000;0.488848
9426.000000;0.488586
9425.000000;0.488753
9424.000000;0.489368
9423.000000;0.490184
9422.000000;0.490828
9421.000000;0.491036
9420.000000;0.490932
9419.000000;0.490941
9418.000000;0.491291
9417.000000;0.491709
9416.000000;0.491761
9415.000000;0.491356
9414.000000;0.490729
9413.000000;0.490077
9412.000000;0.489462
9411.000000;0.489001
9410.000000;0.488837
9409.000000;0.488880
9408.000000;0.488814
9407.000000;0.488441
9406.000000;0.487906
9405.000000;0.487514
9404.000000;0.487436
9403.000000;0.487589
9402.000000;0.487668
9401.000000;0.487317
9400.000000;0.486428
9399.000000;0.485308
9398.000000;0.484422
9397.000000;0.483985
9396.000000;0.483900
9395.000000;0.484035
9394.000000;0.484343
9393.000000;0.484694
9392.000000;0.484851
9391.000000;0.484729
9390.000000;0.484535
9389.000000;0.484501
9388.000000;0.484610
9387.000000;0.484684
9386.000000;0.484627
9385.000000;0.484443
9384.000000;0.484167
9383.000000;0.483935
9382.000000;0.484013
9381.000000;0.484485
9380.000000;0.484951
9379.000000;0.484778
9378.000000;0.483734
9377.000000;0.482232
9376.000000;0.480895
9375.000000;0.480059
9374.000000;0.479719
9373.000000;0.479743
9372.000000;0.479984
9371.000000;0.480231
9370.000000;0.480249
9369.000000;0.479888
9368.000000;0.479144
9367.000000;0.478148
9366.000000;0.477134
9365.000000;0.476353
9364.000000;0.475900
9363.000000;0.475652
9362.000000;0.475416
9361.000000;0.475136
9360.000000;0.474877
9359.000000;0.474659
9358.000000;0.474425
9357.000000;0.474143
9356.000000;0.473857
9355.000000;0.473602
9354.000000;0.473341
9353.000000;0.472990
9352.000000;0.472456
9351.000000;0.471672
9350.000000;0.470722
9349.000000;0.469923
9348.000000;0.469641
9347.000000;0.469943
9346.000000;0.470467
9345.000000;0.470671
9344.000000;0.470180
9343.000000;0.468979
9342.000000;0.467438
9341.000000;0.466181
9340.000000;0.465745
9339.000000;0.466144
9338.000000;0.466768
9337.000000;0.466869
9336.000000;0.466206
9335.000000;0.465209
9334.000000;0.464544
9333.000000;0.464535
9332.000000;0.464918
9331.000000;0.465071
9330.000000;0.464562
9329.000000;0.463548
9328.000000;0.462602
9327.000000;0.462104
9326.000000;0.461908
9325.000000;0.461643
9324.000000;0.461171
9323.000000;0.460618
9322.000000;0.460070
9321.000000;0.459488
9320.000000;0.458880
9319.000000;0.458319
9318.000000;0.457758
9317.000000;0.457055
9316.000000;0.456262
9315.000000;0.455697
9314.000000;0.455586
9313.000000;0.455749
9312.000000;0.455785
9311.000000;0.455500
9310.000000;0.455013
9309.000000;0.454491
9308.000000;0.453929
9307.000000;0.453207
9306.000000;0.452272
9305.000000;0.451240
9304.000000;0.450371
9303.000000;0.449907
9302.000000;0.449818
9301.000000;0.449723
9300.000000;0.449169
9299.000000;0.448080
9298.000000;0.446898
9297.000000;0.446233
9296.000000;0.446326
9295.000000;0.446840
9294.000000;0.447154
9293.000000;0.446892
9292.000000;0.446196
9291.000000;0.445488
9290.000000;0.444978
9289.000000;0.444424
9288.000000;0.443419
9287.000000;0.441865
9286.000000;0.440146
9285.000000;0.438821
9284.000000;0.438209
9283.000000;0.438248
9282.000000;0.438653
9281.000000;0.439072
9280.000000;0.439190
9279.000000;0.438828
9278.000000;0.438058
9277.000000;0.437129
9276.000000;0.436240
9275.000000;0.435440
9274.000000;0.434750
9273.000000;0.434260
9272.000000;0.433993
9271.000000;0.433754
9270.000000;0.433301
9269.000000;0.432655
9268.000000;0.432066
9267.000000;0.431650
9266.000000;0.431200
9265.000000;0.430419
9264.000000;0.429224
9263.000000;0.427757
9262.000000;0.426254
9261.000000;0.425007
9260.000000;0.424318
9259.000000;0.424287
9258.000000;0.424640
9257.000000;0.424911
9256.000000;0.424808
9255.000000;0.424357
9254.000000;0.423722
9253.000000;0.422984
9252.000000;0.422126
9251.000000;0.421139
9250.000000;0.420104
9249.000000;0.419154
9248.000000;0.418384
9247.000000;0.417807
9246.000000;0.417419
9245.000000;0.417240
9244.000000;0.417216
9243.000000;0.417093
9242.000000;0.416560
9241.000000;0.415582
9240.000000;0.414456
9239.000000;0.413467
9238.000000;0.412613
9237.000000;0.411773
9236.000000;0.410983
9235.000000;0.410394
9234.000000;0.410037
9233.000000;0.409840
9232.000000;0.409783
9231.000000;0.409836
9230.000000;0.409787
9229.000000;0.409373
9228.000000;0.408608
9227.000000;0.407804
9226.000000;0.407192
9225.000000;0.406694
9224.000000;0.406124
9223.000000;0.405451
9222.000000;0.404767
9221.000000;0.404129
9220.000000;0.403537
9219.000000;0.402987
9218.000000;0.402444
9217.000000;0.401837
9216.000000;0.401156
9215.000000;0.400501
9214.000000;0.399950
9213.000000;0.399437
9212.000000;0.398834
9211.000000;0.398151
9210.000000;0.397556
9209.000000;0.397180
9208.000000;0.396948
9207.000000;0.396616
9206.000000;0.395984
9205.000000;0.395066
9204.000000;0.394053
9203.000000;0.393131
9202.000000;0.392360
9201.000000;0.391726
9200.000000;0.391184
9199.000000;0.390655
9198.000000;0.390061
9197.000000;0.389441
9196.000000;0.388929
9195.000000;0.388554
9194.000000;0.388177
9193.000000;0.387752
9192.000000;0.387464
9191.000000;0.387404
9190.000000;0.387217
9189.000000;0.386411
9188.000000;0.385019
9187.000000;0.383658
9186.000000;0.382830
9185.000000;0.382447
9184.000000;0.382142
9183.000000;0.381785
9182.000000;0.381456
9181.000000;0.381119
9180.000000;0.380615
9179.000000;0.379912
9178.000000;0.379116
9177.000000;0.378259
9176.000000;0.377299
9175.000000;0.376314
9174.000000;0.375499
9173.000000;0.374914
9172.000000;0.374401
9171.000000;0.373823
9170.000000;0.373243
9169.000000;0.372795
9168.000000;0.372468
9167.000000;0.372142
9166.000000;0.371785
9165.000000;0.371496
9164.000000;0.371312
9163.000000;0.371066
9162.000000;0.370527
9161.000000;0.369659
9160.000000;0.368683
9159.000000;0.367863
9158.000000;0.367291
9157.000000;0.366911
9156.000000;0.366633
9155.000000;0.366338
9154.000000;0.365841
9153.000000;0.365016
9152.000000;0.363960
9151.000000;0.362936
9150.000000;0.362118
9149.000000;0.361490
9148.000000;0.360976
9147.000000;0.360543
9146.000000;0.360140
9145.000000;0.359704
9144.000000;0.359264
9143.000000;0.358914
9142.000000;0.358632
9141.000000;0.358268
9140.000000;0.357808
9139.000000;0.357450
9138.000000;0.357268
9137.000000;0.356978
9136.000000;0.356260
9135.000000;0.355231
9134.000000;0.354340
9133.000000;0.353820
9132.000000;0.353455
9131.000000;0.352931
9130.000000;0.352189
9129.000000;0.351361
9128.000000;0.350556
9127.000000;0.349856
9126.000000;0.349405
9125.000000;0.349296
9124.000000;0.349365
9123.000000;0.349246
9122.000000;0.348678
9121.000000;0.347740
9120.000000;0.346733
9119.000000;0.345900
9118.000000;0.345282
9117.000000;0.344803
9116.000000;0.344391
9115.000000;0.343972
9114.000000;0.343438
9113.000000;0.342733
9112.000000;0.341982
9111.000000;0.341442
9110.000000;0.341261
9109.000000;0.341299
9108.000000;0.341224
9107.000000;0.340770
9106.000000;0.339919
9105.000000;0.338905
9104.000000;0.338080
9103.000000;0.337670
9102.000000;0.337596
9101.000000;0.337527
9100.000000;0.337159
9099.000000;0.336432
9098.000000;0.335498
9097.000000;0.334572
9096.000000;0.333841
9095.000000;0.333389
9094.000000;0.333129
9093.000000;0.332862
9092.000000;0.332477
9091.000000;0.332041
9090.000000;0.331640
9089.000000;0.331219
9088.000000;0.330653
9087.000000;0.329913
9086.000000;0.329057
9085.000000;0.328143
9084.000000;0.327263
9083.000000;0.326583
9082.000000;0.326192
9081.000000;0.325936
9080.000000;0.325579
9079.000000;0.325110
9078.000000;0.324738
9077.000000;0.324542
9076.000000;0.324315
9075.000000;0.323839
9074.000000;0.323182
9073.000000;0.322611
9072.000000;0.322288
9071.000000;0.322127
9070.000000;0.321918
9069.000000;0.321528
9068.000000;0.321009
9067.000000;0.320565
9066.000000;0.320348
9065.000000;0.320264
9064.000000;0.320047
9063.000000;0.319561
9062.000000;0.318939
9061.000000;0.318342
9060.000000;0.317693
9059.000000;0.316799
9058.000000;0.315704
9057.000000;0.314745
9056.000000;0.314183
9055.000000;0.313912
9054.000000;0.313625
9053.000000;0.313186
