Criado como novo conjunto de dados;"e2410_daniel_v2.spp","89646.5 Secs"
cm-1;Abs
10000.000000;0.081194
9999.000000;0.081694
9998.000000;0.082177
9997.000000;0.082497
9996.000000;0.082678
9995.000000;0.082833
9994.000000;0.083018
9993.000000;0.083226
9992.000000;0.083472
9991.000000;0.083802
9990.000000;0.084215
9989.000000;0.084660
9988.000000;0.085106
9987.000000;0.085563
9986.000000;0.086003
9985.000000;0.086352
9984.000000;0.086574
9983.000000;0.086723
9982.000000;0.086871
9981.000000;0.087048
9980.000000;0.087272
9979.000000;0.087579
9978.000000;0.087976
9977.000000;0.088417
9976.000000;0.088853
9975.000000;0.089280
9974.000000;0.089668
9973.000000;0.089932
9972.000000;0.090033
9971.000000;0.090067
9970.000000;0.090161
9969.000000;0.090320
9968.000000;0.090472
9967.000000;0.090643
9966.000000;0.090975
9965.000000;0.091517
9964.000000;0.092095
9963.000000;0.092479
9962.000000;0.092635
9961.000000;0.092744
9960.000000;0.092990
9959.000000;0.093414
9958.000000;0.093966
9957.000000;0.094587
9956.000000;0.095188
9955.000000;0.095609
9954.000000;0.095719
9953.000000;0.095588
9952.000000;0.095473
9951.000000;0.095596
9950.000000;0.095946
9949.000000;0.096333
9948.000000;0.096603
9947.000000;0.096756
9946.000000;0.096907
9945.000000;0.097183
9944.000000;0.097653
9943.000000;0.098267
9942.000000;0.098855
9941.000000;0.099246
9940.000000;0.099416
9939.000000;0.099481
9938.000000;0.099569
9937.000000;0.099722
9936.000000;0.099937
9935.000000;0.100219
9934.000000;0.100567
9933.000000;0.100957
9932.000000;0.101392
9931.000000;0.101886
9930.000000;0.102372
9929.000000;0.102688
9928.000000;0.102734
9927.000000;0.102643
9926.000000;0.102696
9925.000000;0.103073
9924.000000;0.103691
9923.000000;0.104303
9922.000000;0.104725
9921.000000;0.104968
9920.000000;0.105184
9919.000000;0.105500
9918.000000;0.105897
9917.000000;0.106253
9916.000000;0.106495
9915.000000;0.106664
9914.000000;0.106860
9913.000000;0.107152
9912.000000;0.107546
9911.000000;0.107998
9910.000000;0.108448
9909.000000;0.108878
9908.000000;0.109340
9907.000000;0.109883
9906.000000;0.110445
9905.000000;0.110862
9904.000000;0.111027
9903.000000;0.110996
9902.000000;0.110931
9901.000000;0.110978
9900.000000;0.111217
9899.000000;0.111673
9898.000000;0.112299
9897.000000;0.112979
9896.000000;0.113590
9895.000000;0.114069
9894.000000;0.114428
9893.000000;0.114751
9892.000000;0.115142
9891.000000;0.115619
9890.000000;0.116047
9889.000000;0.116267
9888.000000;0.116311
9887.000000;0.116378
9886.000000;0.116574
9885.000000;0.116796
9884.000000;0.116936
9883.000000;0.117075
9882.000000;0.117353
9881.000000;0.117742
9880.000000;0.118099
9879.000000;0.118395
9878.000000;0.118737
9877.000000;0.119177
9876.000000;0.119640
9875.000000;0.120062
9874.000000;0.120480
9873.000000;0.120933
9872.000000;0.121368
9871.000000;0.121700
9870.000000;0.121912
9869.000000;0.122068
9868.000000;0.122258
9867.000000;0.122544
9866.000000;0.122910
9865.000000;0.123260
9864.000000;0.123534
9863.000000;0.123812
9862.000000;0.124238
9861.000000;0.124813
9860.000000;0.125360
9859.000000;0.125719
9858.000000;0.125914
9857.000000;0.126045
9856.000000;0.126118
9855.000000;0.126076
9854.000000;0.125986
9853.000000;0.126084
9852.000000;0.126563
9851.000000;0.127354
9850.000000;0.128149
9849.000000;0.128662
9848.000000;0.128864
9847.000000;0.128989
9846.000000;0.129293
9845.000000;0.129795
9844.000000;0.130259
9843.000000;0.130454
9842.000000;0.130418
9841.000000;0.130440
9840.000000;0.130766
9839.000000;0.131372
9838.000000;0.132040
9837.000000;0.132612
9836.000000;0.133089
9835.000000;0.133514
9834.000000;0.133885
9833.000000;0.134209
9832.000000;0.134560
9831.000000;0.134982
9830.000000;0.135403
9829.000000;0.135730
9828.000000;0.135982
9827.000000;0.136254
9826.000000;0.136571
9825.000000;0.136890
9824.000000;0.137234
9823.000000;0.137668
9822.000000;0.138131
9821.000000;0.138425
9820.000000;0.138470
9819.000000;0.138455
9818.000000;0.138647
9817.000000;0.139091
9816.000000;0.139592
9815.000000;0.139971
9814.000000;0.140257
9813.000000;0.140610
9812.000000;0.141112
9811.000000;0.141625
9810.000000;0.141910
9809.000000;0.141907
9808.000000;0.141901
9807.000000;0.142300
9806.000000;0.143208
9805.000000;0.144297
9804.000000;0.145132
9803.000000;0.145559
9802.000000;0.145714
9801.000000;0.145782
9800.000000;0.145876
9799.000000;0.146083
9798.000000;0.146453
9797.000000;0.146913
9796.000000;0.147296
9795.000000;0.147508
9794.000000;0.147604
9793.000000;0.147701
9792.000000;0.147865
9791.000000;0.148124
9790.000000;0.148506
9789.000000;0.149012
9788.000000;0.149549
9787.000000;0.149965
9786.000000;0.150190
9785.000000;0.150351
9784.000000;0.150679
9783.000000;0.151245
9782.000000;0.151840
9781.000000;0.152203
9780.000000;0.152339
9779.000000;0.152494
9778.000000;0.152815
9777.000000;0.153172
9776.000000;0.153395
9775.000000;0.153536
9774.000000;0.153762
9773.000000;0.154076
9772.000000;0.154326
9771.000000;0.154453
9770.000000;0.154607
9769.000000;0.154982
9768.000000;0.155637
9767.000000;0.156464
9766.000000;0.157252
9765.000000;0.157782
9764.000000;0.157957
9763.000000;0.157903
9762.000000;0.157870
9761.000000;0.158022
9760.000000;0.158346
9759.000000;0.158750
9758.000000;0.159167
9757.000000;0.159550
9756.000000;0.159840
9755.000000;0.160030
9754.000000;0.160229
9753.000000;0.160623
9752.000000;0.161318
9751.000000;0.162196
9750.000000;0.162956
9749.000000;0.163346
9748.000000;0.163380
9747.000000;0.163294
9746.000000;0.163275
9745.000000;0.163327
9744.000000;0.163415
9743.000000;0.163608
9742.000000;0.163985
9741.000000;0.164492
9740.000000;0.165004
9739.000000;0.165495
9738.000000;0.166000
9737.000000;0.166474
9736.000000;0.166818
9735.000000;0.167062
9734.000000;0.167363
9733.000000;0.167786
9732.000000;0.168213
9731.000000;0.168517
9730.000000;0.168747
9729.000000;0.169043
9728.000000;0.169453
9727.000000;0.169905
9726.000000;0.170333
9725.000000;0.170741
9724.000000;0.171155
9723.000000;0.171554
9722.000000;0.171895
9721.000000;0.172181
9720.000000;0.172458
9719.000000;0.172739
9718.000000;0.172954
9717.000000;0.173050
9716.000000;0.173137
9715.000000;0.173442
9714.000000;0.174041
9713.000000;0.174706
9712.000000;0.175121
9711.000000;0.175234
9710.000000;0.175310
9709.000000;0.175628
9708.000000;0.176204
9707.000000;0.176825
9706.000000;0.177281
9705.000000;0.177521
9704.000000;0.177629
9703.000000;0.177730
9702.000000;0.177927
9701.000000;0.178311
9700.000000;0.178921
9699.000000;0.179656
9698.000000;0.180264
9697.000000;0.180545
9696.000000;0.180577
9695.000000;0.180633
9694.000000;0.180841
9693.000000;0.181072
9692.000000;0.181222
9691.000000;0.181442
9690.000000;0.181923
9689.000000;0.182547
9688.000000;0.182976
9687.000000;0.183093
9686.000000;0.183150
9685.000000;0.183451
9684.000000;0.184012
9683.000000;0.184601
9682.000000;0.184980
9681.000000;0.185063
9680.000000;0.184948
9679.000000;0.184880
9678.000000;0.185083
9677.000000;0.185572
9676.000000;0.186147
9675.000000;0.186631
9674.000000;0.187030
9673.000000;0.187441
9672.000000;0.187897
9671.000000;0.188384
9670.000000;0.188935
9669.000000;0.189597
9668.000000;0.190311
9667.000000;0.190915
9666.000000;0.191258
9665.000000;0.191311
9664.000000;0.191176
9663.000000;0.191061
9662.000000;0.191190
9661.000000;0.191661
9660.000000;0.192355
9659.000000;0.193007
9658.000000;0.193401
9657.000000;0.193518
9656.000000;0.193525
9655.000000;0.193613
9654.000000;0.193858
9653.000000;0.194196
9652.000000;0.194528
9651.000000;0.194844
9650.000000;0.195226
9649.000000;0.195731
9648.000000;0.196262
9647.000000;0.196602
9646.000000;0.196622
9645.000000;0.196462
9644.000000;0.196447
9643.000000;0.196764
9642.000000;0.197258
9641.000000;0.197647
9640.000000;0.197912
9639.000000;0.198327
9638.000000;0.199059
9637.000000;0.199873
9636.000000;0.200379
9635.000000;0.200498
9634.000000;0.200533
9633.000000;0.200789
9632.000000;0.201280
9631.000000;0.201807
9630.000000;0.202179
9629.000000;0.202312
9628.000000;0.202217
9627.000000;0.202021
9626.000000;0.201964
9625.000000;0.202260
9624.000000;0.202934
9623.000000;0.203784
9622.000000;0.204493
9621.000000;0.204844
9620.000000;0.204885
9619.000000;0.204928
9618.000000;0.205309
9617.000000;0.206082
9616.000000;0.206954
9615.000000;0.207531
9614.000000;0.207660
9613.000000;0.207526
9612.000000;0.207441
9611.000000;0.207547
9610.000000;0.207727
9609.000000;0.207799
9608.000000;0.207786
9607.000000;0.207937
9606.000000;0.208437
9605.000000;0.209150
9604.000000;0.209715
9603.000000;0.209918
9602.000000;0.209890
9601.000000;0.209914
9600.000000;0.210120
9599.000000;0.210442
9598.000000;0.210834
9597.000000;0.211374
9596.000000;0.212079
9595.000000;0.212717
9594.000000;0.212968
9593.000000;0.212834
9592.000000;0.212706
9591.000000;0.212937
9590.000000;0.213428
9589.000000;0.213785
9588.000000;0.213852
9587.000000;0.213880
9586.000000;0.214148
9585.000000;0.214595
9584.000000;0.214942
9583.000000;0.215062
9582.000000;0.215111
9581.000000;0.215351
9580.000000;0.215946
9579.000000;0.216821
9578.000000;0.217661
9577.000000;0.218124
9576.000000;0.218171
9575.000000;0.218146
9574.000000;0.218409
9573.000000;0.218938
9572.000000;0.219412
9571.000000;0.219601
9570.000000;0.219548
9569.000000;0.219422
9568.000000;0.219358
9567.000000;0.219450
9566.000000;0.219730
9565.000000;0.220087
9564.000000;0.220336
9563.000000;0.220424
9562.000000;0.220515
9561.000000;0.220818
9560.000000;0.221378
9559.000000;0.222076
9558.000000;0.222760
9557.000000;0.223354
9556.000000;0.223868
9555.000000;0.224332
9554.000000;0.224698
9553.000000;0.224863
9552.000000;0.224824
9551.000000;0.224775
9550.000000;0.224950
9549.000000;0.225388
9548.000000;0.225922
9547.000000;0.226349
9546.000000;0.226541
9545.000000;0.226422
9544.000000;0.226047
9543.000000;0.225718
9542.000000;0.225863
9541.000000;0.226660
9540.000000;0.227816
9539.000000;0.228809
9538.000000;0.229340
9537.000000;0.229488
9536.000000;0.229515
9535.000000;0.229604
9534.000000;0.229814
9533.000000;0.230137
9532.000000;0.230516
9531.000000;0.230810
9530.000000;0.230872
9529.000000;0.230741
9528.000000;0.230699
9527.000000;0.231020
9526.000000;0.231628
9525.000000;0.232103
9524.000000;0.232100
9523.000000;0.231680
9522.000000;0.231192
9521.000000;0.230919
9520.000000;0.230934
9519.000000;0.231216
9518.000000;0.231727
9517.000000;0.232381
9516.000000;0.233049
9515.000000;0.233620
9514.000000;0.234029
9513.000000;0.234251
9512.000000;0.234354
9511.000000;0.234508
9510.000000;0.234816
9509.000000;0.235187
9508.000000;0.235470
9507.000000;0.235664
9506.000000;0.235867
9505.000000;0.236046
9504.000000;0.236053
9503.000000;0.235873
9502.000000;0.235695
9501.000000;0.235683
9500.000000;0.235841
9499.000000;0.236135
9498.000000;0.236581
9497.000000;0.237110
9496.000000;0.237512
9495.000000;0.237670
9494.000000;0.237760
9493.000000;0.238071
9492.000000;0.238650
9491.000000;0.239259
9490.000000;0.239643
9489.000000;0.239769
9488.000000;0.239790
9487.000000;0.239863
9486.000000;0.240027
9485.000000;0.240213
9484.000000;0.240335
9483.000000;0.240365
9482.000000;0.240338
9481.000000;0.240294
9480.000000;0.240282
9479.000000;0.240407
9478.000000;0.240797
9477.000000;0.241465
9476.000000;0.242230
9475.000000;0.242821
9474.000000;0.243070
9473.000000;0.243018
9472.000000;0.242859
9471.000000;0.242799
9470.000000;0.242925
9469.000000;0.243179
9468.000000;0.243445
9467.000000;0.243665
9466.000000;0.243865
9465.000000;0.244097
9464.000000;0.244396
9463.000000;0.244738
9462.000000;0.245008
9461.000000;0.245057
9460.000000;0.244873
9459.000000;0.244666
9458.000000;0.244687
9457.000000;0.244953
9456.000000;0.245240
9455.000000;0.245342
9454.000000;0.245275
9453.000000;0.245226
9452.000000;0.245392
9451.000000;0.245859
9450.000000;0.246521
9449.000000;0.247105
9448.000000;0.247361
9447.000000;0.247284
9446.000000;0.247081
9445.000000;0.246910
9444.000000;0.246804
9443.000000;0.246839
9442.000000;0.247183
9441.000000;0.247873
9440.000000;0.248647
9439.000000;0.249167
9438.000000;0.249357
9437.000000;0.249364
9436.000000;0.249255
9435.000000;0.248925
9434.000000;0.248347
9433.000000;0.247766
9432.000000;0.247544
9431.000000;0.247844
9430.000000;0.248519
9429.000000;0.249268
9428.000000;0.249874
9427.000000;0.250302
9426.000000;0.250647
9425.000000;0.251024
9424.000000;0.251486
9423.000000;0.251980
9422.000000;0.252358
9421.000000;0.252487
9420.000000;0.252389
9419.000000;0.252234
9418.000000;0.252140
9417.000000;0.252029
9416.000000;0.251765
9415.000000;0.251423
9414.000000;0.251254
9413.000000;0.251372
9412.000000;0.251599
9411.000000;0.251715
9410.000000;0.251752
9409.000000;0.251912
9408.000000;0.252243
9407.000000;0.252563
9406.000000;0.252702
9405.000000;0.252703
9404.000000;0.252718
9403.000000;0.252808
9402.000000;0.252925
9401.000000;0.253043
9400.000000;0.253190
9399.000000;0.253352
9398.000000;0.253415
9397.000000;0.253283
9396.000000;0.253022
9395.000000;0.252830
9394.000000;0.252843
9393.000000;0.253002
9392.000000;0.253144
9391.000000;0.253213
9390.000000;0.253322
9389.000000;0.253589
9388.000000;0.253968
9387.000000;0.254248
9386.000000;0.254252
9385.000000;0.254018
9384.000000;0.253797
9383.000000;0.253860
9382.000000;0.254261
9381.000000;0.254780
9380.000000;0.255109
9379.000000;0.255130
9378.000000;0.255007
9377.000000;0.255007
9376.000000;0.255231
9375.000000;0.255518
9374.000000;0.255626
9373.000000;0.255469
9372.000000;0.255173
9371.000000;0.254898
9370.000000;0.254679
9369.000000;0.254502
9368.000000;0.254482
9367.000000;0.254818
9366.000000;0.255492
9365.000000;0.256110
9364.000000;0.256196
9363.000000;0.255701
9362.000000;0.255108
9361.000000;0.254976
9360.000000;0.255400
9359.000000;0.255972
9358.000000;0.256244
9357.000000;0.256170
9356.000000;0.256046
9355.000000;0.256085
9354.000000;0.256180
9353.000000;0.256135
9352.000000;0.255999
9351.000000;0.256016
9350.000000;0.256274
9349.000000;0.256580
9348.000000;0.256732
9347.000000;0.256756
9346.000000;0.256766
9345.000000;0.256730
9344.000000;0.256537
9343.000000;0.256263
9342.000000;0.256185
9341.000000;0.256490
9340.000000;0.257076
9339.000000;0.257661
9338.000000;0.258027
9337.000000;0.258142
9336.000000;0.258090
9335.000000;0.257911
9334.000000;0.257544
9333.000000;0.256960
9332.000000;0.256368
9331.000000;0.256152
9330.000000;0.256503
9329.000000;0.257177
9328.000000;0.257738
9327.000000;0.258009
9326.000000;0.258145
9325.000000;0.258317
9324.000000;0.258499
9323.000000;0.258572
9322.000000;0.258466
9321.000000;0.258148
9320.000000;0.257644
9319.000000;0.257177
9318.000000;0.257112
9317.000000;0.257588
9316.000000;0.258286
9315.000000;0.258716
9314.000000;0.258726
9313.000000;0.258570
9312.000000;0.258503
9311.000000;0.258463
9310.000000;0.258227
9309.000000;0.257763
9308.000000;0.257300
9307.000000;0.257086
9306.000000;0.257155
9305.000000;0.257337
9304.000000;0.257412
9303.000000;0.257245
9302.000000;0.256838
9301.000000;0.256333
9300.000000;0.255955
9299.000000;0.255860
9298.000000;0.256013
9297.000000;0.256251
9296.000000;0.256458
9295.000000;0.256639
9294.000000;0.256803
9293.000000;0.256893
9292.000000;0.256875
9291.000000;0.256824
9290.000000;0.256840
9289.000000;0.256935
9288.000000;0.257072
9287.000000;0.257244
9286.000000;0.257413
9285.000000;0.257429
9284.000000;0.257168
9283.000000;0.256757
9282.000000;0.256491
9281.000000;0.256490
9280.000000;0.256565
9279.000000;0.256505
9278.000000;0.256380
9277.000000;0.256444
9276.000000;0.256789
9275.000000;0.257217
9274.000000;0.257448
9273.000000;0.257383
9272.000000;0.257123
9271.000000;0.256814
9270.000000;0.256531
9269.000000;0.256293
9268.000000;0.256130
9267.000000;0.256075
9266.000000;0.256134
9265.000000;0.256288
9264.000000;0.256533
9263.000000;0.256790
9262.000000;0.256814
9261.000000;0.256332
9260.000000;0.255400
9259.000000;0.254529
9258.000000;0.254287
9257.000000;0.254765
9256.000000;0.255535
9255.000000;0.256081
9254.000000;0.256162
9253.000000;0.255821
9252.000000;0.255282
9251.000000;0.254883
9250.000000;0.254905
9249.000000;0.255276
9248.000000;0.255546
9247.000000;0.255288
9246.000000;0.254521
9245.000000;0.253665
9244.000000;0.253158
9243.000000;0.253183
9242.000000;0.253657
9241.000000;0.254344
9240.000000;0.254979
9239.000000;0.255395
9238.000000;0.255560
9237.000000;0.255467
9236.000000;0.255062
9235.000000;0.254365
9234.000000;0.253607
9233.000000;0.253124
9232.000000;0.253089
9231.000000;0.253391
9230.000000;0.253739
9229.000000;0.253823
9228.000000;0.253463
9227.000000;0.252743
9226.000000;0.252023
9225.000000;0.251655
9224.000000;0.251630
9223.000000;0.251610
9222.000000;0.251359
9221.000000;0.251045
9220.000000;0.251006
9219.000000;0.251277
9218.000000;0.251513
9217.000000;0.251383
9216.000000;0.250943
9215.000000;0.250577
9214.000000;0.250607
9213.000000;0.251002
9212.000000;0.251419
9211.000000;0.251508
9210.000000;0.251201
9209.000000;0.250743
9208.000000;0.250446
9207.000000;0.250417
9206.000000;0.250525
9205.000000;0.250591
9204.000000;0.250543
9203.000000;0.250396
9202.000000;0.250170
9201.000000;0.249890
9200.000000;0.249625
9199.000000;0.249438
9198.000000;0.249329
9197.000000;0.249255
9196.000000;0.249192
9195.000000;0.249122
9194.000000;0.248995
9193.000000;0.248768
9192.000000;0.248482
9191.000000;0.248249
9190.000000;0.248164
9189.000000;0.248259
9188.000000;0.248504
9187.000000;0.248780
9186.000000;0.248891
9185.000000;0.248727
9184.000000;0.248412
9183.000000;0.248184
9182.000000;0.248112
9181.000000;0.248042
9180.000000;0.247867
9179.000000;0.247689
9178.000000;0.247623
9177.000000;0.247568
9176.000000;0.247321
9175.000000;0.246851
9174.000000;0.246346
9173.000000;0.246024
9172.000000;0.246001
9171.000000;0.246252
9170.000000;0.246563
9169.000000;0.246559
9168.000000;0.246005
9167.000000;0.245118
9166.000000;0.244429
9165.000000;0.244272
9164.000000;0.244508
9163.000000;0.244771
9162.000000;0.244850
9161.000000;0.244767
9160.000000;0.244591
9159.000000;0.244332
9158.000000;0.243977
9157.000000;0.243552
9156.000000;0.243132
9155.000000;0.242821
9154.000000;0.242669
9153.000000;0.242608
9152.000000;0.242520
9151.000000;0.242426
9150.000000;0.242526
9149.000000;0.242964
9148.000000;0.243571
9147.000000;0.243946
9146.000000;0.243826
9145.000000;0.243340
9144.000000;0.242877
9143.000000;0.242707
9142.000000;0.242743
9141.000000;0.242663
9140.000000;0.242235
9139.000000;0.241520
9138.000000;0.240785
9137.000000;0.240257
9136.000000;0.240001
9135.000000;0.239947
9134.000000;0.239976
9133.000000;0.240011
9132.000000;0.240063
9131.000000;0.240185
9130.000000;0.240339
9129.000000;0.240367
9128.000000;0.240199
9127.000000;0.239972
9126.000000;0.239828
9125.000000;0.239662
9124.000000;0.239279
9123.000000;0.238794
9122.000000;0.238578
9121.000000;0.238725
9120.000000;0.238820
9119.000000;0.238439
9118.000000;0.237698
9117.000000;0.237099
9116.000000;0.236959
9115.000000;0.237211
9114.000000;0.237647
9113.000000;0.238068
9112.000000;0.238240
9111.000000;0.238032
9110.000000;0.237639
9109.000000;0.237430
9108.000000;0.237465
9107.000000;0.237416
9106.000000;0.237086
9105.000000;0.236742
9104.000000;0.236730
9103.000000;0.236939
9102.000000;0.236924
9101.000000;0.236478
9100.000000;0.235821
9099.000000;0.235260
9098.000000;0.234894
9097.000000;0.234697
9096.000000;0.234659
9095.000000;0.234728
9094.000000;0.234744
9093.000000;0.234550
9092.000000;0.234135
9091.000000;0.233637
9090.000000;0.233219
9089.000000;0.232964
9088.000000;0.232817
9087.000000;0.232621
9086.000000;0.232292
9085.000000;0.231930
9084.000000;0.231708
9083.000000;0.231650
9082.000000;0.231627
9081.000000;0.231561
9080.000000;0.231494
9079.000000;0.231439
9078.000000;0.231326
9077.000000;0.231165
9076.000000;0.231116
9075.000000;0.231261
9074.000000;0.231425
9073.000000;0.231351
9072.000000;0.230989
9071.000000;0.230497
9070.000000;0.230018
9069.000000;0.229591
9068.000000;0.229240
9067.000000;0.229011
9066.000000;0.228913
9065.000000;0.228905
9064.000000;0.228939
9063.000000;0.228945
9062.000000;0.228803
9061.000000;0.228462
9060.000000;0.228072
9059.000000;0.227880
9058.000000;0.227968
9057.000000;0.228185
9056.000000;0.228298
9055.000000;0.228152
9054.000000;0.227685
9053.000000;0.226971
