Criado como novo conjunto de dados;"e2410_daniel_v2.spp","27003.1 Secs"
cm-1;Abs
10000.000000;0.535162
9999.000000;0.534279
9998.000000;0.533393
9997.000000;0.532520
9996.000000;0.531611
9995.000000;0.530775
9994.000000;0.530199
9993.000000;0.529918
9992.000000;0.529797
9991.000000;0.529586
9990.000000;0.529113
9989.000000;0.528444
9988.000000;0.527819
9987.000000;0.527385
9986.000000;0.527054
9985.000000;0.526652
9984.000000;0.526156
9983.000000;0.525681
9982.000000;0.525289
9981.000000;0.524920
9980.000000;0.524496
9979.000000;0.524019
9978.000000;0.523532
9977.000000;0.523057
9976.000000;0.522582
9975.000000;0.522084
9974.000000;0.521551
9973.000000;0.521005
9972.000000;0.520469
9971.000000;0.519904
9970.000000;0.519230
9969.000000;0.518446
9968.000000;0.517674
9967.000000;0.517038
9966.000000;0.516549
9965.000000;0.516176
9964.000000;0.515934
9963.000000;0.515822
9962.000000;0.515714
9961.000000;0.515413
9960.000000;0.514849
9959.000000;0.514133
9958.000000;0.513437
9957.000000;0.512856
9956.000000;0.512366
9955.000000;0.511857
9954.000000;0.511228
9953.000000;0.510505
9952.000000;0.509836
9951.000000;0.509339
9950.000000;0.508992
9949.000000;0.508690
9948.000000;0.508342
9947.000000;0.507862
9946.000000;0.507190
9945.000000;0.506434
9944.000000;0.505902
9943.000000;0.505808
9942.000000;0.505983
9941.000000;0.505996
9940.000000;0.505599
9939.000000;0.504902
9938.000000;0.504135
9937.000000;0.503375
9936.000000;0.502574
9935.000000;0.501762
9934.000000;0.501083
9933.000000;0.500670
9932.000000;0.500488
9931.000000;0.500300
9930.000000;0.499818
9929.000000;0.498945
9928.000000;0.497902
9927.000000;0.497066
9926.000000;0.496666
9925.000000;0.496626
9924.000000;0.496675
9923.000000;0.496543
9922.000000;0.496100
9921.000000;0.495378
9920.000000;0.494530
9919.000000;0.493739
9918.000000;0.493130
9917.000000;0.492719
9916.000000;0.492418
9915.000000;0.492096
9914.000000;0.491662
9913.000000;0.491129
9912.000000;0.490566
9911.000000;0.490009
9910.000000;0.489460
9909.000000;0.488954
9908.000000;0.488563
9907.000000;0.488300
9906.000000;0.488095
9905.000000;0.487864
9904.000000;0.487557
9903.000000;0.487132
9902.000000;0.486587
9901.000000;0.486034
9900.000000;0.485613
9899.000000;0.485302
9898.000000;0.484894
9897.000000;0.484234
9896.000000;0.483391
9895.000000;0.482550
9894.000000;0.481839
9893.000000;0.481319
9892.000000;0.481003
9891.000000;0.480777
9890.000000;0.480416
9889.000000;0.479791
9888.000000;0.479028
9887.000000;0.478373
9886.000000;0.477943
9885.000000;0.477676
9884.000000;0.477427
9883.000000;0.477039
9882.000000;0.476428
9881.000000;0.475702
9880.000000;0.475091
9879.000000;0.474674
9878.000000;0.474255
9877.000000;0.473630
9876.000000;0.472876
9875.000000;0.472236
9874.000000;0.471790
9873.000000;0.471426
9872.000000;0.471058
9871.000000;0.470714
9870.000000;0.470416
9869.000000;0.470129
9868.000000;0.469832
9867.000000;0.469541
9866.000000;0.469232
9865.000000;0.468858
9864.000000;0.468422
9863.000000;0.467968
9862.000000;0.467488
9861.000000;0.466958
9860.000000;0.466438
9859.000000;0.466046
9858.000000;0.465804
9857.000000;0.465583
9856.000000;0.465210
9855.000000;0.464610
9854.000000;0.463844
9853.000000;0.463053
9852.000000;0.462342
9851.000000;0.461689
9850.000000;0.461000
9849.000000;0.460291
9848.000000;0.459720
9847.000000;0.459400
9846.000000;0.459234
9845.000000;0.459015
9844.000000;0.458621
9843.000000;0.458057
9842.000000;0.457373
9841.000000;0.456642
9840.000000;0.455992
9839.000000;0.455527
9838.000000;0.455236
9837.000000;0.455001
9836.000000;0.454685
9835.000000;0.454210
9834.000000;0.453601
9833.000000;0.453011
9832.000000;0.452596
9831.000000;0.452326
9830.000000;0.451993
9829.000000;0.451449
9828.000000;0.450770
9827.000000;0.450124
9826.000000;0.449604
9825.000000;0.449260
9824.000000;0.449148
9823.000000;0.449193
9822.000000;0.449099
9821.000000;0.448572
9820.000000;0.447609
9819.000000;0.446479
9818.000000;0.445459
9817.000000;0.444703
9816.000000;0.444261
9815.000000;0.444086
9814.000000;0.444003
9813.000000;0.443821
9812.000000;0.443492
9811.000000;0.443103
9810.000000;0.442730
9809.000000;0.442367
9808.000000;0.441967
9807.000000;0.441488
9806.000000;0.440925
9805.000000;0.440333
9804.000000;0.439775
9803.000000;0.439218
9802.000000;0.438575
9801.000000;0.437869
9800.000000;0.437282
9799.000000;0.436950
9798.000000;0.436812
9797.000000;0.436703
9796.000000;0.436493
9795.000000;0.436085
9794.000000;0.435429
9793.000000;0.434662
9792.000000;0.434066
9791.000000;0.433747
9790.000000;0.433463
9789.000000;0.432934
9788.000000;0.432229
9787.000000;0.431663
9786.000000;0.431383
9785.000000;0.431231
9784.000000;0.430982
9783.000000;0.430519
9782.000000;0.429811
9781.000000;0.428905
9780.000000;0.427983
9779.000000;0.427282
9778.000000;0.426910
9777.000000;0.426779
9776.000000;0.426707
9775.000000;0.426523
9774.000000;0.426125
9773.000000;0.425537
9772.000000;0.424900
9771.000000;0.424338
9770.000000;0.423865
9769.000000;0.423457
9768.000000;0.423130
9767.000000;0.422864
9766.000000;0.422538
9765.000000;0.422065
9764.000000;0.421504
9763.000000;0.420953
9762.000000;0.420403
9761.000000;0.419825
9760.000000;0.419289
9759.000000;0.418869
9758.000000;0.418480
9757.000000;0.417966
9756.000000;0.417313
9755.000000;0.416650
9754.000000;0.416095
9753.000000;0.415695
9752.000000;0.415442
9751.000000;0.415234
9750.000000;0.414880
9749.000000;0.414312
9748.000000;0.413706
9747.000000;0.413266
9746.000000;0.412944
9745.000000;0.412532
9744.000000;0.411979
9743.000000;0.411434
9742.000000;0.411005
9741.000000;0.410666
9740.000000;0.410401
9739.000000;0.410244
9738.000000;0.410156
9737.000000;0.409986
9736.000000;0.409617
9735.000000;0.409042
9734.000000;0.408318
9733.000000;0.407545
9732.000000;0.406893
9731.000000;0.406502
9730.000000;0.406335
9729.000000;0.406194
9728.000000;0.405915
9727.000000;0.405468
9726.000000;0.404914
9725.000000;0.404336
9724.000000;0.403814
9723.000000;0.403361
9722.000000;0.402896
9721.000000;0.402340
9720.000000;0.401742
9719.000000;0.401195
9718.000000;0.400699
9717.000000;0.400172
9716.000000;0.399589
9715.000000;0.399007
9714.000000;0.398499
9713.000000;0.398129
9712.000000;0.397933
9711.000000;0.397823
9710.000000;0.397578
9709.000000;0.397062
9708.000000;0.396400
9707.000000;0.395820
9706.000000;0.395371
9705.000000;0.394913
9704.000000;0.394359
9703.000000;0.393767
9702.000000;0.393221
9701.000000;0.392758
9700.000000;0.392408
9699.000000;0.392171
9698.000000;0.391952
9697.000000;0.391635
9696.000000;0.391237
9695.000000;0.390869
9694.000000;0.390560
9693.000000;0.390217
9692.000000;0.389774
9691.000000;0.389284
9690.000000;0.388837
9689.000000;0.388479
9688.000000;0.388197
9687.000000;0.387916
9686.000000;0.387514
9685.000000;0.386931
9684.000000;0.386254
9683.000000;0.385610
9682.000000;0.385017
9681.000000;0.384424
9680.000000;0.383858
9679.000000;0.383417
9678.000000;0.383122
9677.000000;0.382859
9676.000000;0.382506
9675.000000;0.382043
9674.000000;0.381551
9673.000000;0.381136
9672.000000;0.380831
9671.000000;0.380526
9670.000000;0.380050
9669.000000;0.379394
9668.000000;0.378763
9667.000000;0.378349
9666.000000;0.378111
9665.000000;0.377877
9664.000000;0.377566
9663.000000;0.377210
9662.000000;0.376837
9661.000000;0.376462
9660.000000;0.376117
9659.000000;0.375773
9658.000000;0.375290
9657.000000;0.374586
9656.000000;0.373813
9655.000000;0.373214
9654.000000;0.372861
9653.000000;0.372631
9652.000000;0.372417
9651.000000;0.372185
9650.000000;0.371879
9649.000000;0.371441
9648.000000;0.370939
9647.000000;0.370529
9646.000000;0.370253
9645.000000;0.369962
9644.000000;0.369485
9643.000000;0.368798
9642.000000;0.368039
9641.000000;0.367416
9640.000000;0.367067
9639.000000;0.366916
9638.000000;0.366721
9637.000000;0.366325
9636.000000;0.365803
9635.000000;0.365279
9634.000000;0.364700
9633.000000;0.363966
9632.000000;0.363183
9631.000000;0.362601
9630.000000;0.362304
9629.000000;0.362151
9628.000000;0.362012
9627.000000;0.361889
9626.000000;0.361774
9625.000000;0.361559
9624.000000;0.361173
9623.000000;0.360694
9622.000000;0.360238
9621.000000;0.359820
9620.000000;0.359361
9619.000000;0.358786
9618.000000;0.358091
9617.000000;0.357362
9616.000000;0.356739
9615.000000;0.356305
9614.000000;0.356017
9613.000000;0.355782
9612.000000;0.355564
9611.000000;0.355349
9610.000000;0.355060
9609.000000;0.354626
9608.000000;0.354093
9607.000000;0.353589
9606.000000;0.353171
9605.000000;0.352807
9604.000000;0.352465
9603.000000;0.352125
9602.000000;0.351736
9601.000000;0.351272
9600.000000;0.350821
9599.000000;0.350501
9598.000000;0.350305
9597.000000;0.350107
9596.000000;0.349803
9595.000000;0.349365
9594.000000;0.348794
9593.000000;0.348138
9592.000000;0.347512
9591.000000;0.347007
9590.000000;0.346586
9589.000000;0.346186
9588.000000;0.345868
9587.000000;0.345722
9586.000000;0.345654
9585.000000;0.345422
9584.000000;0.344916
9583.000000;0.344273
9582.000000;0.343692
9581.000000;0.343242
9580.000000;0.342878
9579.000000;0.342540
9578.000000;0.342182
9577.000000;0.341793
9576.000000;0.341399
9575.000000;0.341008
9574.000000;0.340554
9573.000000;0.339985
9572.000000;0.339385
9571.000000;0.338918
9570.000000;0.338643
9569.000000;0.338466
9568.000000;0.338283
9567.000000;0.338064
9566.000000;0.337790
9565.000000;0.337408
9564.000000;0.336898
9563.000000;0.336340
9562.000000;0.335859
9561.000000;0.335519
9560.000000;0.335263
9559.000000;0.334935
9558.000000;0.334419
9557.000000;0.333778
9556.000000;0.333208
9555.000000;0.332799
9554.000000;0.332439
9553.000000;0.331986
9552.000000;0.331483
9551.000000;0.331065
9550.000000;0.330755
9549.000000;0.330454
9548.000000;0.330108
9547.000000;0.329749
9546.000000;0.329389
9545.000000;0.328989
9544.000000;0.328547
9543.000000;0.328111
9542.000000;0.327700
9541.000000;0.327307
9540.000000;0.326964
9539.000000;0.326715
9538.000000;0.326515
9537.000000;0.326241
9536.000000;0.325830
9535.000000;0.325341
9534.000000;0.324894
9533.000000;0.324579
9532.000000;0.324412
9531.000000;0.324306
9530.000000;0.324122
9529.000000;0.323780
9528.000000;0.323318
9527.000000;0.322794
9526.000000;0.322202
9525.000000;0.321537
9524.000000;0.320869
9523.000000;0.320275
9522.000000;0.319757
9521.000000;0.319292
9520.000000;0.318907
9519.000000;0.318607
9518.000000;0.318308
9517.000000;0.317934
9516.000000;0.317540
9515.000000;0.317231
9514.000000;0.317028
9513.000000;0.316916
9512.000000;0.316923
9511.000000;0.317015
9510.000000;0.316977
9509.000000;0.316592
9508.000000;0.315921
9507.000000;0.315235
9506.000000;0.314677
9505.000000;0.314140
9504.000000;0.313508
9503.000000;0.312845
9502.000000;0.312299
9501.000000;0.311929
9500.000000;0.311687
9499.000000;0.311497
9498.000000;0.311284
9497.000000;0.310987
9496.000000;0.310580
9495.000000;0.310085
9494.000000;0.309578
9493.000000;0.309203
9492.000000;0.309096
9491.000000;0.309217
9490.000000;0.309305
9489.000000;0.309090
9488.000000;0.308548
9487.000000;0.307870
9486.000000;0.307238
9485.000000;0.306716
9484.000000;0.306306
9483.000000;0.305970
9482.000000;0.305603
9481.000000;0.305102
9480.000000;0.304486
9479.000000;0.303870
9478.000000;0.303346
9477.000000;0.302956
9476.000000;0.302733
9475.000000;0.302659
9474.000000;0.302593
9473.000000;0.302355
9472.000000;0.301929
9471.000000;0.301482
9470.000000;0.301189
9469.000000;0.301067
9468.000000;0.300980
9467.000000;0.300744
9466.000000;0.300265
9465.000000;0.299624
9464.000000;0.299003
9463.000000;0.298490
9462.000000;0.298018
9461.000000;0.297548
9460.000000;0.297197
9459.000000;0.297077
9458.000000;0.297091
9457.000000;0.297031
9456.000000;0.296827
9455.000000;0.296552
9454.000000;0.296231
9453.000000;0.295801
9452.000000;0.295270
9451.000000;0.294759
9450.000000;0.294368
9449.000000;0.294082
9448.000000;0.293826
9447.000000;0.293531
9446.000000;0.293142
9445.000000;0.292656
9444.000000;0.292146
9443.000000;0.291685
9442.000000;0.291266
9441.000000;0.290870
9440.000000;0.290555
9439.000000;0.290380
9438.000000;0.290276
9437.000000;0.290109
9436.000000;0.289841
9435.000000;0.289525
9434.000000;0.289168
9433.000000;0.288724
9432.000000;0.288213
9431.000000;0.287715
9430.000000;0.287276
9429.000000;0.286901
9428.000000;0.286615
9427.000000;0.286420
9426.000000;0.286229
9425.000000;0.285946
9424.000000;0.285591
9423.000000;0.285216
9422.000000;0.284752
9421.000000;0.284106
9420.000000;0.283391
9419.000000;0.282869
9418.000000;0.282640
9417.000000;0.282542
9416.000000;0.282374
9415.000000;0.282095
9414.000000;0.281762
9413.000000;0.281426
9412.000000;0.281134
9411.000000;0.280918
9410.000000;0.280707
9409.000000;0.280360
9408.000000;0.279835
9407.000000;0.279255
9406.000000;0.278773
9405.000000;0.278443
9404.000000;0.278267
9403.000000;0.278237
9402.000000;0.278296
9401.000000;0.278311
9400.000000;0.278166
9399.000000;0.277830
9398.000000;0.277323
9397.000000;0.276694
9396.000000;0.276036
9395.000000;0.275477
9394.000000;0.275082
9393.000000;0.274827
9392.000000;0.274653
9391.000000;0.274519
9390.000000;0.274379
9389.000000;0.274178
9388.000000;0.273886
9387.000000;0.273502
9386.000000;0.273035
9385.000000;0.272521
9384.000000;0.272052
9383.000000;0.271700
9382.000000;0.271417
9381.000000;0.271089
9380.000000;0.270690
9379.000000;0.270309
9378.000000;0.270011
9377.000000;0.269746
9376.000000;0.269435
9375.000000;0.269077
9374.000000;0.268733
9373.000000;0.268458
9372.000000;0.268266
9371.000000;0.268128
9370.000000;0.267979
9369.000000;0.267757
9368.000000;0.267447
9367.000000;0.267081
9366.000000;0.266702
9365.000000;0.266349
9364.000000;0.266066
9363.000000;0.265876
9362.000000;0.265757
9361.000000;0.265641
9360.000000;0.265437
9359.000000;0.265065
9358.000000;0.264519
9357.000000;0.263912
9356.000000;0.263394
9355.000000;0.263008
9354.000000;0.262678
9353.000000;0.262341
9352.000000;0.262030
9351.000000;0.261791
9350.000000;0.261610
9349.000000;0.261443
9348.000000;0.261253
9347.000000;0.260968
9346.000000;0.260528
9345.000000;0.260006
9344.000000;0.259566
9343.000000;0.259244
9342.000000;0.258904
9341.000000;0.258482
9340.000000;0.258130
9339.000000;0.257980
9338.000000;0.257905
9337.000000;0.257665
9336.000000;0.257219
9335.000000;0.256728
9334.000000;0.256321
9333.000000;0.256027
9332.000000;0.255854
9331.000000;0.255778
9330.000000;0.255670
9329.000000;0.255404
9328.000000;0.255021
9327.000000;0.254660
9326.000000;0.254350
9325.000000;0.254015
9324.000000;0.253650
9323.000000;0.253325
9322.000000;0.253040
9321.000000;0.252729
9320.000000;0.252410
9319.000000;0.252171
9318.000000;0.252000
9317.000000;0.251783
9316.000000;0.251477
9315.000000;0.251149
9314.000000;0.250828
9313.000000;0.250464
9312.000000;0.250062
9311.000000;0.249719
9310.000000;0.249484
9309.000000;0.249273
9308.000000;0.249002
9307.000000;0.248701
9306.000000;0.248465
9305.000000;0.248351
9304.000000;0.248322
9303.000000;0.248242
9302.000000;0.247952
9301.000000;0.247425
9300.000000;0.246847
9299.000000;0.246433
9298.000000;0.246190
9297.000000;0.245979
9296.000000;0.245752
9295.000000;0.245581
9294.000000;0.245464
9293.000000;0.245269
9292.000000;0.244929
9291.000000;0.244541
9290.000000;0.244210
9289.000000;0.243924
9288.000000;0.243628
9287.000000;0.243341
9286.000000;0.243113
9285.000000;0.242949
9284.000000;0.242818
9283.000000;0.242673
9282.000000;0.242431
9281.000000;0.242012
9280.000000;0.241449
9279.000000;0.240888
9278.000000;0.240448
9277.000000;0.240136
9276.000000;0.239916
9275.000000;0.239768
9274.000000;0.239660
9273.000000;0.239515
9272.000000;0.239276
9271.000000;0.238962
9270.000000;0.238636
9269.000000;0.238348
9268.000000;0.238106
9267.000000;0.237857
9266.000000;0.237527
9265.000000;0.237131
9264.000000;0.236807
9263.000000;0.236657
9262.000000;0.236585
9261.000000;0.236412
9260.000000;0.236115
9259.000000;0.235842
9258.000000;0.235660
9257.000000;0.235440
9256.000000;0.235051
9255.000000;0.234541
9254.000000;0.234070
9253.000000;0.233729
9252.000000;0.233487
9251.000000;0.233262
9250.000000;0.232967
9249.000000;0.232570
9248.000000;0.232155
9247.000000;0.231866
9246.000000;0.231751
9245.000000;0.231678
9244.000000;0.231485
9243.000000;0.231159
9242.000000;0.230841
9241.000000;0.230643
9240.000000;0.230522
9239.000000;0.230336
9238.000000;0.230012
9237.000000;0.229641
9236.000000;0.229402
9235.000000;0.229355
9234.000000;0.229363
9233.000000;0.229228
9232.000000;0.228888
9231.000000;0.228449
9230.000000;0.228048
9229.000000;0.227749
9228.000000;0.227540
9227.000000;0.227353
9226.000000;0.227104
9225.000000;0.226760
9224.000000;0.226382
9223.000000;0.226049
9222.000000;0.225774
9221.000000;0.225531
9220.000000;0.225350
9219.000000;0.225295
9218.000000;0.225352
9217.000000;0.225405
9216.000000;0.225345
9215.000000;0.225150
9214.000000;0.224846
9213.000000;0.224459
9212.000000;0.224014
9211.000000;0.223543
9210.000000;0.223075
9209.000000;0.222647
9208.000000;0.222312
9207.000000;0.222105
9206.000000;0.221996
9205.000000;0.221900
9204.000000;0.221740
9203.000000;0.221484
9202.000000;0.221165
9201.000000;0.220872
9200.000000;0.220687
9199.000000;0.220595
9198.000000;0.220484
9197.000000;0.220273
9196.000000;0.219991
9195.000000;0.219689
9194.000000;0.219359
9193.000000;0.218989
9192.000000;0.218645
9191.000000;0.218412
9190.000000;0.218270
9189.000000;0.218117
9188.000000;0.217893
9187.000000;0.217608
9186.000000;0.217291
9185.000000;0.216981
9184.000000;0.216731
9183.000000;0.216552
9182.000000;0.216371
9181.000000;0.216114
9180.000000;0.215809
9179.000000;0.215539
9178.000000;0.215331
9177.000000;0.215144
9176.000000;0.214950
9175.000000;0.214735
9174.000000;0.214454
9173.000000;0.214093
9172.000000;0.213746
9171.000000;0.213539
9170.000000;0.213465
9169.000000;0.213388
9168.000000;0.213205
9167.000000;0.212950
9166.000000;0.212705
9165.000000;0.212507
9164.000000;0.212339
9163.000000;0.212155
9162.000000;0.211908
9161.000000;0.211589
9160.000000;0.211251
9159.000000;0.210945
9158.000000;0.210661
9157.000000;0.210378
9156.000000;0.210141
9155.000000;0.210026
9154.000000;0.210018
9153.000000;0.210014
9152.000000;0.209931
9151.000000;0.209764
9150.000000;0.209548
9149.000000;0.209303
9148.000000;0.209031
9147.000000;0.208701
9146.000000;0.208274
9145.000000;0.207782
9144.000000;0.207345
9143.000000;0.207044
9142.000000;0.206819
9141.000000;0.206569
9140.000000;0.206323
9139.000000;0.206207
9138.000000;0.206241
9137.000000;0.206281
9136.000000;0.206161
9135.000000;0.205843
9134.000000;0.205420
9133.000000;0.205041
9132.000000;0.204830
9131.000000;0.204808
9130.000000;0.204863
9129.000000;0.204834
9128.000000;0.204660
9127.000000;0.204393
9126.000000;0.204104
9125.000000;0.203802
9124.000000;0.203474
9123.000000;0.203130
9122.000000;0.202808
9121.000000;0.202552
9120.000000;0.202374
9119.000000;0.202229
9118.000000;0.202036
9117.000000;0.201769
9116.000000;0.201493
9115.000000;0.201281
9114.000000;0.201132
9113.000000;0.201008
9112.000000;0.200890
9111.000000;0.200761
9110.000000;0.200561
9109.000000;0.200261
9108.000000;0.199924
9107.000000;0.199642
9106.000000;0.199426
9105.000000;0.199218
9104.000000;0.199003
9103.000000;0.198840
9102.000000;0.198777
9101.000000;0.198790
9100.000000;0.198780
9099.000000;0.198624
9098.000000;0.198269
9097.000000;0.197822
9096.000000;0.197483
9095.000000;0.197350
9094.000000;0.197315
9093.000000;0.197208
9092.000000;0.196986
9091.000000;0.196724
9090.000000;0.196483
9089.000000;0.196264
9088.000000;0.196057
9087.000000;0.195848
9086.000000;0.195613
9085.000000;0.195374
9084.000000;0.195200
9083.000000;0.195104
9082.000000;0.194982
9081.000000;0.194745
9080.000000;0.194447
9079.000000;0.194206
9078.000000;0.194044
9077.000000;0.193903
9076.000000;0.193773
9075.000000;0.193690
9074.000000;0.193635
9073.000000;0.193544
9072.000000;0.193408
9071.000000;0.193253
9070.000000;0.193054
9069.000000;0.192759
9068.000000;0.192402
9067.000000;0.192082
9066.000000;0.191846
9065.000000;0.191669
9064.000000;0.191542
9063.000000;0.191475
9062.000000;0.191411
9061.000000;0.191226
9060.000000;0.190871
9059.000000;0.190439
9058.000000;0.190079
9057.000000;0.189877
9056.000000;0.189817
9055.000000;0.189800
9054.000000;0.189717
9053.000000;0.189527
