Criado como novo conjunto de dados;"e2410_daniel_v2.spp","46804.2 Secs"
cm-1;Abs
10000.000000;0.950980
9999.000000;0.950793
9998.000000;0.950560
9997.000000;0.950140
9996.000000;0.949632
9995.000000;0.949207
9994.000000;0.948837
9993.000000;0.948355
9992.000000;0.947619
9991.000000;0.946635
9990.000000;0.945523
9989.000000;0.944470
9988.000000;0.943610
9987.000000;0.942937
9986.000000;0.942404
9985.000000;0.942116
9984.000000;0.942267
9983.000000;0.942796
9982.000000;0.943259
9981.000000;0.943144
9980.000000;0.942292
9979.000000;0.940966
9978.000000;0.939637
9977.000000;0.938688
9976.000000;0.938187
9975.000000;0.937903
9974.000000;0.937654
9973.000000;0.937539
9972.000000;0.937640
9971.000000;0.937587
9970.000000;0.936846
9969.000000;0.935504
9968.000000;0.934360
9967.000000;0.934044
9966.000000;0.934314
9965.000000;0.934409
9964.000000;0.933838
9963.000000;0.932671
9962.000000;0.931300
9961.000000;0.930171
9960.000000;0.929558
9959.000000;0.929353
9958.000000;0.929192
9957.000000;0.928890
9956.000000;0.928589
9955.000000;0.928377
9954.000000;0.928038
9953.000000;0.927401
9952.000000;0.926664
9951.000000;0.926136
9950.000000;0.925826
9949.000000;0.925539
9948.000000;0.925190
9947.000000;0.924797
9946.000000;0.924306
9945.000000;0.923686
9944.000000;0.923075
9943.000000;0.922629
9942.000000;0.922322
9941.000000;0.922090
9940.000000;0.921994
9939.000000;0.922021
9938.000000;0.921876
9937.000000;0.921262
9936.000000;0.920267
9935.000000;0.919268
9934.000000;0.918515
9933.000000;0.918001
9932.000000;0.917628
9931.000000;0.917254
9930.000000;0.916670
9929.000000;0.915780
9928.000000;0.914786
9927.000000;0.914015
9926.000000;0.913577
9925.000000;0.913343
9924.000000;0.913155
9923.000000;0.912911
9922.000000;0.912539
9921.000000;0.912086
9920.000000;0.911763
9919.000000;0.911714
9918.000000;0.911776
9917.000000;0.911611
9916.000000;0.911032
9915.000000;0.910070
9914.000000;0.908848
9913.000000;0.907577
9912.000000;0.906577
9911.000000;0.906078
9910.000000;0.905998
9909.000000;0.906039
9908.000000;0.905976
9907.000000;0.905698
9906.000000;0.905110
9905.000000;0.904190
9904.000000;0.903127
9903.000000;0.902191
9902.000000;0.901473
9901.000000;0.900876
9900.000000;0.900341
9899.000000;0.899901
9898.000000;0.899552
9897.000000;0.899244
9896.000000;0.899006
9895.000000;0.898923
9894.000000;0.898929
9893.000000;0.898793
9892.000000;0.898357
9891.000000;0.897713
9890.000000;0.897064
9889.000000;0.896474
9888.000000;0.895806
9887.000000;0.894911
9886.000000;0.893823
9885.000000;0.892789
9884.000000;0.892083
9883.000000;0.891810
9882.000000;0.891857
9881.000000;0.892004
9880.000000;0.892001
9879.000000;0.891638
9878.000000;0.890875
9877.000000;0.889954
9876.000000;0.889227
9875.000000;0.888805
9874.000000;0.888448
9873.000000;0.887855
9872.000000;0.886991
9871.000000;0.886119
9870.000000;0.885607
9869.000000;0.885681
9868.000000;0.886201
9867.000000;0.886610
9866.000000;0.886277
9865.000000;0.885052
9864.000000;0.883462
9863.000000;0.882275
9862.000000;0.881900
9861.000000;0.882158
9860.000000;0.882503
9859.000000;0.882402
9858.000000;0.881631
9857.000000;0.880330
9856.000000;0.878859
9855.000000;0.877601
9854.000000;0.876862
9853.000000;0.876755
9852.000000;0.877051
9851.000000;0.877255
9850.000000;0.877028
9849.000000;0.876497
9848.000000;0.876015
9847.000000;0.875738
9846.000000;0.875601
9845.000000;0.875555
9844.000000;0.875507
9843.000000;0.875132
9842.000000;0.874163
9841.000000;0.872883
9840.000000;0.871935
9839.000000;0.871523
9838.000000;0.871190
9837.000000;0.870512
9836.000000;0.869684
9835.000000;0.869145
9834.000000;0.868945
9833.000000;0.868778
9832.000000;0.868450
9831.000000;0.868004
9830.000000;0.867500
9829.000000;0.866958
9828.000000;0.866459
9827.000000;0.866051
9826.000000;0.865608
9825.000000;0.864990
9824.000000;0.864324
9823.000000;0.863922
9822.000000;0.863897
9821.000000;0.863989
9820.000000;0.863839
9819.000000;0.863343
9818.000000;0.862706
9817.000000;0.862166
9816.000000;0.861724
9815.000000;0.861174
9814.000000;0.860380
9813.000000;0.859451
9812.000000;0.858600
9811.000000;0.857924
9810.000000;0.857421
9809.000000;0.857106
9808.000000;0.856927
9807.000000;0.856676
9806.000000;0.856192
9805.000000;0.855604
9804.000000;0.855142
9803.000000;0.854759
9802.000000;0.854196
9801.000000;0.853388
9800.000000;0.852510
9799.000000;0.851639
9798.000000;0.850713
9797.000000;0.849873
9796.000000;0.849471
9795.000000;0.849594
9794.000000;0.849886
9793.000000;0.849995
9792.000000;0.849918
9791.000000;0.849738
9790.000000;0.849350
9789.000000;0.848687
9788.000000;0.847935
9787.000000;0.847239
9786.000000;0.846449
9785.000000;0.845448
9784.000000;0.844535
9783.000000;0.844119
9782.000000;0.844145
9781.000000;0.844147
9780.000000;0.843829
9779.000000;0.843350
9778.000000;0.843022
9777.000000;0.842968
9776.000000;0.843083
9775.000000;0.843154
9774.000000;0.842984
9773.000000;0.842514
9772.000000;0.841858
9771.000000;0.841155
9770.000000;0.840436
9769.000000;0.839702
9768.000000;0.839015
9767.000000;0.838402
9766.000000;0.837742
9765.000000;0.836904
9764.000000;0.835973
9763.000000;0.835208
9762.000000;0.834796
9761.000000;0.834730
9760.000000;0.834835
9759.000000;0.834854
9758.000000;0.834582
9757.000000;0.834023
9756.000000;0.833403
9755.000000;0.832930
9754.000000;0.832577
9753.000000;0.832146
9752.000000;0.831517
9751.000000;0.830768
9750.000000;0.830060
9749.000000;0.829463
9748.000000;0.828905
9747.000000;0.828307
9746.000000;0.827745
9745.000000;0.827392
9744.000000;0.827228
9743.000000;0.826937
9742.000000;0.826229
9741.000000;0.825223
9740.000000;0.824310
9739.000000;0.823709
9738.000000;0.823329
9737.000000;0.823022
9736.000000;0.822703
9735.000000;0.822257
9734.000000;0.821577
9733.000000;0.820766
9732.000000;0.820070
9731.000000;0.819555
9730.000000;0.819107
9729.000000;0.818785
9728.000000;0.818828
9727.000000;0.819172
9726.000000;0.819245
9725.000000;0.818540
9724.000000;0.817219
9723.000000;0.815937
9722.000000;0.815180
9721.000000;0.814964
9720.000000;0.815004
9719.000000;0.814972
9718.000000;0.814667
9717.000000;0.814143
9716.000000;0.813667
9715.000000;0.813431
9714.000000;0.813350
9713.000000;0.813210
9712.000000;0.812915
9711.000000;0.812490
9710.000000;0.811970
9709.000000;0.811395
9708.000000;0.810848
9707.000000;0.810373
9706.000000;0.809923
9705.000000;0.809441
9704.000000;0.808942
9703.000000;0.808456
9702.000000;0.807991
9701.000000;0.807606
9700.000000;0.807369
9699.000000;0.807178
9698.000000;0.806781
9697.000000;0.806078
9696.000000;0.805284
9695.000000;0.804689
9694.000000;0.804346
9693.000000;0.804097
9692.000000;0.803798
9691.000000;0.803395
9690.000000;0.802874
9689.000000;0.802227
9688.000000;0.801467
9687.000000;0.800616
9686.000000;0.799754
9685.000000;0.799047
9684.000000;0.798617
9683.000000;0.798383
9682.000000;0.798145
9681.000000;0.797850
9680.000000;0.797608
9679.000000;0.797424
9678.000000;0.797127
9677.000000;0.796632
9676.000000;0.796111
9675.000000;0.795789
9674.000000;0.795690
9673.000000;0.795648
9672.000000;0.795440
9671.000000;0.794888
9670.000000;0.794001
9669.000000;0.793093
9668.000000;0.792562
9667.000000;0.792474
9666.000000;0.792514
9665.000000;0.792390
9664.000000;0.792062
9663.000000;0.791532
9662.000000;0.790737
9661.000000;0.789819
9660.000000;0.789194
9659.000000;0.789065
9658.000000;0.789035
9657.000000;0.788510
9656.000000;0.787406
9655.000000;0.786218
9654.000000;0.785459
9653.000000;0.785234
9652.000000;0.785317
9651.000000;0.785413
9650.000000;0.785336
9649.000000;0.785074
9648.000000;0.784737
9647.000000;0.784364
9646.000000;0.783860
9645.000000;0.783171
9644.000000;0.782443
9643.000000;0.781881
9642.000000;0.781507
9641.000000;0.781174
9640.000000;0.780757
9639.000000;0.780234
9638.000000;0.779645
9637.000000;0.779068
9636.000000;0.778596
9635.000000;0.778222
9634.000000;0.777791
9633.000000;0.777184
9632.000000;0.776516
9631.000000;0.776062
9630.000000;0.775965
9629.000000;0.776093
9628.000000;0.776160
9627.000000;0.775956
9626.000000;0.775492
9625.000000;0.774934
9624.000000;0.774405
9623.000000;0.773843
9622.000000;0.773138
9621.000000;0.772361
9620.000000;0.771731
9619.000000;0.771358
9618.000000;0.771134
9617.000000;0.770899
9616.000000;0.770561
9615.000000;0.770027
9614.000000;0.769208
9613.000000;0.768230
9612.000000;0.767469
9611.000000;0.767214
9610.000000;0.767343
9609.000000;0.767458
9608.000000;0.767284
9607.000000;0.766869
9606.000000;0.766404
9605.000000;0.765989
9604.000000;0.765563
9603.000000;0.765027
9602.000000;0.764399
9601.000000;0.763848
9600.000000;0.763513
9599.000000;0.763337
9598.000000;0.763142
9597.000000;0.762850
9596.000000;0.762523
9595.000000;0.762206
9594.000000;0.761852
9593.000000;0.761422
9592.000000;0.760942
9591.000000;0.760409
9590.000000;0.759765
9589.000000;0.759014
9588.000000;0.758272
9587.000000;0.757653
9586.000000;0.757192
9585.000000;0.756875
9584.000000;0.756642
9583.000000;0.756354
9582.000000;0.755876
9581.000000;0.755244
9580.000000;0.754664
9579.000000;0.754334
9578.000000;0.754313
9577.000000;0.754518
9576.000000;0.754702
9575.000000;0.754517
9574.000000;0.753825
9573.000000;0.752948
9572.000000;0.752392
9571.000000;0.752268
9570.000000;0.752186
9569.000000;0.751769
9568.000000;0.751061
9567.000000;0.750345
9566.000000;0.749748
9565.000000;0.749192
9564.000000;0.748591
9563.000000;0.747949
9562.000000;0.747333
9561.000000;0.746852
9560.000000;0.746571
9559.000000;0.746386
9558.000000;0.746061
9557.000000;0.745509
9556.000000;0.744930
9555.000000;0.744608
9554.000000;0.744616
9553.000000;0.744764
9552.000000;0.744764
9551.000000;0.744438
9550.000000;0.743830
9549.000000;0.743167
9548.000000;0.742642
9547.000000;0.742232
9546.000000;0.741810
9545.000000;0.741383
9544.000000;0.741077
9543.000000;0.740915
9542.000000;0.740756
9541.000000;0.740482
9540.000000;0.740113
9539.000000;0.739677
9538.000000;0.739122
9537.000000;0.738404
9536.000000;0.737578
9535.000000;0.736771
9534.000000;0.736151
9533.000000;0.735868
9532.000000;0.735880
9531.000000;0.735879
9530.000000;0.735565
9529.000000;0.735007
9528.000000;0.734545
9527.000000;0.734349
9526.000000;0.734271
9525.000000;0.734119
9524.000000;0.733870
9523.000000;0.733549
9522.000000;0.733131
9521.000000;0.732645
9520.000000;0.732185
9519.000000;0.731747
9518.000000;0.731217
9517.000000;0.730597
9516.000000;0.730046
9515.000000;0.729616
9514.000000;0.729151
9513.000000;0.728534
9512.000000;0.727878
9511.000000;0.727352
9510.000000;0.726953
9509.000000;0.726586
9508.000000;0.726251
9507.000000;0.726021
9506.000000;0.725894
9505.000000;0.725736
9504.000000;0.725365
9503.000000;0.724704
9502.000000;0.723929
9501.000000;0.723392
9500.000000;0.723269
9499.000000;0.723302
9498.000000;0.723081
9497.000000;0.722517
9496.000000;0.721860
9495.000000;0.721310
9494.000000;0.720888
9493.000000;0.720638
9492.000000;0.720610
9491.000000;0.720590
9490.000000;0.720203
9489.000000;0.719430
9488.000000;0.718739
9487.000000;0.718530
9486.000000;0.718699
9485.000000;0.718885
9484.000000;0.718876
9483.000000;0.718570
9482.000000;0.717830
9481.000000;0.716689
9480.000000;0.715564
9479.000000;0.714934
9478.000000;0.714849
9477.000000;0.714938
9476.000000;0.714871
9475.000000;0.714638
9474.000000;0.714410
9473.000000;0.714288
9472.000000;0.714208
9471.000000;0.714018
9470.000000;0.713620
9469.000000;0.713073
9468.000000;0.712516
9467.000000;0.712012
9466.000000;0.711565
9465.000000;0.711228
9464.000000;0.711040
9463.000000;0.710863
9462.000000;0.710464
9461.000000;0.709825
9460.000000;0.709192
9459.000000;0.708781
9458.000000;0.708591
9457.000000;0.708546
9456.000000;0.708586
9455.000000;0.708542
9454.000000;0.708156
9453.000000;0.707375
9452.000000;0.706475
9451.000000;0.705759
9450.000000;0.705273
9449.000000;0.704921
9448.000000;0.704667
9447.000000;0.704483
9446.000000;0.704273
9445.000000;0.703984
9444.000000;0.703695
9443.000000;0.703454
9442.000000;0.703162
9441.000000;0.702748
9440.000000;0.702306
9439.000000;0.701937
9438.000000;0.701572
9437.000000;0.701100
9436.000000;0.700563
9435.000000;0.700087
9434.000000;0.699727
9433.000000;0.699479
9432.000000;0.699329
9431.000000;0.699170
9430.000000;0.698787
9429.000000;0.698088
9428.000000;0.697259
9427.000000;0.696580
9426.000000;0.696146
9425.000000;0.695869
9424.000000;0.695639
9423.000000;0.695397
9422.000000;0.695109
9421.000000;0.694798
9420.000000;0.694526
9419.000000;0.694298
9418.000000;0.694053
9417.000000;0.693754
9416.000000;0.693392
9415.000000;0.692913
9414.000000;0.692308
9413.000000;0.691788
9412.000000;0.691623
9411.000000;0.691717
9410.000000;0.691595
9409.000000;0.690958
9408.000000;0.690054
9407.000000;0.689333
9406.000000;0.688956
9405.000000;0.688820
9404.000000;0.688836
9403.000000;0.688927
9402.000000;0.688896
9401.000000;0.688582
9400.000000;0.688101
9399.000000;0.687710
9398.000000;0.687481
9397.000000;0.687294
9396.000000;0.687075
9395.000000;0.686837
9394.000000;0.686530
9393.000000;0.686048
9392.000000;0.685403
9391.000000;0.684736
9390.000000;0.684145
9389.000000;0.683641
9388.000000;0.683248
9387.000000;0.683005
9386.000000;0.682861
9385.000000;0.682704
9384.000000;0.682503
9383.000000;0.682346
9382.000000;0.682293
9381.000000;0.682271
9380.000000;0.682133
9379.000000;0.681785
9378.000000;0.681286
9377.000000;0.680818
9376.000000;0.680517
9375.000000;0.680299
9374.000000;0.679948
9373.000000;0.679392
9372.000000;0.678800
9371.000000;0.678341
9370.000000;0.677981
9369.000000;0.677591
9368.000000;0.677138
9367.000000;0.676662
9366.000000;0.676152
9365.000000;0.675580
9364.000000;0.675033
9363.000000;0.674661
9362.000000;0.674527
9361.000000;0.674547
9360.000000;0.674578
9359.000000;0.674506
9358.000000;0.674301
9357.000000;0.674067
9356.000000;0.673964
9355.000000;0.674019
9354.000000;0.674032
9353.000000;0.673727
9352.000000;0.672998
9351.000000;0.672004
9350.000000;0.671079
9349.000000;0.670560
9348.000000;0.670561
9347.000000;0.670855
9346.000000;0.671035
9345.000000;0.670858
9344.000000;0.670410
9343.000000;0.669916
9342.000000;0.669508
9341.000000;0.669201
9340.000000;0.668955
9339.000000;0.668691
9338.000000;0.668329
9337.000000;0.667893
9336.000000;0.667489
9335.000000;0.667138
9334.000000;0.666730
9333.000000;0.666204
9332.000000;0.665671
9331.000000;0.665281
9330.000000;0.665068
9329.000000;0.664993
9328.000000;0.665012
9327.000000;0.665003
9326.000000;0.664750
9325.000000;0.664133
9324.000000;0.663297
9323.000000;0.662512
9322.000000;0.661926
9321.000000;0.661524
9320.000000;0.661257
9319.000000;0.661089
9318.000000;0.660951
9317.000000;0.660777
9316.000000;0.660582
9315.000000;0.660445
9314.000000;0.660383
9313.000000;0.660298
9312.000000;0.660074
9311.000000;0.659701
9310.000000;0.659320
9309.000000;0.659119
9308.000000;0.659136
9307.000000;0.659184
9306.000000;0.659010
9305.000000;0.658513
9304.000000;0.657756
9303.000000;0.656837
9302.000000;0.655877
9301.000000;0.655088
9300.000000;0.654658
9299.000000;0.654550
9298.000000;0.654524
9297.000000;0.654425
9296.000000;0.654307
9295.000000;0.654261
9294.000000;0.654263
9293.000000;0.654251
9292.000000;0.654224
9291.000000;0.654183
9290.000000;0.654073
9289.000000;0.653867
9288.000000;0.653590
9287.000000;0.653228
9286.000000;0.652725
9285.000000;0.652138
9284.000000;0.651635
9283.000000;0.651285
9282.000000;0.650946
9281.000000;0.650478
9280.000000;0.649946
9279.000000;0.649529
9278.000000;0.649301
9277.000000;0.649186
9276.000000;0.649029
9275.000000;0.648681
9274.000000;0.648109
9273.000000;0.647497
9272.000000;0.647123
9271.000000;0.647067
9270.000000;0.647128
9269.000000;0.647106
9268.000000;0.646999
9267.000000;0.646860
9266.000000;0.646623
9265.000000;0.646234
9264.000000;0.645843
9263.000000;0.645660
9262.000000;0.645683
9261.000000;0.645710
9260.000000;0.645598
9259.000000;0.645379
9258.000000;0.645130
9257.000000;0.644837
9256.000000;0.644414
9255.000000;0.643790
9254.000000;0.643015
9253.000000;0.642311
9252.000000;0.641953
9251.000000;0.641995
9250.000000;0.642158
9249.000000;0.642091
9248.000000;0.641733
9247.000000;0.641326
9246.000000;0.641107
9245.000000;0.641071
9244.000000;0.641045
9243.000000;0.640876
9242.000000;0.640520
9241.000000;0.640001
9240.000000;0.639362
9239.000000;0.638667
9238.000000;0.638010
9237.000000;0.637489
9236.000000;0.637152
9235.000000;0.636981
9234.000000;0.636955
9233.000000;0.637066
9232.000000;0.637243
9231.000000;0.637310
9230.000000;0.637124
9229.000000;0.636741
9228.000000;0.636351
9227.000000;0.636041
9226.000000;0.635728
9225.000000;0.635325
9224.000000;0.634883
9223.000000;0.634512
9222.000000;0.634255
9221.000000;0.634088
9220.000000;0.633971
9219.000000;0.633857
9218.000000;0.633681
9217.000000;0.633403
9216.000000;0.633028
9215.000000;0.632583
9214.000000;0.632105
9213.000000;0.631655
9212.000000;0.631274
9211.000000;0.630936
9210.000000;0.630585
9209.000000;0.630232
9208.000000;0.629935
9207.000000;0.629711
9206.000000;0.629524
9205.000000;0.629362
9204.000000;0.629228
9203.000000;0.629067
9202.000000;0.628789
9201.000000;0.628399
9200.000000;0.628019
9199.000000;0.627773
9198.000000;0.627693
9197.000000;0.627732
9196.000000;0.627790
9195.000000;0.627742
9194.000000;0.627539
9193.000000;0.627268
9192.000000;0.627052
9191.000000;0.626886
9190.000000;0.626655
9189.000000;0.626323
9188.000000;0.625971
9187.000000;0.625658
9186.000000;0.625329
9185.000000;0.624904
9184.000000;0.624381
9183.000000;0.623843
9182.000000;0.623410
9181.000000;0.623182
9180.000000;0.623175
9179.000000;0.623299
9178.000000;0.623465
9177.000000;0.623636
9176.000000;0.623725
9175.000000;0.623528
9174.000000;0.622922
9173.000000;0.622094
9172.000000;0.621417
9171.000000;0.621080
9170.000000;0.620962
9169.000000;0.620858
9168.000000;0.620701
9167.000000;0.620556
9166.000000;0.620513
9165.000000;0.620597
9164.000000;0.620682
9163.000000;0.620520
9162.000000;0.620003
9161.000000;0.619362
9160.000000;0.618947
9159.000000;0.618822
9158.000000;0.618737
9157.000000;0.618512
9156.000000;0.618239
9155.000000;0.618034
9154.000000;0.617798
9153.000000;0.617372
9152.000000;0.616799
9151.000000;0.616275
9150.000000;0.615916
9149.000000;0.615675
9148.000000;0.615478
9147.000000;0.615338
9146.000000;0.615304
9145.000000;0.615324
9144.000000;0.615207
9143.000000;0.614781
9142.000000;0.614124
9141.000000;0.613538
9140.000000;0.613226
9139.000000;0.613086
9138.000000;0.612910
9137.000000;0.612672
9136.000000;0.612474
9135.000000;0.612303
9134.000000;0.612058
9133.000000;0.611755
9132.000000;0.611526
9131.000000;0.611407
9130.000000;0.611335
9129.000000;0.611305
9128.000000;0.611338
9127.000000;0.611281
9126.000000;0.610914
9125.000000;0.610309
9124.000000;0.609860
9123.000000;0.609849
9122.000000;0.610133
9121.000000;0.610342
9120.000000;0.610231
9119.000000;0.609769
9118.000000;0.609072
9117.000000;0.608382
9116.000000;0.607985
9115.000000;0.607983
9114.000000;0.608181
9113.000000;0.608282
9112.000000;0.608129
9111.000000;0.607753
9110.000000;0.607271
9109.000000;0.606807
9108.000000;0.606434
9107.000000;0.606156
9106.000000;0.605977
9105.000000;0.605950
9104.000000;0.606065
9103.000000;0.606145
9102.000000;0.606028
9101.000000;0.605814
9100.000000;0.605749
9099.000000;0.605837
9098.000000;0.605803
9097.000000;0.605488
9096.000000;0.605099
9095.000000;0.604926
9094.000000;0.604990
9093.000000;0.605057
9092.000000;0.604889
9091.000000;0.604384
9090.000000;0.603614
9089.000000;0.602835
9088.000000;0.602361
9087.000000;0.602291
9086.000000;0.602399
9085.000000;0.602383
9084.000000;0.602156
9083.000000;0.601844
9082.000000;0.601592
9081.000000;0.601438
9080.000000;0.601319
9079.000000;0.601126
9078.000000;0.600803
9077.000000;0.600427
9076.000000;0.600135
9075.000000;0.599940
9074.000000;0.599711
9073.000000;0.599373
9072.000000;0.599044
9071.000000;0.598910
9070.000000;0.599008
9069.000000;0.599167
9068.000000;0.599140
9067.000000;0.598791
9066.000000;0.598210
9065.000000;0.597641
9064.000000;0.597257
9063.000000;0.597042
9062.000000;0.596909
9061.000000;0.596863
9060.000000;0.596917
9059.000000;0.596960
9058.000000;0.596854
9057.000000;0.596641
9056.000000;0.596495
9055.000000;0.596485
9054.000000;0.596499
9053.000000;0.596407
