Criado como novo conjunto de dados;"e2410_daniel_v2.spp","49684.6 Secs"
cm-1;Abs
10000.000000;0.914340
9999.000000;0.913236
9998.000000;0.912139
9997.000000;0.911039
9996.000000;0.909953
9995.000000;0.908846
9994.000000;0.907822
9993.000000;0.907269
9992.000000;0.907124
9991.000000;0.906985
9990.000000;0.906795
9989.000000;0.906672
9988.000000;0.906375
9987.000000;0.905585
9986.000000;0.904502
9985.000000;0.903581
9984.000000;0.902858
9983.000000;0.902123
9982.000000;0.901471
9981.000000;0.901124
9980.000000;0.900929
9979.000000;0.900586
9978.000000;0.900140
9977.000000;0.899715
9976.000000;0.899078
9975.000000;0.898060
9974.000000;0.897103
9973.000000;0.896749
9972.000000;0.896887
9971.000000;0.897031
9970.000000;0.897032
9969.000000;0.896931
9968.000000;0.896515
9967.000000;0.895666
9966.000000;0.894807
9965.000000;0.894355
9964.000000;0.894058
9963.000000;0.893504
9962.000000;0.892869
9961.000000;0.892477
9960.000000;0.892068
9959.000000;0.891262
9958.000000;0.890374
9957.000000;0.889954
9956.000000;0.889850
9955.000000;0.889501
9954.000000;0.888842
9953.000000;0.888146
9952.000000;0.887298
9951.000000;0.886085
9950.000000;0.884920
9949.000000;0.884408
9948.000000;0.884399
9947.000000;0.884274
9946.000000;0.883944
9945.000000;0.883741
9944.000000;0.883524
9943.000000;0.882804
9942.000000;0.881651
9941.000000;0.880653
9940.000000;0.880030
9939.000000;0.879501
9938.000000;0.878960
9937.000000;0.878568
9936.000000;0.878269
9935.000000;0.877852
9934.000000;0.877434
9933.000000;0.877277
9932.000000;0.877243
9931.000000;0.877014
9930.000000;0.876641
9929.000000;0.876294
9928.000000;0.875759
9927.000000;0.874838
9926.000000;0.873950
9925.000000;0.873616
9924.000000;0.873598
9923.000000;0.873295
9922.000000;0.872707
9921.000000;0.872244
9920.000000;0.871836
9919.000000;0.871099
9918.000000;0.870193
9917.000000;0.869641
9916.000000;0.869385
9915.000000;0.868876
9914.000000;0.868061
9913.000000;0.867495
9912.000000;0.867451
9911.000000;0.867636
9910.000000;0.867763
9909.000000;0.867730
9908.000000;0.867301
9907.000000;0.866302
9906.000000;0.865147
9905.000000;0.864493
9904.000000;0.864351
9903.000000;0.864129
9902.000000;0.863536
9901.000000;0.862847
9900.000000;0.862302
9899.000000;0.861830
9898.000000;0.861355
9897.000000;0.860828
9896.000000;0.860036
9895.000000;0.858872
9894.000000;0.857714
9893.000000;0.857025
9892.000000;0.856715
9891.000000;0.856364
9890.000000;0.855919
9889.000000;0.855634
9888.000000;0.855503
9887.000000;0.855284
9886.000000;0.854953
9885.000000;0.854613
9884.000000;0.854122
9883.000000;0.853339
9882.000000;0.852535
9881.000000;0.852027
9880.000000;0.851626
9879.000000;0.850974
9878.000000;0.850205
9877.000000;0.849726
9876.000000;0.849567
9875.000000;0.849473
9874.000000;0.849373
9873.000000;0.849217
9872.000000;0.848643
9871.000000;0.847452
9870.000000;0.846182
9869.000000;0.845526
9868.000000;0.845433
9867.000000;0.845376
9866.000000;0.845228
9865.000000;0.845196
9864.000000;0.845136
9863.000000;0.844684
9862.000000;0.843945
9861.000000;0.843335
9860.000000;0.842821
9859.000000;0.841994
9858.000000;0.840817
9857.000000;0.839701
9856.000000;0.838887
9855.000000;0.838301
9854.000000;0.837955
9853.000000;0.837940
9852.000000;0.838090
9851.000000;0.838105
9850.000000;0.837912
9849.000000;0.837556
9848.000000;0.836947
9847.000000;0.836116
9846.000000;0.835406
9845.000000;0.834978
9844.000000;0.834462
9843.000000;0.833589
9842.000000;0.832780
9841.000000;0.832531
9840.000000;0.832609
9839.000000;0.832488
9838.000000;0.832197
9837.000000;0.832051
9836.000000;0.831898
9835.000000;0.831371
9834.000000;0.830639
9833.000000;0.830145
9832.000000;0.829819
9831.000000;0.829282
9830.000000;0.828615
9829.000000;0.828225
9828.000000;0.828083
9827.000000;0.827748
9826.000000;0.827045
9825.000000;0.826136
9824.000000;0.825100
9823.000000;0.824026
9822.000000;0.823281
9821.000000;0.823074
9820.000000;0.822985
9819.000000;0.822517
9818.000000;0.821875
9817.000000;0.821559
9816.000000;0.821471
9815.000000;0.821133
9814.000000;0.820547
9813.000000;0.820076
9812.000000;0.819675
9811.000000;0.819005
9810.000000;0.818167
9809.000000;0.817596
9808.000000;0.817291
9807.000000;0.816833
9806.000000;0.816096
9805.000000;0.815348
9804.000000;0.814709
9803.000000;0.814096
9802.000000;0.813583
9801.000000;0.813305
9800.000000;0.813124
9799.000000;0.812896
9798.000000;0.812823
9797.000000;0.812995
9796.000000;0.812884
9795.000000;0.811946
9794.000000;0.810520
9793.000000;0.809425
9792.000000;0.808871
9791.000000;0.808438
9790.000000;0.807930
9789.000000;0.807549
9788.000000;0.807351
9787.000000;0.807202
9786.000000;0.807158
9785.000000;0.807297
9784.000000;0.807287
9783.000000;0.806739
9782.000000;0.805859
9781.000000;0.805157
9780.000000;0.804694
9779.000000;0.804186
9778.000000;0.803646
9777.000000;0.803273
9776.000000;0.802885
9775.000000;0.802131
9774.000000;0.801155
9773.000000;0.800427
9772.000000;0.800057
9771.000000;0.799855
9770.000000;0.799862
9769.000000;0.800170
9768.000000;0.800409
9767.000000;0.800079
9766.000000;0.799291
9765.000000;0.798555
9764.000000;0.797997
9763.000000;0.797374
9762.000000;0.796674
9761.000000;0.796048
9760.000000;0.795320
9759.000000;0.794254
9758.000000;0.793143
9757.000000;0.792485
9756.000000;0.792212
9755.000000;0.791893
9754.000000;0.791521
9753.000000;0.791402
9752.000000;0.791412
9751.000000;0.791108
9750.000000;0.790502
9749.000000;0.790045
9748.000000;0.789855
9747.000000;0.789626
9746.000000;0.789247
9745.000000;0.788862
9744.000000;0.788383
9743.000000;0.787605
9742.000000;0.786770
9741.000000;0.786384
9740.000000;0.786435
9739.000000;0.786401
9738.000000;0.786039
9737.000000;0.785593
9736.000000;0.785226
9735.000000;0.784797
9734.000000;0.784228
9733.000000;0.783587
9732.000000;0.782820
9731.000000;0.781888
9730.000000;0.781070
9729.000000;0.780669
9728.000000;0.780494
9727.000000;0.780140
9726.000000;0.779615
9725.000000;0.779208
9724.000000;0.778891
9723.000000;0.778444
9722.000000;0.778012
9721.000000;0.777901
9720.000000;0.777895
9719.000000;0.777430
9718.000000;0.776422
9717.000000;0.775349
9716.000000;0.774526
9715.000000;0.773869
9714.000000;0.773366
9713.000000;0.773193
9712.000000;0.773286
9711.000000;0.773296
9710.000000;0.773026
9709.000000;0.772542
9708.000000;0.771879
9707.000000;0.771019
9706.000000;0.770106
9705.000000;0.769314
9704.000000;0.768595
9703.000000;0.767927
9702.000000;0.767597
9701.000000;0.767816
9700.000000;0.768201
9699.000000;0.768128
9698.000000;0.767485
9697.000000;0.766650
9696.000000;0.765901
9695.000000;0.765297
9694.000000;0.764936
9693.000000;0.764844
9692.000000;0.764732
9691.000000;0.764325
9690.000000;0.763763
9689.000000;0.763264
9688.000000;0.762666
9687.000000;0.761771
9686.000000;0.760896
9685.000000;0.760489
9684.000000;0.760411
9683.000000;0.760152
9682.000000;0.759611
9681.000000;0.759106
9680.000000;0.758754
9679.000000;0.758406
9678.000000;0.758057
9677.000000;0.757787
9676.000000;0.757443
9675.000000;0.756881
9674.000000;0.756390
9673.000000;0.756354
9672.000000;0.756623
9671.000000;0.756712
9670.000000;0.756454
9669.000000;0.755970
9668.000000;0.755219
9667.000000;0.754145
9666.000000;0.753086
9665.000000;0.752450
9664.000000;0.752104
9663.000000;0.751622
9662.000000;0.751001
9661.000000;0.750584
9660.000000;0.750400
9659.000000;0.750158
9658.000000;0.749790
9657.000000;0.749426
9656.000000;0.748951
9655.000000;0.748163
9654.000000;0.747295
9653.000000;0.746824
9652.000000;0.746776
9651.000000;0.746749
9650.000000;0.746537
9649.000000;0.746242
9648.000000;0.745836
9647.000000;0.745144
9646.000000;0.744283
9645.000000;0.743618
9644.000000;0.743250
9643.000000;0.742957
9642.000000;0.742593
9641.000000;0.742214
9640.000000;0.741846
9639.000000;0.741485
9638.000000;0.741204
9637.000000;0.740970
9636.000000;0.740539
9635.000000;0.739865
9634.000000;0.739347
9633.000000;0.739264
9632.000000;0.739252
9631.000000;0.738800
9630.000000;0.738018
9629.000000;0.737387
9628.000000;0.737015
9627.000000;0.736652
9626.000000;0.736253
9625.000000;0.735943
9624.000000;0.735583
9623.000000;0.734940
9622.000000;0.734194
9621.000000;0.733760
9620.000000;0.733689
9619.000000;0.733657
9618.000000;0.733452
9617.000000;0.733036
9616.000000;0.732334
9615.000000;0.731417
9614.000000;0.730713
9613.000000;0.730541
9612.000000;0.730602
9611.000000;0.730389
9610.000000;0.729877
9609.000000;0.729364
9608.000000;0.728869
9607.000000;0.728260
9606.000000;0.727730
9605.000000;0.727533
9604.000000;0.727413
9603.000000;0.726903
9602.000000;0.726096
9601.000000;0.725518
9600.000000;0.725308
9599.000000;0.725077
9598.000000;0.724567
9597.000000;0.723915
9596.000000;0.723275
9595.000000;0.722663
9594.000000;0.722172
9593.000000;0.721917
9592.000000;0.721761
9591.000000;0.721483
9590.000000;0.721149
9589.000000;0.720956
9588.000000;0.720807
9587.000000;0.720417
9586.000000;0.719750
9585.000000;0.718983
9584.000000;0.718187
9583.000000;0.717397
9582.000000;0.716821
9581.000000;0.716624
9580.000000;0.716625
9579.000000;0.716559
9578.000000;0.716444
9577.000000;0.716338
9576.000000;0.716041
9575.000000;0.715420
9574.000000;0.714775
9573.000000;0.714418
9572.000000;0.714173
9571.000000;0.713738
9570.000000;0.713245
9569.000000;0.712944
9568.000000;0.712614
9567.000000;0.711884
9566.000000;0.710922
9565.000000;0.710222
9564.000000;0.709875
9563.000000;0.709614
9562.000000;0.709421
9561.000000;0.709512
9560.000000;0.709787
9559.000000;0.709843
9558.000000;0.709515
9557.000000;0.708952
9556.000000;0.708255
9555.000000;0.707474
9554.000000;0.706852
9553.000000;0.706584
9552.000000;0.706438
9551.000000;0.706029
9550.000000;0.705378
9549.000000;0.704788
9548.000000;0.704322
9547.000000;0.703828
9546.000000;0.703330
9545.000000;0.702945
9544.000000;0.702558
9543.000000;0.702005
9542.000000;0.701437
9541.000000;0.701064
9540.000000;0.700729
9539.000000;0.700188
9538.000000;0.699634
9537.000000;0.699447
9536.000000;0.699582
9535.000000;0.699648
9534.000000;0.699494
9533.000000;0.699249
9532.000000;0.698915
9531.000000;0.698390
9530.000000;0.697798
9529.000000;0.697368
9528.000000;0.697068
9527.000000;0.696721
9526.000000;0.696362
9525.000000;0.696113
9524.000000;0.695876
9523.000000;0.695500
9522.000000;0.695051
9521.000000;0.694586
9520.000000;0.693909
9519.000000;0.692941
9518.000000;0.692051
9517.000000;0.691574
9516.000000;0.691282
9515.000000;0.690816
9514.000000;0.690340
9513.000000;0.690241
9512.000000;0.690425
9511.000000;0.690467
9510.000000;0.690244
9509.000000;0.689886
9508.000000;0.689324
9507.000000;0.688476
9506.000000;0.687717
9505.000000;0.687518
9504.000000;0.687718
9503.000000;0.687697
9502.000000;0.687205
9501.000000;0.686509
9500.000000;0.685823
9499.000000;0.685138
9498.000000;0.684568
9497.000000;0.684305
9496.000000;0.684222
9495.000000;0.683980
9494.000000;0.683524
9493.000000;0.683062
9492.000000;0.682637
9491.000000;0.682137
9490.000000;0.681667
9489.000000;0.681449
9488.000000;0.681407
9487.000000;0.681235
9486.000000;0.680856
9485.000000;0.680442
9484.000000;0.680074
9483.000000;0.679740
9482.000000;0.679545
9481.000000;0.679538
9480.000000;0.679447
9479.000000;0.678965
9478.000000;0.678212
9477.000000;0.677555
9476.000000;0.677104
9475.000000;0.676710
9474.000000;0.676296
9473.000000;0.675838
9472.000000;0.675226
9471.000000;0.674513
9470.000000;0.674101
9469.000000;0.674231
9468.000000;0.674493
9467.000000;0.674289
9466.000000;0.673642
9465.000000;0.673100
9464.000000;0.672935
9463.000000;0.672886
9462.000000;0.672587
9461.000000;0.671864
9460.000000;0.670727
9459.000000;0.669448
9458.000000;0.668537
9457.000000;0.668288
9456.000000;0.668419
9455.000000;0.668447
9454.000000;0.668228
9453.000000;0.667895
9452.000000;0.667501
9451.000000;0.667103
9450.000000;0.666929
9449.000000;0.667052
9448.000000;0.667132
9447.000000;0.666852
9446.000000;0.666363
9445.000000;0.665937
9444.000000;0.665486
9443.000000;0.664863
9442.000000;0.664327
9441.000000;0.664173
9440.000000;0.664154
9439.000000;0.663824
9438.000000;0.663272
9437.000000;0.662950
9436.000000;0.662906
9435.000000;0.662740
9434.000000;0.662244
9433.000000;0.661592
9432.000000;0.660948
9431.000000;0.660346
9430.000000;0.659906
9429.000000;0.659761
9428.000000;0.659814
9427.000000;0.659869
9426.000000;0.659907
9425.000000;0.659911
9424.000000;0.659643
9423.000000;0.658954
9422.000000;0.658118
9421.000000;0.657472
9420.000000;0.656954
9419.000000;0.656354
9418.000000;0.655790
9417.000000;0.655476
9416.000000;0.655258
9415.000000;0.654850
9414.000000;0.654343
9413.000000;0.654041
9412.000000;0.653946
9411.000000;0.653853
9410.000000;0.653772
9409.000000;0.653800
9408.000000;0.653755
9407.000000;0.653377
9406.000000;0.652745
9405.000000;0.652099
9404.000000;0.651459
9403.000000;0.650829
9402.000000;0.650516
9401.000000;0.650716
9400.000000;0.651012
9399.000000;0.650813
9398.000000;0.650176
9397.000000;0.649652
9396.000000;0.649465
9395.000000;0.649358
9394.000000;0.649121
9393.000000;0.648762
9392.000000;0.648238
9391.000000;0.647513
9390.000000;0.646836
9389.000000;0.646473
9388.000000;0.646259
9387.000000;0.645851
9386.000000;0.645316
9385.000000;0.645000
9384.000000;0.644887
9383.000000;0.644591
9382.000000;0.643983
9381.000000;0.643365
9380.000000;0.642998
9379.000000;0.642844
9378.000000;0.642773
9377.000000;0.642696
9376.000000;0.642520
9375.000000;0.642259
9374.000000;0.642132
9373.000000;0.642258
9372.000000;0.642380
9371.000000;0.642166
9370.000000;0.641656
9369.000000;0.641108
9368.000000;0.640597
9367.000000;0.640102
9366.000000;0.639773
9365.000000;0.639715
9364.000000;0.639679
9363.000000;0.639340
9362.000000;0.638754
9361.000000;0.638171
9360.000000;0.637602
9359.000000;0.636949
9358.000000;0.636364
9357.000000;0.636031
9356.000000;0.635774
9355.000000;0.635308
9354.000000;0.634748
9353.000000;0.634435
9352.000000;0.634387
9351.000000;0.634330
9350.000000;0.634152
9349.000000;0.633929
9348.000000;0.633621
9347.000000;0.633153
9346.000000;0.632692
9345.000000;0.632472
9344.000000;0.632412
9343.000000;0.632243
9342.000000;0.631893
9341.000000;0.631444
9340.000000;0.630896
9339.000000;0.630288
9338.000000;0.629871
9337.000000;0.629776
9336.000000;0.629719
9335.000000;0.629392
9334.000000;0.628955
9333.000000;0.628731
9332.000000;0.628648
9331.000000;0.628420
9330.000000;0.628079
9329.000000;0.627849
9328.000000;0.627657
9327.000000;0.627258
9326.000000;0.626736
9325.000000;0.626399
9324.000000;0.626259
9323.000000;0.626051
9322.000000;0.625715
9321.000000;0.625420
9320.000000;0.625177
9319.000000;0.624843
9318.000000;0.624441
9317.000000;0.624099
9316.000000;0.623731
9315.000000;0.623163
9314.000000;0.622529
9313.000000;0.622190
9312.000000;0.622276
9311.000000;0.622579
9310.000000;0.622824
9309.000000;0.622792
9308.000000;0.622325
9307.000000;0.621509
9306.000000;0.620737
9305.000000;0.620316
9304.000000;0.620128
9303.000000;0.619927
9302.000000;0.619729
9301.000000;0.619630
9300.000000;0.619496
9299.000000;0.619180
9298.000000;0.618827
9297.000000;0.618600
9296.000000;0.618317
9295.000000;0.617767
9294.000000;0.617160
9293.000000;0.616846
9292.000000;0.616787
9291.000000;0.616703
9290.000000;0.616557
9289.000000;0.616460
9288.000000;0.616291
9287.000000;0.615850
9286.000000;0.615266
9285.000000;0.614811
9284.000000;0.614473
9283.000000;0.614080
9282.000000;0.613709
9281.000000;0.613524
9280.000000;0.613372
9279.000000;0.612991
9278.000000;0.612493
9277.000000;0.612217
9276.000000;0.612194
9275.000000;0.612192
9274.000000;0.612160
9273.000000;0.612201
9272.000000;0.612195
9271.000000;0.611909
9270.000000;0.611418
9269.000000;0.611004
9268.000000;0.610674
9267.000000;0.610182
9266.000000;0.609511
9265.000000;0.608941
9264.000000;0.608642
9263.000000;0.608517
9262.000000;0.608450
9261.000000;0.608407
9260.000000;0.608316
9259.000000;0.608120
9258.000000;0.607912
9257.000000;0.607781
9256.000000;0.607613
9255.000000;0.607251
9254.000000;0.606760
9253.000000;0.606294
9252.000000;0.605867
9251.000000;0.605472
9250.000000;0.605233
9249.000000;0.605166
9248.000000;0.605001
9247.000000;0.604514
9246.000000;0.603854
9245.000000;0.603284
9244.000000;0.602822
9243.000000;0.602407
9242.000000;0.602166
9241.000000;0.602167
9240.000000;0.602153
9239.000000;0.601888
9238.000000;0.601553
9237.000000;0.601440
9236.000000;0.601447
9235.000000;0.601268
9234.000000;0.600884
9233.000000;0.600495
9232.000000;0.600150
9231.000000;0.599807
9230.000000;0.599562
9229.000000;0.599465
9228.000000;0.599283
9227.000000;0.598833
9226.000000;0.598353
9225.000000;0.598162
9224.000000;0.598151
9223.000000;0.598000
9222.000000;0.597708
9221.000000;0.597480
9220.000000;0.597264
9219.000000;0.596860
9218.000000;0.596356
9217.000000;0.596016
9216.000000;0.595817
9215.000000;0.595525
9214.000000;0.595157
9213.000000;0.594947
9212.000000;0.594917
9211.000000;0.594832
9210.000000;0.594573
9209.000000;0.594235
9208.000000;0.593911
9207.000000;0.593644
9206.000000;0.593515
9205.000000;0.593522
9204.000000;0.593478
9203.000000;0.593278
9202.000000;0.593079
9201.000000;0.592976
9200.000000;0.592725
9199.000000;0.592097
9198.000000;0.591314
9197.000000;0.590796
9196.000000;0.590638
9195.000000;0.590641
9194.000000;0.590651
9193.000000;0.590554
9192.000000;0.590160
9191.000000;0.589457
9190.000000;0.588793
9189.000000;0.588461
9188.000000;0.588305
9187.000000;0.588077
9186.000000;0.587919
9185.000000;0.588057
9184.000000;0.588270
9183.000000;0.588138
9182.000000;0.587683
9181.000000;0.587285
9180.000000;0.587073
9179.000000;0.586871
9178.000000;0.586631
9177.000000;0.586461
9176.000000;0.586259
9175.000000;0.585776
9174.000000;0.585060
9173.000000;0.584463
9172.000000;0.584200
9171.000000;0.584197
9170.000000;0.584348
9169.000000;0.584594
9168.000000;0.584784
9167.000000;0.584744
9166.000000;0.584473
9165.000000;0.584078
9164.000000;0.583609
9163.000000;0.583141
9162.000000;0.582854
9161.000000;0.582786
9160.000000;0.582678
9159.000000;0.582326
9158.000000;0.581912
9157.000000;0.581709
9156.000000;0.581658
9155.000000;0.581561
9154.000000;0.581465
9153.000000;0.581494
9152.000000;0.581493
9151.000000;0.581220
9150.000000;0.580763
9149.000000;0.580415
9148.000000;0.580234
9147.000000;0.580080
9146.000000;0.579920
9145.000000;0.579766
9144.000000;0.579441
9143.000000;0.578799
9142.000000;0.578075
9141.000000;0.577664
9140.000000;0.577609
9139.000000;0.577622
9138.000000;0.577514
9137.000000;0.577301
9136.000000;0.576997
9135.000000;0.576616
9134.000000;0.576288
9133.000000;0.576096
9132.000000;0.575900
9131.000000;0.575593
9130.000000;0.575378
9129.000000;0.575504
9128.000000;0.575830
9127.000000;0.575963
9126.000000;0.575723
9125.000000;0.575201
9124.000000;0.574522
9123.000000;0.573833
9122.000000;0.573388
9121.000000;0.573306
9120.000000;0.573343
9119.000000;0.573185
9118.000000;0.572868
9117.000000;0.572658
9116.000000;0.572629
9115.000000;0.572634
9114.000000;0.572567
9113.000000;0.572390
9112.000000;0.572042
9111.000000;0.571571
9110.000000;0.571221
9109.000000;0.571135
9108.000000;0.571112
9107.000000;0.570899
9106.000000;0.570560
9105.000000;0.570302
9104.000000;0.570122
9103.000000;0.569899
9102.000000;0.569652
9101.000000;0.569463
9100.000000;0.569295
9099.000000;0.569148
9098.000000;0.569171
9097.000000;0.569357
9096.000000;0.569358
9095.000000;0.568911
9094.000000;0.568271
9093.000000;0.567881
9092.000000;0.567819
9091.000000;0.567849
9090.000000;0.567845
9089.000000;0.567835
9088.000000;0.567774
9087.000000;0.567598
9086.000000;0.567373
9085.000000;0.567152
9084.000000;0.566817
9083.000000;0.566320
9082.000000;0.565858
9081.000000;0.565559
9080.000000;0.565209
9079.000000;0.564593
9078.000000;0.563894
9077.000000;0.563449
9076.000000;0.563299
9075.000000;0.563287
9074.000000;0.563370
9073.000000;0.563523
9072.000000;0.563528
9071.000000;0.563200
9070.000000;0.562693
9069.000000;0.562278
9068.000000;0.561986
9067.000000;0.561732
9066.000000;0.561583
9065.000000;0.561606
9064.000000;0.561646
9063.000000;0.561558
9062.000000;0.561461
9061.000000;0.561468
9060.000000;0.561387
9059.000000;0.561009
9058.000000;0.560497
9057.000000;0.560166
9056.000000;0.560050
9055.000000;0.559990
9054.000000;0.559942
9053.000000;0.559881
