Criado como novo conjunto de dados;"e2410_daniel_v2.spp","104227.2 Secs"
cm-1;Abs
10000.000000;0.141857
9999.000000;0.142402
9998.000000;0.142967
9997.000000;0.143492
9996.000000;0.144245
9995.000000;0.145390
9994.000000;0.146614
9993.000000;0.147547
9992.000000;0.148032
9991.000000;0.148251
9990.000000;0.148491
9989.000000;0.148907
9988.000000;0.149483
9987.000000;0.150151
9986.000000;0.150877
9985.000000;0.151645
9984.000000;0.152430
9983.000000;0.153177
9982.000000;0.153811
9981.000000;0.154295
9980.000000;0.154682
9979.000000;0.155086
9978.000000;0.155599
9977.000000;0.156263
9976.000000;0.157112
9975.000000;0.158138
9974.000000;0.159188
9973.000000;0.160013
9972.000000;0.160509
9971.000000;0.160864
9970.000000;0.161381
9969.000000;0.162179
9968.000000;0.163136
9967.000000;0.164047
9966.000000;0.164765
9965.000000;0.165253
9964.000000;0.165612
9963.000000;0.166052
9962.000000;0.166700
9961.000000;0.167443
9960.000000;0.168071
9959.000000;0.168542
9958.000000;0.169012
9957.000000;0.169614
9956.000000;0.170309
9955.000000;0.170983
9954.000000;0.171568
9953.000000;0.172045
9952.000000;0.172461
9951.000000;0.172980
9950.000000;0.173797
9949.000000;0.174922
9948.000000;0.176107
9947.000000;0.177079
9946.000000;0.177775
9945.000000;0.178336
9944.000000;0.178910
9943.000000;0.179556
9942.000000;0.180258
9941.000000;0.180958
9940.000000;0.181584
9939.000000;0.182088
9938.000000;0.182479
9937.000000;0.182834
9936.000000;0.183314
9935.000000;0.184145
9934.000000;0.185448
9933.000000;0.187037
9932.000000;0.188451
9931.000000;0.189319
9930.000000;0.189659
9929.000000;0.189779
9928.000000;0.189962
9927.000000;0.190310
9926.000000;0.190839
9925.000000;0.191568
9924.000000;0.192495
9923.000000;0.193569
9922.000000;0.194699
9921.000000;0.195772
9920.000000;0.196677
9919.000000;0.197393
9918.000000;0.198038
9917.000000;0.198762
9916.000000;0.199571
9915.000000;0.200321
9914.000000;0.200905
9913.000000;0.201377
9912.000000;0.201859
9911.000000;0.202389
9910.000000;0.202932
9909.000000;0.203487
9908.000000;0.204135
9907.000000;0.204966
9906.000000;0.205987
9905.000000;0.207093
9904.000000;0.208123
9903.000000;0.208977
9902.000000;0.209714
9901.000000;0.210513
9900.000000;0.211469
9899.000000;0.212455
9898.000000;0.213252
9897.000000;0.213822
9896.000000;0.214361
9895.000000;0.215059
9894.000000;0.215887
9893.000000;0.216681
9892.000000;0.217395
9891.000000;0.218167
9890.000000;0.219116
9889.000000;0.220149
9888.000000;0.221021
9887.000000;0.221569
9886.000000;0.221865
9885.000000;0.222134
9884.000000;0.222570
9883.000000;0.223263
9882.000000;0.224261
9881.000000;0.225614
9880.000000;0.227235
9879.000000;0.228753
9878.000000;0.229674
9877.000000;0.229826
9876.000000;0.229596
9875.000000;0.229607
9874.000000;0.230170
9873.000000;0.231100
9872.000000;0.232037
9871.000000;0.232834
9870.000000;0.233617
9869.000000;0.234564
9868.000000;0.235685
9867.000000;0.236808
9866.000000;0.237762
9865.000000;0.238554
9864.000000;0.239363
9863.000000;0.240306
9862.000000;0.241275
9861.000000;0.242089
9860.000000;0.242770
9859.000000;0.243542
9858.000000;0.244533
9857.000000;0.245604
9856.000000;0.246529
9855.000000;0.247254
9854.000000;0.247897
9853.000000;0.248569
9852.000000;0.249279
9851.000000;0.249985
9850.000000;0.250678
9849.000000;0.251425
9848.000000;0.252328
9847.000000;0.253372
9846.000000;0.254337
9845.000000;0.254990
9844.000000;0.255400
9843.000000;0.255936
9842.000000;0.256857
9841.000000;0.257990
9840.000000;0.258964
9839.000000;0.259663
9838.000000;0.260320
9837.000000;0.261180
9836.000000;0.262243
9835.000000;0.263335
9834.000000;0.264340
9833.000000;0.265271
9832.000000;0.266174
9831.000000;0.267031
9830.000000;0.267767
9829.000000;0.268355
9828.000000;0.268888
9827.000000;0.269492
9826.000000;0.270192
9825.000000;0.270939
9824.000000;0.271789
9823.000000;0.272899
9822.000000;0.274288
9821.000000;0.275684
9820.000000;0.276749
9819.000000;0.277431
9818.000000;0.277960
9817.000000;0.278560
9816.000000;0.279280
9815.000000;0.280085
9814.000000;0.280958
9813.000000;0.281879
9812.000000;0.282803
9811.000000;0.283730
9810.000000;0.284705
9809.000000;0.285708
9808.000000;0.286608
9807.000000;0.287287
9806.000000;0.287783
9805.000000;0.288273
9804.000000;0.288941
9803.000000;0.289858
9802.000000;0.290946
9801.000000;0.292026
9800.000000;0.292941
9799.000000;0.293704
9798.000000;0.294522
9797.000000;0.295637
9796.000000;0.297102
9795.000000;0.298704
9794.000000;0.300148
9793.000000;0.301311
9792.000000;0.302302
9791.000000;0.303271
9790.000000;0.304220
9789.000000;0.305059
9788.000000;0.305745
9787.000000;0.306314
9786.000000;0.306823
9785.000000;0.307372
9784.000000;0.308115
9783.000000;0.309100
9782.000000;0.310113
9781.000000;0.310883
9780.000000;0.311479
9779.000000;0.312326
9778.000000;0.313708
9777.000000;0.315387
9776.000000;0.316831
9775.000000;0.317736
9774.000000;0.318253
9773.000000;0.318768
9772.000000;0.319569
9771.000000;0.320633
9770.000000;0.321671
9769.000000;0.322420
9768.000000;0.322976
9767.000000;0.323725
9766.000000;0.324908
9765.000000;0.326343
9764.000000;0.327649
9763.000000;0.328629
9762.000000;0.329325
9761.000000;0.329865
9760.000000;0.330404
9759.000000;0.331128
9758.000000;0.332118
9757.000000;0.333241
9756.000000;0.334282
9755.000000;0.335135
9754.000000;0.335781
9753.000000;0.336214
9752.000000;0.336570
9751.000000;0.337193
9750.000000;0.338349
9749.000000;0.339857
9748.000000;0.341207
9747.000000;0.342074
9746.000000;0.342605
9745.000000;0.343174
9744.000000;0.344013
9743.000000;0.345053
9742.000000;0.346054
9741.000000;0.346878
9740.000000;0.347713
9739.000000;0.348944
9738.000000;0.350681
9737.000000;0.352513
9736.000000;0.353895
9735.000000;0.354725
9734.000000;0.355339
9733.000000;0.356028
9732.000000;0.356805
9731.000000;0.357622
9730.000000;0.358513
9729.000000;0.359481
9728.000000;0.360460
9727.000000;0.361463
9726.000000;0.362579
9725.000000;0.363746
9724.000000;0.364732
9723.000000;0.365435
9722.000000;0.366042
9721.000000;0.366807
9720.000000;0.367785
9719.000000;0.368852
9718.000000;0.369837
9717.000000;0.370570
9716.000000;0.370986
9715.000000;0.371331
9714.000000;0.372092
9713.000000;0.373535
9712.000000;0.375369
9711.000000;0.376986
9710.000000;0.378031
9709.000000;0.378659
9708.000000;0.379281
9707.000000;0.380162
9706.000000;0.381247
9705.000000;0.382300
9704.000000;0.383159
9703.000000;0.383871
9702.000000;0.384595
9701.000000;0.385432
9700.000000;0.386384
9699.000000;0.387420
9698.000000;0.388494
9697.000000;0.389547
9696.000000;0.390610
9695.000000;0.391841
9694.000000;0.393317
9693.000000;0.394836
9692.000000;0.396095
9691.000000;0.397057
9690.000000;0.397969
9689.000000;0.398997
9688.000000;0.400064
9687.000000;0.401048
9686.000000;0.401902
9685.000000;0.402547
9684.000000;0.402923
9683.000000;0.403299
9682.000000;0.404257
9681.000000;0.406087
9680.000000;0.408306
9679.000000;0.410013
9678.000000;0.410723
9677.000000;0.410736
9676.000000;0.410715
9675.000000;0.411072
9674.000000;0.411748
9673.000000;0.412458
9672.000000;0.413108
9671.000000;0.413952
9670.000000;0.415256
9669.000000;0.416833
9668.000000;0.418091
9667.000000;0.418666
9666.000000;0.418884
9665.000000;0.419435
9664.000000;0.420672
9663.000000;0.422372
9662.000000;0.424070
9661.000000;0.425440
9660.000000;0.426406
9659.000000;0.427114
9658.000000;0.427842
9657.000000;0.428801
9656.000000;0.429945
9655.000000;0.431061
9654.000000;0.432064
9653.000000;0.433105
9652.000000;0.434332
9651.000000;0.435640
9650.000000;0.436761
9649.000000;0.437600
9648.000000;0.438399
9647.000000;0.439475
9646.000000;0.440798
9645.000000;0.441921
9644.000000;0.442473
9643.000000;0.442676
9642.000000;0.443204
9641.000000;0.444405
9640.000000;0.445851
9639.000000;0.446822
9638.000000;0.447153
9637.000000;0.447369
9636.000000;0.448001
9635.000000;0.449046
9634.000000;0.450171
9633.000000;0.451213
9632.000000;0.452229
9631.000000;0.453189
9630.000000;0.453943
9629.000000;0.454522
9628.000000;0.455241
9627.000000;0.456342
9626.000000;0.457688
9625.000000;0.458931
9624.000000;0.459891
9623.000000;0.460610
9622.000000;0.461169
9621.000000;0.461691
9620.000000;0.462491
9619.000000;0.463875
9618.000000;0.465692
9617.000000;0.467307
9616.000000;0.468246
9615.000000;0.468683
9614.000000;0.469135
9613.000000;0.469824
9612.000000;0.470564
9611.000000;0.471151
9610.000000;0.471590
9609.000000;0.472000
9608.000000;0.472573
9607.000000;0.473585
9606.000000;0.475146
9605.000000;0.476864
9604.000000;0.478077
9603.000000;0.478553
9602.000000;0.478770
9601.000000;0.479337
9600.000000;0.480325
9599.000000;0.481336
9598.000000;0.482069
9597.000000;0.482614
9596.000000;0.483227
9595.000000;0.484046
9594.000000;0.485030
9593.000000;0.486073
9592.000000;0.487091
9591.000000;0.488043
9590.000000;0.488894
9589.000000;0.489602
9588.000000;0.490169
9587.000000;0.490678
9586.000000;0.491211
9585.000000;0.491805
9584.000000;0.492533
9583.000000;0.493524
9582.000000;0.494712
9581.000000;0.495679
9580.000000;0.496008
9579.000000;0.495850
9578.000000;0.495878
9577.000000;0.496546
9576.000000;0.497604
9575.000000;0.498474
9574.000000;0.498941
9573.000000;0.499295
9572.000000;0.499908
9571.000000;0.500871
9570.000000;0.502021
9569.000000;0.503150
9568.000000;0.504167
9567.000000;0.505124
9566.000000;0.506052
9565.000000;0.506788
9564.000000;0.507096
9563.000000;0.507045
9562.000000;0.507071
9561.000000;0.507562
9560.000000;0.508494
9559.000000;0.509587
9558.000000;0.510659
9557.000000;0.511669
9556.000000;0.512533
9555.000000;0.513144
9554.000000;0.513516
9553.000000;0.513712
9552.000000;0.513723
9551.000000;0.513623
9550.000000;0.513748
9549.000000;0.514468
9548.000000;0.515765
9547.000000;0.517277
9546.000000;0.518739
9545.000000;0.520152
9544.000000;0.521451
9543.000000;0.522328
9542.000000;0.522583
9541.000000;0.522448
9540.000000;0.522368
9539.000000;0.522536
9538.000000;0.522815
9537.000000;0.523005
9536.000000;0.523040
9535.000000;0.522974
9534.000000;0.522980
9533.000000;0.523361
9532.000000;0.524377
9531.000000;0.525925
9530.000000;0.527476
9529.000000;0.528418
9528.000000;0.528545
9527.000000;0.528218
9526.000000;0.528070
9525.000000;0.528549
9524.000000;0.529664
9523.000000;0.531061
9522.000000;0.532283
9521.000000;0.532995
9520.000000;0.533116
9519.000000;0.532845
9518.000000;0.532562
9517.000000;0.532573
9516.000000;0.532848
9515.000000;0.533039
9514.000000;0.532840
9513.000000;0.532357
9512.000000;0.532073
9511.000000;0.532429
9510.000000;0.533429
9509.000000;0.534662
9508.000000;0.535658
9507.000000;0.536206
9506.000000;0.536366
9505.000000;0.536294
9504.000000;0.536147
9503.000000;0.536110
9502.000000;0.536340
9501.000000;0.536816
9500.000000;0.537330
9499.000000;0.537717
9498.000000;0.538039
9497.000000;0.538442
9496.000000;0.538865
9495.000000;0.539001
9494.000000;0.538621
9493.000000;0.537862
9492.000000;0.537154
9491.000000;0.536899
9490.000000;0.537233
9489.000000;0.538014
9488.000000;0.538939
9487.000000;0.539692
9486.000000;0.540121
9485.000000;0.540350
9484.000000;0.540660
9483.000000;0.541183
9482.000000;0.541730
9481.000000;0.542012
9480.000000;0.542010
9479.000000;0.542007
9478.000000;0.542180
9477.000000;0.542328
9476.000000;0.542144
9475.000000;0.541713
9474.000000;0.541477
9473.000000;0.541691
9472.000000;0.542104
9471.000000;0.542336
9470.000000;0.542399
9469.000000;0.542622
9468.000000;0.543083
9467.000000;0.543399
9466.000000;0.543179
9465.000000;0.542521
9464.000000;0.541897
9463.000000;0.541617
9462.000000;0.541570
9461.000000;0.541499
9460.000000;0.541400
9459.000000;0.541548
9458.000000;0.542171
9457.000000;0.543136
9456.000000;0.543948
9455.000000;0.544050
9454.000000;0.543216
9453.000000;0.541758
9452.000000;0.540377
9451.000000;0.539684
9450.000000;0.539749
9449.000000;0.540109
9448.000000;0.540291
9447.000000;0.540288
9446.000000;0.540485
9445.000000;0.541141
9444.000000;0.542089
9443.000000;0.542921
9442.000000;0.543317
9441.000000;0.543118
9440.000000;0.542300
9439.000000;0.541074
9438.000000;0.539919
9437.000000;0.539273
9436.000000;0.539155
9435.000000;0.539267
9434.000000;0.539460
9433.000000;0.539854
9432.000000;0.540424
9431.000000;0.540720
9430.000000;0.540253
9429.000000;0.539109
9428.000000;0.537926
9427.000000;0.537276
9426.000000;0.537213
9425.000000;0.537437
9424.000000;0.537667
9423.000000;0.537759
9422.000000;0.537591
9421.000000;0.537060
9420.000000;0.536209
9419.000000;0.535278
9418.000000;0.534538
9417.000000;0.534077
9416.000000;0.533743
9415.000000;0.533302
9414.000000;0.532647
9413.000000;0.531895
9412.000000;0.531303
9411.000000;0.531091
9410.000000;0.531331
9409.000000;0.531871
9408.000000;0.532303
9407.000000;0.532109
9406.000000;0.531077
9405.000000;0.529577
9404.000000;0.528290
9403.000000;0.527591
9402.000000;0.527307
9401.000000;0.527084
9400.000000;0.526790
9399.000000;0.526454
9398.000000;0.526032
9397.000000;0.525494
9396.000000;0.525024
9395.000000;0.524824
9394.000000;0.524720
9393.000000;0.524254
9392.000000;0.523292
9391.000000;0.522292
9390.000000;0.521814
9389.000000;0.521914
9388.000000;0.522208
9387.000000;0.522392
9386.000000;0.522494
9385.000000;0.522626
9384.000000;0.522687
9383.000000;0.522373
9382.000000;0.521448
9381.000000;0.519992
9380.000000;0.518400
9379.000000;0.517059
9378.000000;0.516014
9377.000000;0.515059
9376.000000;0.514207
9375.000000;0.513840
9374.000000;0.514191
9373.000000;0.514839
9372.000000;0.515040
9371.000000;0.514544
9370.000000;0.513770
9369.000000;0.513133
9368.000000;0.512548
9367.000000;0.511746
9366.000000;0.510746
9365.000000;0.509796
9364.000000;0.509021
9363.000000;0.508390
9362.000000;0.507887
9361.000000;0.507469
9360.000000;0.506969
9359.000000;0.506286
9358.000000;0.505602
9357.000000;0.505144
9356.000000;0.504764
9355.000000;0.504069
9354.000000;0.503014
9353.000000;0.502076
9352.000000;0.501701
9351.000000;0.501763
9350.000000;0.501705
9349.000000;0.501106
9348.000000;0.500002
9347.000000;0.498768
9346.000000;0.497819
9345.000000;0.497327
9344.000000;0.497108
9343.000000;0.496834
9342.000000;0.496413
9341.000000;0.496041
9340.000000;0.495794
9339.000000;0.495347
9338.000000;0.494315
9337.000000;0.492824
9336.000000;0.491495
9335.000000;0.490790
9334.000000;0.490561
9333.000000;0.490284
9332.000000;0.489608
9331.000000;0.488572
9330.000000;0.487396
9329.000000;0.486230
9328.000000;0.485133
9327.000000;0.484192
9326.000000;0.483532
9325.000000;0.483190
9324.000000;0.483030
9323.000000;0.482846
9322.000000;0.482557
9321.000000;0.482218
9320.000000;0.481807
9319.000000;0.481092
9318.000000;0.479856
9317.000000;0.478235
9316.000000;0.476729
9315.000000;0.475816
9314.000000;0.475595
9313.000000;0.475800
9312.000000;0.476051
9311.000000;0.476064
9310.000000;0.475721
9309.000000;0.475066
9308.000000;0.474205
9307.000000;0.473165
9306.000000;0.471864
9305.000000;0.470286
9304.000000;0.468677
9303.000000;0.467474
9302.000000;0.466962
9301.000000;0.466996
9300.000000;0.467089
9299.000000;0.466780
9298.000000;0.465937
9297.000000;0.464777
9296.000000;0.463644
9295.000000;0.462799
9294.000000;0.462320
9293.000000;0.462133
9292.000000;0.462071
9291.000000;0.461938
9290.000000;0.461530
9289.000000;0.460663
9288.000000;0.459242
9287.000000;0.457403
9286.000000;0.455563
9285.000000;0.454225
9284.000000;0.453610
9283.000000;0.453473
9282.000000;0.453340
9281.000000;0.452933
9280.000000;0.452349
9279.000000;0.451830
9278.000000;0.451444
9277.000000;0.451057
9276.000000;0.450547
9275.000000;0.449951
9274.000000;0.449385
9273.000000;0.448895
9272.000000;0.448421
9271.000000;0.447883
9270.000000;0.447235
9269.000000;0.446434
9268.000000;0.445421
9267.000000;0.444222
9266.000000;0.443063
9265.000000;0.442290
9264.000000;0.442116
9263.000000;0.442392
9262.000000;0.442632
9261.000000;0.442315
9260.000000;0.441271
9259.000000;0.439818
9258.000000;0.438501
9257.000000;0.437602
9256.000000;0.436949
9255.000000;0.436235
9254.000000;0.435442
9253.000000;0.434777
9252.000000;0.434238
9251.000000;0.433486
9250.000000;0.432280
9249.000000;0.430870
9248.000000;0.429788
9247.000000;0.429325
9246.000000;0.429308
9245.000000;0.429284
9244.000000;0.428822
9243.000000;0.427778
9242.000000;0.426470
9241.000000;0.425512
9240.000000;0.425231
9239.000000;0.425270
9238.000000;0.424971
9237.000000;0.424148
9236.000000;0.423211
9235.000000;0.422515
9234.000000;0.421938
9233.000000;0.421246
9232.000000;0.420544
9231.000000;0.420081
9230.000000;0.419801
9229.000000;0.419395
9228.000000;0.418719
9227.000000;0.417886
9226.000000;0.416958
9225.000000;0.415840
9224.000000;0.414565
9223.000000;0.413423
9222.000000;0.412663
9221.000000;0.412175
9220.000000;0.411598
9219.000000;0.410695
9218.000000;0.409538
9217.000000;0.408367
9216.000000;0.407356
9215.000000;0.406556
9214.000000;0.405993
9213.000000;0.405702
9212.000000;0.405645
9211.000000;0.405607
9210.000000;0.405307
9209.000000;0.404625
9208.000000;0.403693
9207.000000;0.402713
9206.000000;0.401773
9205.000000;0.400884
9204.000000;0.400091
9203.000000;0.399469
9202.000000;0.399052
9201.000000;0.398846
9200.000000;0.398795
9199.000000;0.398667
9198.000000;0.398076
9197.000000;0.396853
9196.000000;0.395355
9195.000000;0.394203
9194.000000;0.393690
9193.000000;0.393550
9192.000000;0.393326
9191.000000;0.392802
9190.000000;0.392022
9189.000000;0.391081
9188.000000;0.390065
9187.000000;0.389105
9186.000000;0.388309
9185.000000;0.387644
9184.000000;0.386972
9183.000000;0.386220
9182.000000;0.385463
9181.000000;0.384813
9180.000000;0.384293
9179.000000;0.383818
9178.000000;0.383287
9177.000000;0.382672
9176.000000;0.382028
9175.000000;0.381411
9174.000000;0.380799
9173.000000;0.380141
9172.000000;0.379440
9171.000000;0.378760
9170.000000;0.378133
9169.000000;0.377542
9168.000000;0.376979
9167.000000;0.376448
9166.000000;0.375867
9165.000000;0.375126
9164.000000;0.374304
9163.000000;0.373706
9162.000000;0.373512
9161.000000;0.373444
9160.000000;0.372957
9159.000000;0.371819
9158.000000;0.370367
9157.000000;0.369149
9156.000000;0.368406
9155.000000;0.367957
9154.000000;0.367464
9153.000000;0.366730
9152.000000;0.365833
9151.000000;0.365092
9150.000000;0.364850
9149.000000;0.365156
9148.000000;0.365603
9147.000000;0.365611
9146.000000;0.364928
9145.000000;0.363806
9144.000000;0.362682
9143.000000;0.361781
9142.000000;0.361057
9141.000000;0.360397
9140.000000;0.359738
9139.000000;0.359012
9138.000000;0.358137
9137.000000;0.357128
9136.000000;0.356179
9135.000000;0.355560
9134.000000;0.355383
9133.000000;0.355442
9132.000000;0.355320
9131.000000;0.354726
9130.000000;0.353778
9129.000000;0.352883
9128.000000;0.352300
9127.000000;0.351903
9126.000000;0.351421
9125.000000;0.350775
9124.000000;0.350067
9123.000000;0.349364
9122.000000;0.348704
9121.000000;0.348250
9120.000000;0.348166
9119.000000;0.348273
9118.000000;0.348062
9117.000000;0.347197
9116.000000;0.345863
9115.000000;0.344503
9114.000000;0.343376
9113.000000;0.342506
9112.000000;0.341912
9111.000000;0.341642
9110.000000;0.341614
9109.000000;0.341599
9108.000000;0.341385
9107.000000;0.340876
9106.000000;0.340099
9105.000000;0.339212
9104.000000;0.338453
9103.000000;0.337946
9102.000000;0.337574
9101.000000;0.337154
9100.000000;0.336685
9099.000000;0.336262
9098.000000;0.335838
9097.000000;0.335257
9096.000000;0.334560
9095.000000;0.334018
9094.000000;0.333792
9093.000000;0.333673
9092.000000;0.333257
9091.000000;0.332343
9090.000000;0.331123
9089.000000;0.330042
9088.000000;0.329422
9087.000000;0.329152
9086.000000;0.328767
9085.000000;0.327948
9084.000000;0.326934
9083.000000;0.326270
9082.000000;0.326162
9081.000000;0.326268
9080.000000;0.326096
9079.000000;0.325430
9078.000000;0.324349
9077.000000;0.323090
9076.000000;0.322016
9075.000000;0.321455
9074.000000;0.321371
9073.000000;0.321341
9072.000000;0.321032
9071.000000;0.320563
9070.000000;0.320223
9069.000000;0.319989
9068.000000;0.319587
9067.000000;0.318924
9066.000000;0.318199
9065.000000;0.317570
9064.000000;0.316983
9063.000000;0.316369
9062.000000;0.315778
9061.000000;0.315250
9060.000000;0.314720
9059.000000;0.314181
9058.000000;0.313771
9057.000000;0.313585
9056.000000;0.313503
9055.000000;0.313331
9054.000000;0.313040
9053.000000;0.312735
