Criado como novo conjunto de dados;"e2410_daniel_v2.spp","43204.2 Secs"
cm-1;Abs
10000.000000;0.569950
9999.000000;0.569726
9998.000000;0.569581
9997.000000;0.569327
9996.000000;0.568884
9995.000000;0.568242
9994.000000;0.567454
9993.000000;0.566720
9992.000000;0.566292
9991.000000;0.566199
9990.000000;0.566204
9989.000000;0.566068
9988.000000;0.565718
9987.000000;0.565142
9986.000000;0.564332
9985.000000;0.563409
9984.000000;0.562604
9983.000000;0.562044
9982.000000;0.561679
9981.000000;0.561431
9980.000000;0.561207
9979.000000;0.560805
9978.000000;0.560061
9977.000000;0.559142
9976.000000;0.558419
9975.000000;0.558032
9974.000000;0.557816
9973.000000;0.557620
9972.000000;0.557375
9971.000000;0.556857
9970.000000;0.555836
9969.000000;0.554579
9968.000000;0.553770
9967.000000;0.553697
9966.000000;0.553875
9965.000000;0.553660
9964.000000;0.552951
9963.000000;0.552076
9962.000000;0.551303
9961.000000;0.550725
9960.000000;0.550336
9959.000000;0.549974
9958.000000;0.549419
9957.000000;0.548749
9956.000000;0.548349
9955.000000;0.548336
9954.000000;0.548253
9953.000000;0.547588
9952.000000;0.546383
9951.000000;0.545105
9950.000000;0.544131
9949.000000;0.543601
9948.000000;0.543519
9947.000000;0.543720
9946.000000;0.543882
9945.000000;0.543805
9944.000000;0.543553
9943.000000;0.543168
9942.000000;0.542500
9941.000000;0.541502
9940.000000;0.540443
9939.000000;0.539564
9938.000000;0.538788
9937.000000;0.538023
9936.000000;0.537486
9935.000000;0.537380
9934.000000;0.537462
9933.000000;0.537280
9932.000000;0.536740
9931.000000;0.536135
9930.000000;0.535682
9929.000000;0.535332
9928.000000;0.534967
9927.000000;0.534514
9926.000000;0.533904
9925.000000;0.533144
9924.000000;0.532394
9923.000000;0.531796
9922.000000;0.531284
9921.000000;0.530727
9920.000000;0.530138
9919.000000;0.529595
9918.000000;0.529060
9917.000000;0.528472
9916.000000;0.527908
9915.000000;0.527441
9914.000000;0.526956
9913.000000;0.526325
9912.000000;0.525662
9911.000000;0.525208
9910.000000;0.524991
9909.000000;0.524801
9908.000000;0.524451
9907.000000;0.523926
9906.000000;0.523349
9905.000000;0.522907
9904.000000;0.522740
9903.000000;0.522729
9902.000000;0.522506
9901.000000;0.521808
9900.000000;0.520785
9899.000000;0.519843
9898.000000;0.519254
9897.000000;0.519009
9896.000000;0.518916
9895.000000;0.518706
9894.000000;0.518183
9893.000000;0.517395
9892.000000;0.516604
9891.000000;0.516010
9890.000000;0.515608
9889.000000;0.515333
9888.000000;0.515154
9887.000000;0.514935
9886.000000;0.514453
9885.000000;0.513706
9884.000000;0.513018
9883.000000;0.512623
9882.000000;0.512315
9881.000000;0.511706
9880.000000;0.510726
9879.000000;0.509658
9878.000000;0.508778
9877.000000;0.508144
9876.000000;0.507678
9875.000000;0.507287
9874.000000;0.506939
9873.000000;0.506702
9872.000000;0.506631
9871.000000;0.506593
9870.000000;0.506330
9869.000000;0.505787
9868.000000;0.505180
9867.000000;0.504645
9866.000000;0.504040
9865.000000;0.503233
9864.000000;0.502386
9863.000000;0.501732
9862.000000;0.501239
9861.000000;0.500707
9860.000000;0.500097
9859.000000;0.499565
9858.000000;0.499230
9857.000000;0.499050
9856.000000;0.498888
9855.000000;0.498575
9854.000000;0.497994
9853.000000;0.497212
9852.000000;0.496465
9851.000000;0.495912
9850.000000;0.495517
9849.000000;0.495193
9848.000000;0.494923
9847.000000;0.494651
9846.000000;0.494242
9845.000000;0.493685
9844.000000;0.493170
9843.000000;0.492816
9842.000000;0.492488
9841.000000;0.492015
9840.000000;0.491447
9839.000000;0.490918
9838.000000;0.490411
9837.000000;0.489854
9836.000000;0.489332
9835.000000;0.488998
9834.000000;0.488838
9833.000000;0.488647
9832.000000;0.488217
9831.000000;0.487481
9830.000000;0.486583
9829.000000;0.485872
9828.000000;0.485633
9827.000000;0.485717
9826.000000;0.485583
9825.000000;0.484887
9824.000000;0.483863
9823.000000;0.482978
9822.000000;0.482388
9821.000000;0.481934
9820.000000;0.481512
9819.000000;0.481162
9818.000000;0.480850
9817.000000;0.480428
9816.000000;0.479819
9815.000000;0.479098
9814.000000;0.478380
9813.000000;0.477751
9812.000000;0.477295
9811.000000;0.477041
9810.000000;0.476892
9809.000000;0.476690
9808.000000;0.476360
9807.000000;0.475931
9806.000000;0.475465
9805.000000;0.474992
9804.000000;0.474501
9803.000000;0.473951
9802.000000;0.473369
9801.000000;0.472893
9800.000000;0.472606
9799.000000;0.472341
9798.000000;0.471819
9797.000000;0.471020
9796.000000;0.470250
9795.000000;0.469778
9794.000000;0.469598
9793.000000;0.469567
9792.000000;0.469574
9791.000000;0.469455
9790.000000;0.468953
9789.000000;0.467980
9788.000000;0.466807
9787.000000;0.465848
9786.000000;0.465314
9785.000000;0.465125
9784.000000;0.465007
9783.000000;0.464617
9782.000000;0.463780
9781.000000;0.462729
9780.000000;0.461974
9779.000000;0.461781
9778.000000;0.461891
9777.000000;0.461853
9776.000000;0.461491
9775.000000;0.460950
9774.000000;0.460426
9773.000000;0.460001
9772.000000;0.459622
9771.000000;0.459103
9770.000000;0.458268
9769.000000;0.457235
9768.000000;0.456439
9767.000000;0.456233
9766.000000;0.456524
9765.000000;0.456898
9764.000000;0.456971
9763.000000;0.456532
9762.000000;0.455551
9761.000000;0.454259
9760.000000;0.453113
9759.000000;0.452475
9758.000000;0.452301
9757.000000;0.452249
9756.000000;0.452026
9755.000000;0.451530
9754.000000;0.450779
9753.000000;0.449883
9752.000000;0.449077
9751.000000;0.448603
9750.000000;0.448472
9749.000000;0.448412
9748.000000;0.448107
9747.000000;0.447506
9746.000000;0.446899
9745.000000;0.446635
9744.000000;0.446712
9743.000000;0.446721
9742.000000;0.446277
9741.000000;0.445479
9740.000000;0.444765
9739.000000;0.444377
9738.000000;0.444142
9737.000000;0.443771
9736.000000;0.443161
9735.000000;0.442390
9734.000000;0.441612
9733.000000;0.441000
9732.000000;0.440613
9731.000000;0.440254
9730.000000;0.439677
9729.000000;0.438963
9728.000000;0.438486
9727.000000;0.438430
9726.000000;0.438552
9725.000000;0.438536
9724.000000;0.438304
9723.000000;0.437872
9722.000000;0.437154
9721.000000;0.436142
9720.000000;0.435120
9719.000000;0.434444
9718.000000;0.434163
9717.000000;0.434019
9716.000000;0.433731
9715.000000;0.433191
9714.000000;0.432488
9713.000000;0.431869
9712.000000;0.431578
9711.000000;0.431580
9710.000000;0.431522
9709.000000;0.431080
9708.000000;0.430307
9707.000000;0.429562
9706.000000;0.429160
9705.000000;0.429122
9704.000000;0.429168
9703.000000;0.428915
9702.000000;0.428218
9701.000000;0.427390
9700.000000;0.426947
9699.000000;0.427069
9698.000000;0.427408
9697.000000;0.427454
9696.000000;0.426977
9695.000000;0.426076
9694.000000;0.425011
9693.000000;0.424066
9692.000000;0.423397
9691.000000;0.422883
9690.000000;0.422244
9689.000000;0.421398
9688.000000;0.420578
9687.000000;0.420025
9686.000000;0.419698
9685.000000;0.419388
9684.000000;0.418977
9683.000000;0.418498
9682.000000;0.418075
9681.000000;0.417857
9680.000000;0.417865
9679.000000;0.417846
9678.000000;0.417443
9677.000000;0.416611
9676.000000;0.415684
9675.000000;0.414985
9674.000000;0.414537
9673.000000;0.414232
9672.000000;0.414040
9671.000000;0.413922
9670.000000;0.413724
9669.000000;0.413346
9668.000000;0.412889
9667.000000;0.412462
9666.000000;0.412001
9665.000000;0.411403
9664.000000;0.410729
9663.000000;0.410137
9662.000000;0.409712
9661.000000;0.409481
9660.000000;0.409440
9659.000000;0.409449
9658.000000;0.409245
9657.000000;0.408705
9656.000000;0.407977
9655.000000;0.407251
9654.000000;0.406533
9653.000000;0.405791
9652.000000;0.405133
9651.000000;0.404669
9650.000000;0.404299
9649.000000;0.403852
9648.000000;0.403334
9647.000000;0.402884
9646.000000;0.402544
9645.000000;0.402232
9644.000000;0.401873
9643.000000;0.401440
9642.000000;0.400930
9641.000000;0.400429
9640.000000;0.400083
9639.000000;0.399900
9638.000000;0.399675
9637.000000;0.399261
9636.000000;0.398807
9635.000000;0.398555
9634.000000;0.398473
9633.000000;0.398285
9632.000000;0.397832
9631.000000;0.397221
9630.000000;0.396610
9629.000000;0.396008
9628.000000;0.395348
9627.000000;0.394630
9626.000000;0.393954
9625.000000;0.393448
9624.000000;0.393195
9623.000000;0.393183
9622.000000;0.393268
9621.000000;0.393208
9620.000000;0.392764
9619.000000;0.391880
9618.000000;0.390786
9617.000000;0.389874
9616.000000;0.389367
9615.000000;0.389123
9614.000000;0.388834
9613.000000;0.388376
9612.000000;0.387871
9611.000000;0.387460
9610.000000;0.387176
9609.000000;0.386990
9608.000000;0.386843
9607.000000;0.386601
9606.000000;0.386165
9605.000000;0.385637
9604.000000;0.385237
9603.000000;0.385018
9602.000000;0.384802
9601.000000;0.384437
9600.000000;0.383964
9599.000000;0.383501
9598.000000;0.383120
9597.000000;0.382878
9596.000000;0.382780
9595.000000;0.382654
9594.000000;0.382232
9593.000000;0.381454
9592.000000;0.380564
9591.000000;0.379844
9590.000000;0.379391
9589.000000;0.379177
9588.000000;0.379144
9587.000000;0.379148
9586.000000;0.378992
9585.000000;0.378615
9584.000000;0.378144
9583.000000;0.377684
9582.000000;0.377183
9581.000000;0.376581
9580.000000;0.375936
9579.000000;0.375312
9578.000000;0.374691
9577.000000;0.374081
9576.000000;0.373588
9575.000000;0.373277
9574.000000;0.373061
9573.000000;0.372814
9572.000000;0.372501
9571.000000;0.372147
9570.000000;0.371782
9569.000000;0.371478
9568.000000;0.371311
9567.000000;0.371217
9566.000000;0.370984
9565.000000;0.370469
9564.000000;0.369747
9563.000000;0.368993
9562.000000;0.368344
9561.000000;0.367897
9560.000000;0.367698
9559.000000;0.367643
9558.000000;0.367510
9557.000000;0.367145
9556.000000;0.366555
9555.000000;0.365828
9554.000000;0.365088
9553.000000;0.364522
9552.000000;0.364254
9551.000000;0.364155
9550.000000;0.363915
9549.000000;0.363374
9548.000000;0.362655
9547.000000;0.361963
9546.000000;0.361427
9545.000000;0.361138
9544.000000;0.361136
9543.000000;0.361256
9542.000000;0.361190
9541.000000;0.360778
9540.000000;0.360122
9539.000000;0.359382
9538.000000;0.358644
9537.000000;0.358033
9536.000000;0.357723
9535.000000;0.357711
9534.000000;0.357747
9533.000000;0.357589
9532.000000;0.357205
9531.000000;0.356668
9530.000000;0.356047
9529.000000;0.355458
9528.000000;0.355026
9527.000000;0.354685
9526.000000;0.354201
9525.000000;0.353492
9524.000000;0.352793
9523.000000;0.352383
9522.000000;0.352302
9521.000000;0.352387
9520.000000;0.352430
9519.000000;0.352235
9518.000000;0.351727
9517.000000;0.351093
9516.000000;0.350642
9515.000000;0.350416
9514.000000;0.350129
9513.000000;0.349590
9512.000000;0.348983
9511.000000;0.348574
9510.000000;0.348359
9509.000000;0.348171
9508.000000;0.347961
9507.000000;0.347752
9506.000000;0.347433
9505.000000;0.346847
9504.000000;0.346034
9503.000000;0.345238
9502.000000;0.344669
9501.000000;0.344351
9500.000000;0.344164
9499.000000;0.343971
9498.000000;0.343734
9497.000000;0.343533
9496.000000;0.343424
9495.000000;0.343289
9494.000000;0.342951
9493.000000;0.342413
9492.000000;0.341850
9491.000000;0.341338
9490.000000;0.340811
9489.000000;0.340284
9488.000000;0.339917
9487.000000;0.339760
9486.000000;0.339636
9485.000000;0.339346
9484.000000;0.338841
9483.000000;0.338128
9482.000000;0.337244
9481.000000;0.336401
9480.000000;0.335924
9479.000000;0.335898
9478.000000;0.336055
9477.000000;0.336118
9476.000000;0.336076
9475.000000;0.335977
9474.000000;0.335680
9473.000000;0.335050
9472.000000;0.334241
9471.000000;0.333569
9470.000000;0.333173
9469.000000;0.332954
9468.000000;0.332747
9467.000000;0.332429
9466.000000;0.331941
9465.000000;0.331355
9464.000000;0.330843
9463.000000;0.330500
9462.000000;0.330255
9461.000000;0.330031
9460.000000;0.329843
9459.000000;0.329678
9458.000000;0.329422
9457.000000;0.329035
9456.000000;0.328656
9455.000000;0.328395
9454.000000;0.328159
9453.000000;0.327812
9452.000000;0.327363
9451.000000;0.326898
9450.000000;0.326419
9449.000000;0.325908
9448.000000;0.325432
9447.000000;0.325050
9446.000000;0.324713
9445.000000;0.324360
9444.000000;0.324009
9443.000000;0.323657
9442.000000;0.323208
9441.000000;0.322628
9440.000000;0.322077
9439.000000;0.321755
9438.000000;0.321696
9437.000000;0.321790
9436.000000;0.321887
9435.000000;0.321796
9434.000000;0.321340
9433.000000;0.320572
9432.000000;0.319846
9431.000000;0.319523
9430.000000;0.319620
9429.000000;0.319838
9428.000000;0.319839
9427.000000;0.319431
9426.000000;0.318623
9425.000000;0.317628
9424.000000;0.316772
9423.000000;0.316283
9422.000000;0.316151
9421.000000;0.316192
9420.000000;0.316167
9419.000000;0.315853
9418.000000;0.315173
9417.000000;0.314309
9416.000000;0.313563
9415.000000;0.313055
9414.000000;0.312690
9413.000000;0.312432
9412.000000;0.312392
9411.000000;0.312551
9410.000000;0.312629
9409.000000;0.312373
9408.000000;0.311853
9407.000000;0.311329
9406.000000;0.310954
9405.000000;0.310717
9404.000000;0.310548
9403.000000;0.310340
9402.000000;0.310005
9401.000000;0.309616
9400.000000;0.309366
9399.000000;0.309262
9398.000000;0.309017
9397.000000;0.308395
9396.000000;0.307527
9395.000000;0.306741
9394.000000;0.306216
9393.000000;0.305934
9392.000000;0.305819
9391.000000;0.305740
9390.000000;0.305492
9389.000000;0.304994
9388.000000;0.304440
9387.000000;0.304096
9386.000000;0.304000
9385.000000;0.303982
9384.000000;0.303906
9383.000000;0.303746
9382.000000;0.303504
9381.000000;0.303201
9380.000000;0.302899
9379.000000;0.302591
9378.000000;0.302144
9377.000000;0.301488
9376.000000;0.300806
9375.000000;0.300361
9374.000000;0.300173
9373.000000;0.299996
9372.000000;0.299628
9371.000000;0.299110
9370.000000;0.298644
9369.000000;0.298390
9368.000000;0.298334
9367.000000;0.298282
9366.000000;0.298005
9365.000000;0.297467
9364.000000;0.296874
9363.000000;0.296456
9362.000000;0.296232
9361.000000;0.296036
9360.000000;0.295717
9359.000000;0.295255
9358.000000;0.294742
9357.000000;0.294301
9356.000000;0.293994
9355.000000;0.293761
9354.000000;0.293518
9353.000000;0.293296
9352.000000;0.293208
9351.000000;0.293234
9350.000000;0.293189
9349.000000;0.292950
9348.000000;0.292593
9347.000000;0.292249
9346.000000;0.291931
9345.000000;0.291582
9344.000000;0.291191
9343.000000;0.290751
9342.000000;0.290229
9341.000000;0.289661
9340.000000;0.289192
9339.000000;0.288922
9338.000000;0.288773
9337.000000;0.288586
9336.000000;0.288279
9335.000000;0.287864
9334.000000;0.287396
9333.000000;0.286979
9332.000000;0.286721
9331.000000;0.286618
9330.000000;0.286535
9329.000000;0.286358
9328.000000;0.286068
9327.000000;0.285667
9326.000000;0.285157
9325.000000;0.284644
9324.000000;0.284306
9323.000000;0.284173
9322.000000;0.284067
9321.000000;0.283865
9320.000000;0.283662
9319.000000;0.283568
9318.000000;0.283490
9317.000000;0.283247
9316.000000;0.282820
9315.000000;0.282330
9314.000000;0.281863
9313.000000;0.281450
9312.000000;0.281170
9311.000000;0.281097
9310.000000;0.281173
9309.000000;0.281208
9308.000000;0.281010
9307.000000;0.280497
9306.000000;0.279738
9305.000000;0.278961
9304.000000;0.278411
9303.000000;0.278144
9302.000000;0.277983
9301.000000;0.277751
9300.000000;0.277454
9299.000000;0.277195
9298.000000;0.277009
9297.000000;0.276859
9296.000000;0.276698
9295.000000;0.276478
9294.000000;0.276171
9293.000000;0.275858
9292.000000;0.275688
9291.000000;0.275663
9290.000000;0.275558
9289.000000;0.275163
9288.000000;0.274513
9287.000000;0.273825
9286.000000;0.273284
9285.000000;0.272966
9284.000000;0.272858
9283.000000;0.272816
9282.000000;0.272583
9281.000000;0.272007
9280.000000;0.271245
9279.000000;0.270653
9278.000000;0.270464
9277.000000;0.270615
9276.000000;0.270831
9275.000000;0.270829
9274.000000;0.270490
9273.000000;0.269919
9272.000000;0.269348
9271.000000;0.268954
9270.000000;0.268762
9269.000000;0.268694
9268.000000;0.268629
9267.000000;0.268435
9266.000000;0.268058
9265.000000;0.267600
9264.000000;0.267250
9263.000000;0.267103
9262.000000;0.267102
9261.000000;0.267134
9260.000000;0.267095
9259.000000;0.266882
9258.000000;0.266446
9257.000000;0.265878
9256.000000;0.265325
9255.000000;0.264810
9254.000000;0.264275
9253.000000;0.263775
9252.000000;0.263481
9251.000000;0.263440
9250.000000;0.263474
9249.000000;0.263382
9248.000000;0.263119
9247.000000;0.262742
9246.000000;0.262309
9245.000000;0.261893
9244.000000;0.261559
9243.000000;0.261272
9242.000000;0.260960
9241.000000;0.260667
9240.000000;0.260507
9239.000000;0.260442
9238.000000;0.260293
9237.000000;0.260042
9236.000000;0.259906
9235.000000;0.259989
9234.000000;0.260030
9233.000000;0.259673
9232.000000;0.258889
9231.000000;0.258010
9230.000000;0.257400
9229.000000;0.257197
9228.000000;0.257266
9227.000000;0.257290
9226.000000;0.257003
9225.000000;0.256436
9224.000000;0.255893
9223.000000;0.255622
9222.000000;0.255597
9221.000000;0.255636
9220.000000;0.255606
9219.000000;0.255460
9218.000000;0.255205
9217.000000;0.254945
9216.000000;0.254819
9215.000000;0.254811
9214.000000;0.254726
9213.000000;0.254427
9212.000000;0.254009
9211.000000;0.253639
9210.000000;0.253347
9209.000000;0.253063
9208.000000;0.252743
9207.000000;0.252361
9206.000000;0.251885
9205.000000;0.251380
9204.000000;0.251026
9203.000000;0.250914
9202.000000;0.250899
9201.000000;0.250759
9200.000000;0.250439
9199.000000;0.250053
9198.000000;0.249726
9197.000000;0.249518
9196.000000;0.249407
9195.000000;0.249288
9194.000000;0.249047
9193.000000;0.248719
9192.000000;0.248467
9191.000000;0.248329
9190.000000;0.248110
9189.000000;0.247646
9188.000000;0.247055
9187.000000;0.246595
9186.000000;0.246360
9185.000000;0.246249
9184.000000;0.246153
9183.000000;0.246046
9182.000000;0.245924
9181.000000;0.245781
9180.000000;0.245632
9179.000000;0.245478
9178.000000;0.245270
9177.000000;0.244976
9176.000000;0.244660
9175.000000;0.244426
9174.000000;0.244303
9173.000000;0.244228
9172.000000;0.244111
9171.000000;0.243878
9170.000000;0.243511
9169.000000;0.243087
9168.000000;0.242734
9167.000000;0.242490
9166.000000;0.242277
9165.000000;0.242024
9164.000000;0.241744
9163.000000;0.241463
9162.000000;0.241181
9161.000000;0.240943
9160.000000;0.240853
9159.000000;0.240934
9158.000000;0.241062
9157.000000;0.241076
9156.000000;0.240902
9155.000000;0.240514
9154.000000;0.239905
9153.000000;0.239162
9152.000000;0.238505
9151.000000;0.238130
9150.000000;0.238058
9149.000000;0.238166
9148.000000;0.238305
9147.000000;0.238334
9146.000000;0.238137
9145.000000;0.237698
9144.000000;0.237133
9143.000000;0.236612
9142.000000;0.236258
9141.000000;0.236104
9140.000000;0.236069
9139.000000;0.235978
9138.000000;0.235708
9137.000000;0.235350
9136.000000;0.235105
9135.000000;0.235013
9134.000000;0.234913
9133.000000;0.234702
9132.000000;0.234483
9131.000000;0.234377
9130.000000;0.234320
9129.000000;0.234177
9128.000000;0.233953
9127.000000;0.233760
9126.000000;0.233643
9125.000000;0.233546
9124.000000;0.233402
9123.000000;0.233175
9122.000000;0.232866
9121.000000;0.232556
9120.000000;0.232385
9119.000000;0.232388
9118.000000;0.232388
9117.000000;0.232144
9116.000000;0.231617
9115.000000;0.231022
9114.000000;0.230626
9113.000000;0.230504
9112.000000;0.230505
9111.000000;0.230402
9110.000000;0.230088
9109.000000;0.229622
9108.000000;0.229131
9107.000000;0.228712
9106.000000;0.228450
9105.000000;0.228407
9104.000000;0.228508
9103.000000;0.228518
9102.000000;0.228254
9101.000000;0.227796
9100.000000;0.227364
9099.000000;0.227057
9098.000000;0.226835
9097.000000;0.226686
9096.000000;0.226635
9095.000000;0.226595
9094.000000;0.226439
9093.000000;0.226228
9092.000000;0.226171
9091.000000;0.226289
9090.000000;0.226329
9089.000000;0.226098
9088.000000;0.225722
9087.000000;0.225450
9086.000000;0.225352
9085.000000;0.225319
9084.000000;0.225226
9083.000000;0.224999
9082.000000;0.224612
9081.000000;0.224155
9080.000000;0.223816
9079.000000;0.223676
9078.000000;0.223595
9077.000000;0.223361
9076.000000;0.222931
9075.000000;0.222439
9074.000000;0.222042
9073.000000;0.221811
9072.000000;0.221704
9071.000000;0.221602
9070.000000;0.221407
9069.000000;0.221159
9068.000000;0.221004
9067.000000;0.221015
9066.000000;0.221119
9065.000000;0.221185
9064.000000;0.221125
9063.000000;0.220893
9062.000000;0.220502
9061.000000;0.220074
9060.000000;0.219761
9059.000000;0.219574
9058.000000;0.219392
9057.000000;0.219139
9056.000000;0.218864
9055.000000;0.218627
9054.000000;0.218425
9053.000000;0.218279
