Criado como novo conjunto de dados;"e2410_daniel_v2.spp","84606.4 Secs"
cm-1;Abs
10000.000000;1.132343
9999.000000;1.131753
9998.000000;1.131103
9997.000000;1.130969
9996.000000;1.131677
9995.000000;1.132847
9994.000000;1.133786
9993.000000;1.133950
9992.000000;1.133310
9991.000000;1.132216
9990.000000;1.131126
9989.000000;1.130300
9988.000000;1.129660
9987.000000;1.128893
9986.000000;1.127831
9985.000000;1.126756
9984.000000;1.126231
9983.000000;1.126525
9982.000000;1.127245
9981.000000;1.127657
9980.000000;1.127367
9979.000000;1.126592
9978.000000;1.125762
9977.000000;1.125023
9976.000000;1.124274
9975.000000;1.123544
9974.000000;1.123077
9973.000000;1.122946
9972.000000;1.122761
9971.000000;1.121973
9970.000000;1.120469
9969.000000;1.118762
9968.000000;1.117577
9967.000000;1.117289
9966.000000;1.117707
9965.000000;1.118231
9964.000000;1.118233
9963.000000;1.117483
9962.000000;1.116317
9961.000000;1.115323
9960.000000;1.114805
9959.000000;1.114614
9958.000000;1.114455
9957.000000;1.114177
9956.000000;1.113709
9955.000000;1.112970
9954.000000;1.112058
9953.000000;1.111337
9952.000000;1.111095
9951.000000;1.111169
9950.000000;1.111136
9949.000000;1.110804
9948.000000;1.110281
9947.000000;1.109642
9946.000000;1.108814
9945.000000;1.107840
9944.000000;1.106949
9943.000000;1.106264
9942.000000;1.105690
9941.000000;1.105169
9940.000000;1.104793
9939.000000;1.104539
9938.000000;1.104156
9937.000000;1.103488
9936.000000;1.102693
9935.000000;1.101968
9934.000000;1.101273
9933.000000;1.100550
9932.000000;1.099988
9931.000000;1.099758
9930.000000;1.099608
9929.000000;1.099071
9928.000000;1.098066
9927.000000;1.097023
9926.000000;1.096381
9925.000000;1.096202
9924.000000;1.096294
9923.000000;1.096475
9922.000000;1.096593
9921.000000;1.096446
9920.000000;1.095823
9919.000000;1.094656
9918.000000;1.093165
9917.000000;1.091834
9916.000000;1.091089
9915.000000;1.090843
9914.000000;1.090517
9913.000000;1.089692
9912.000000;1.088646
9911.000000;1.088027
9910.000000;1.088084
9909.000000;1.088454
9908.000000;1.088662
9907.000000;1.088532
9906.000000;1.088096
9905.000000;1.087433
9904.000000;1.086731
9903.000000;1.086201
9902.000000;1.085775
9901.000000;1.085092
9900.000000;1.084022
9899.000000;1.082993
9898.000000;1.082532
9897.000000;1.082593
9896.000000;1.082613
9895.000000;1.082194
9894.000000;1.081493
9893.000000;1.080894
9892.000000;1.080531
9891.000000;1.080247
9890.000000;1.079853
9889.000000;1.079282
9888.000000;1.078550
9887.000000;1.077721
9886.000000;1.076901
9885.000000;1.076167
9884.000000;1.075478
9883.000000;1.074704
9882.000000;1.073822
9881.000000;1.073050
9880.000000;1.072684
9879.000000;1.072790
9878.000000;1.073091
9877.000000;1.073204
9876.000000;1.072959
9875.000000;1.072459
9874.000000;1.071878
9873.000000;1.071277
9872.000000;1.070601
9871.000000;1.069795
9870.000000;1.068897
9869.000000;1.068025
9868.000000;1.067288
9867.000000;1.066708
9866.000000;1.066281
9865.000000;1.066109
9864.000000;1.066338
9863.000000;1.066842
9862.000000;1.067058
9861.000000;1.066385
9860.000000;1.064862
9859.000000;1.063253
9858.000000;1.062314
9857.000000;1.062082
9856.000000;1.062003
9855.000000;1.061650
9854.000000;1.061102
9853.000000;1.060603
9852.000000;1.060155
9851.000000;1.059596
9850.000000;1.058947
9849.000000;1.058394
9848.000000;1.057959
9847.000000;1.057429
9846.000000;1.056661
9845.000000;1.055781
9844.000000;1.054961
9843.000000;1.054159
9842.000000;1.053243
9841.000000;1.052287
9840.000000;1.051582
9839.000000;1.051384
9838.000000;1.051711
9837.000000;1.052304
9836.000000;1.052656
9835.000000;1.052246
9834.000000;1.050993
9833.000000;1.049444
9832.000000;1.048283
9831.000000;1.047648
9830.000000;1.047142
9829.000000;1.046512
9828.000000;1.046001
9827.000000;1.045916
9826.000000;1.046135
9825.000000;1.046296
9824.000000;1.046256
9823.000000;1.046100
9822.000000;1.045809
9821.000000;1.045213
9820.000000;1.044288
9819.000000;1.043276
9818.000000;1.042455
9817.000000;1.041938
9816.000000;1.041701
9815.000000;1.041687
9814.000000;1.041779
9813.000000;1.041751
9812.000000;1.041377
9811.000000;1.040637
9810.000000;1.039818
9809.000000;1.039295
9808.000000;1.039081
9807.000000;1.038648
9806.000000;1.037437
9805.000000;1.035623
9804.000000;1.034122
9803.000000;1.033664
9802.000000;1.034009
9801.000000;1.034255
9800.000000;1.033819
9799.000000;1.032906
9798.000000;1.032080
9797.000000;1.031670
9796.000000;1.031609
9795.000000;1.031628
9794.000000;1.031488
9793.000000;1.031101
9792.000000;1.030497
9791.000000;1.029695
9790.000000;1.028679
9789.000000;1.027594
9788.000000;1.026815
9787.000000;1.026599
9786.000000;1.026727
9785.000000;1.026661
9784.000000;1.026067
9783.000000;1.025039
9782.000000;1.023859
9781.000000;1.022780
9780.000000;1.022056
9779.000000;1.021876
9778.000000;1.022103
9777.000000;1.022269
9776.000000;1.022013
9775.000000;1.021455
9774.000000;1.021016
9773.000000;1.020919
9772.000000;1.020981
9771.000000;1.020859
9770.000000;1.020400
9769.000000;1.019738
9768.000000;1.019124
9767.000000;1.018675
9766.000000;1.018270
9765.000000;1.017655
9764.000000;1.016650
9763.000000;1.015303
9762.000000;1.013940
9761.000000;1.013031
9760.000000;1.012838
9759.000000;1.013080
9758.000000;1.013068
9757.000000;1.012360
9756.000000;1.011246
9755.000000;1.010424
9754.000000;1.010216
9753.000000;1.010287
9752.000000;1.010150
9751.000000;1.009744
9750.000000;1.009373
9749.000000;1.009215
9748.000000;1.009073
9747.000000;1.008649
9746.000000;1.007924
9745.000000;1.007206
9744.000000;1.006771
9743.000000;1.006557
9742.000000;1.006256
9741.000000;1.005672
9740.000000;1.004875
9739.000000;1.003999
9738.000000;1.003097
9737.000000;1.002263
9736.000000;1.001717
9735.000000;1.001532
9734.000000;1.001419
9733.000000;1.001009
9732.000000;1.000327
9731.000000;0.999712
9730.000000;0.999291
9729.000000;0.998818
9728.000000;0.998127
9727.000000;0.997464
9726.000000;0.997161
9725.000000;0.997175
9724.000000;0.997167
9723.000000;0.996947
9722.000000;0.996610
9721.000000;0.996250
9720.000000;0.995745
9719.000000;0.994892
9718.000000;0.993669
9717.000000;0.992270
9716.000000;0.990967
9715.000000;0.989972
9714.000000;0.989427
9713.000000;0.989399
9712.000000;0.989807
9711.000000;0.990374
9710.000000;0.990702
9709.000000;0.990478
9708.000000;0.989631
9707.000000;0.988350
9706.000000;0.987010
9705.000000;0.986039
9704.000000;0.985681
9703.000000;0.985763
9702.000000;0.985780
9701.000000;0.985346
9700.000000;0.984570
9699.000000;0.983918
9698.000000;0.983726
9697.000000;0.983920
9696.000000;0.984142
9695.000000;0.984042
9694.000000;0.983499
9693.000000;0.982697
9692.000000;0.981972
9691.000000;0.981509
9690.000000;0.981182
9689.000000;0.980775
9688.000000;0.980303
9687.000000;0.979975
9686.000000;0.979846
9685.000000;0.979672
9684.000000;0.979151
9683.000000;0.978222
9682.000000;0.977102
9681.000000;0.976117
9680.000000;0.975503
9679.000000;0.975224
9678.000000;0.974974
9677.000000;0.974489
9676.000000;0.973876
9675.000000;0.973481
9674.000000;0.973393
9673.000000;0.973276
9672.000000;0.972810
9671.000000;0.972144
9670.000000;0.971715
9669.000000;0.971725
9668.000000;0.971975
9667.000000;0.972118
9666.000000;0.971914
9665.000000;0.971259
9664.000000;0.970197
9663.000000;0.968965
9662.000000;0.967875
9661.000000;0.967061
9660.000000;0.966387
9659.000000;0.965661
9658.000000;0.964885
9657.000000;0.964258
9656.000000;0.963980
9655.000000;0.964087
9654.000000;0.964388
9653.000000;0.964537
9652.000000;0.964243
9651.000000;0.963529
9650.000000;0.962748
9649.000000;0.962246
9648.000000;0.961997
9647.000000;0.961690
9646.000000;0.961131
9645.000000;0.960416
9644.000000;0.959676
9643.000000;0.958857
9642.000000;0.957893
9641.000000;0.956979
9640.000000;0.956405
9639.000000;0.956174
9638.000000;0.955976
9637.000000;0.955580
9636.000000;0.955066
9635.000000;0.954621
9634.000000;0.954303
9633.000000;0.954087
9632.000000;0.953998
9631.000000;0.954053
9630.000000;0.954151
9629.000000;0.954125
9628.000000;0.953837
9627.000000;0.953179
9626.000000;0.952151
9625.000000;0.950998
9624.000000;0.950099
9623.000000;0.949553
9622.000000;0.949048
9621.000000;0.948327
9620.000000;0.947655
9619.000000;0.947531
9618.000000;0.947991
9617.000000;0.948476
9616.000000;0.948415
9615.000000;0.947767
9614.000000;0.946912
9613.000000;0.946229
9612.000000;0.945829
9611.000000;0.945558
9610.000000;0.945156
9609.000000;0.944488
9608.000000;0.943697
9607.000000;0.943052
9606.000000;0.942672
9605.000000;0.942473
9604.000000;0.942361
9603.000000;0.942315
9602.000000;0.942247
9601.000000;0.941928
9600.000000;0.941157
9599.000000;0.939949
9598.000000;0.938550
9597.000000;0.937327
9596.000000;0.936590
9595.000000;0.936378
9594.000000;0.936428
9593.000000;0.936475
9592.000000;0.936557
9591.000000;0.936836
9590.000000;0.937169
9589.000000;0.937123
9588.000000;0.936471
9587.000000;0.935478
9586.000000;0.934564
9585.000000;0.933886
9584.000000;0.933361
9583.000000;0.932859
9582.000000;0.932232
9581.000000;0.931354
9580.000000;0.930376
9579.000000;0.929764
9578.000000;0.929788
9577.000000;0.930076
9576.000000;0.929933
9575.000000;0.929127
9574.000000;0.928112
9573.000000;0.927417
9572.000000;0.927091
9571.000000;0.926820
9570.000000;0.926380
9569.000000;0.925824
9568.000000;0.925330
9567.000000;0.925032
9566.000000;0.924941
9565.000000;0.924919
9564.000000;0.924738
9563.000000;0.924228
9562.000000;0.923387
9561.000000;0.922341
9560.000000;0.921286
9559.000000;0.920463
9558.000000;0.920087
9557.000000;0.920159
9556.000000;0.920387
9555.000000;0.920391
9554.000000;0.919987
9553.000000;0.919223
9552.000000;0.918241
9551.000000;0.917226
9550.000000;0.916459
9549.000000;0.916179
9548.000000;0.916287
9547.000000;0.916333
9546.000000;0.915997
9545.000000;0.915480
9544.000000;0.915244
9543.000000;0.915389
9542.000000;0.915513
9541.000000;0.915216
9540.000000;0.914537
9539.000000;0.913765
9538.000000;0.913027
9537.000000;0.912286
9536.000000;0.911620
9535.000000;0.911215
9534.000000;0.911039
9533.000000;0.910755
9532.000000;0.910086
9531.000000;0.909145
9530.000000;0.908294
9529.000000;0.907777
9528.000000;0.907561
9527.000000;0.907474
9526.000000;0.907359
9525.000000;0.907151
9524.000000;0.906877
9523.000000;0.906617
9522.000000;0.906412
9521.000000;0.906219
9520.000000;0.905933
9519.000000;0.905423
9518.000000;0.904587
9517.000000;0.903502
9516.000000;0.902562
9515.000000;0.902266
9514.000000;0.902710
9513.000000;0.903345
9512.000000;0.903424
9511.000000;0.902696
9510.000000;0.901536
9509.000000;0.900460
9508.000000;0.899751
9507.000000;0.899523
9506.000000;0.899812
9505.000000;0.900417
9504.000000;0.900848
9503.000000;0.900706
9502.000000;0.900065
9501.000000;0.899295
9500.000000;0.898587
9499.000000;0.897877
9498.000000;0.897135
9497.000000;0.896480
9496.000000;0.895940
9495.000000;0.895362
9494.000000;0.894672
9493.000000;0.894033
9492.000000;0.893631
9491.000000;0.893452
9490.000000;0.893408
9489.000000;0.893490
9488.000000;0.893607
9487.000000;0.893452
9486.000000;0.892802
9485.000000;0.891922
9484.000000;0.891368
9483.000000;0.891359
9482.000000;0.891546
9481.000000;0.891456
9480.000000;0.890987
9479.000000;0.890370
9478.000000;0.889801
9477.000000;0.889260
9476.000000;0.888622
9475.000000;0.887851
9474.000000;0.887091
9473.000000;0.886587
9472.000000;0.886471
9471.000000;0.886595
9470.000000;0.886661
9469.000000;0.886527
9468.000000;0.886263
9467.000000;0.885903
9466.000000;0.885335
9465.000000;0.884506
9464.000000;0.883601
9463.000000;0.882878
9462.000000;0.882424
9461.000000;0.882158
9460.000000;0.881968
9459.000000;0.881720
9458.000000;0.881233
9457.000000;0.880436
9456.000000;0.879529
9455.000000;0.878874
9454.000000;0.878673
9453.000000;0.878819
9452.000000;0.879019
9451.000000;0.878989
9450.000000;0.878588
9449.000000;0.877879
9448.000000;0.877082
9447.000000;0.876371
9446.000000;0.875725
9445.000000;0.875051
9444.000000;0.874445
9443.000000;0.874174
9442.000000;0.874375
9441.000000;0.874859
9440.000000;0.875254
9439.000000;0.875291
9438.000000;0.874915
9437.000000;0.874217
9436.000000;0.873369
9435.000000;0.872590
9434.000000;0.872073
9433.000000;0.871865
9432.000000;0.871847
9431.000000;0.871837
9430.000000;0.871723
9429.000000;0.871476
9428.000000;0.871088
9427.000000;0.870555
9426.000000;0.869912
9425.000000;0.869226
9424.000000;0.868533
9423.000000;0.867834
9422.000000;0.867220
9421.000000;0.866906
9420.000000;0.867014
9419.000000;0.867330
9418.000000;0.867394
9417.000000;0.866924
9416.000000;0.866066
9415.000000;0.865198
9414.000000;0.864530
9413.000000;0.863995
9412.000000;0.863457
9411.000000;0.862934
9410.000000;0.862566
9409.000000;0.862404
9408.000000;0.862282
9407.000000;0.861968
9406.000000;0.861422
9405.000000;0.860851
9404.000000;0.860473
9403.000000;0.860288
9402.000000;0.860149
9401.000000;0.859983
9400.000000;0.859819
9399.000000;0.859641
9398.000000;0.859347
9397.000000;0.858877
9396.000000;0.858271
9395.000000;0.857612
9394.000000;0.857009
9393.000000;0.856611
9392.000000;0.856483
9391.000000;0.856451
9390.000000;0.856242
9389.000000;0.855836
9388.000000;0.855492
9387.000000;0.855351
9386.000000;0.855193
9385.000000;0.854729
9384.000000;0.854001
9383.000000;0.853303
9382.000000;0.852811
9381.000000;0.852458
9380.000000;0.852153
9379.000000;0.851919
9378.000000;0.851780
9377.000000;0.851659
9376.000000;0.851461
9375.000000;0.851217
9374.000000;0.851047
9373.000000;0.850981
9372.000000;0.850820
9371.000000;0.850288
9370.000000;0.849363
9369.000000;0.848413
9368.000000;0.847848
9367.000000;0.847669
9366.000000;0.847483
9365.000000;0.846999
9364.000000;0.846312
9363.000000;0.845656
9362.000000;0.845072
9361.000000;0.844503
9360.000000;0.844041
9359.000000;0.843874
9358.000000;0.844005
9357.000000;0.844223
9356.000000;0.844350
9355.000000;0.844370
9354.000000;0.844301
9353.000000;0.844082
9352.000000;0.843639
9351.000000;0.843016
9350.000000;0.842371
9349.000000;0.841873
9348.000000;0.841564
9347.000000;0.841302
9346.000000;0.840876
9345.000000;0.840222
9344.000000;0.839499
9343.000000;0.838912
9342.000000;0.838511
9341.000000;0.838190
9340.000000;0.837821
9339.000000;0.837345
9338.000000;0.836792
9337.000000;0.836276
9336.000000;0.835911
9335.000000;0.835681
9334.000000;0.835451
9333.000000;0.835170
9332.000000;0.834968
9331.000000;0.834964
9330.000000;0.835045
9329.000000;0.834936
9328.000000;0.834477
9327.000000;0.833745
9326.000000;0.832970
9325.000000;0.832374
9324.000000;0.832058
9323.000000;0.831937
9322.000000;0.831809
9321.000000;0.831557
9320.000000;0.831279
9319.000000;0.831149
9318.000000;0.831184
9317.000000;0.831189
9316.000000;0.830918
9315.000000;0.830280
9314.000000;0.829456
9313.000000;0.828765
9312.000000;0.828341
9311.000000;0.827947
9310.000000;0.827270
9309.000000;0.826419
9308.000000;0.825901
9307.000000;0.825975
9306.000000;0.826260
9305.000000;0.826162
9304.000000;0.825570
9303.000000;0.824906
9302.000000;0.824578
9301.000000;0.824628
9300.000000;0.824844
9299.000000;0.824983
9298.000000;0.824876
9297.000000;0.824512
9296.000000;0.824082
9295.000000;0.823814
9294.000000;0.823705
9293.000000;0.823500
9292.000000;0.822968
9291.000000;0.822133
9290.000000;0.821271
9289.000000;0.820725
9288.000000;0.820658
9287.000000;0.820893
9286.000000;0.821026
9285.000000;0.820815
9284.000000;0.820402
9283.000000;0.820078
9282.000000;0.819911
9281.000000;0.819712
9280.000000;0.819297
9279.000000;0.818664
9278.000000;0.817970
9277.000000;0.817439
9276.000000;0.817230
9275.000000;0.817272
9274.000000;0.817291
9273.000000;0.817118
9272.000000;0.816860
9271.000000;0.816634
9270.000000;0.816291
9269.000000;0.815627
9268.000000;0.814799
9267.000000;0.814233
9266.000000;0.814153
9265.000000;0.814395
9264.000000;0.814682
9263.000000;0.814841
9262.000000;0.814761
9261.000000;0.814375
9260.000000;0.813781
9259.000000;0.813169
9258.000000;0.812582
9257.000000;0.811928
9256.000000;0.811273
9255.000000;0.810896
9254.000000;0.810939
9253.000000;0.811182
9252.000000;0.811283
9251.000000;0.811103
9250.000000;0.810674
9249.000000;0.810015
9248.000000;0.809163
9247.000000;0.808261
9246.000000;0.807484
9245.000000;0.806883
9244.000000;0.806434
9243.000000;0.806151
9242.000000;0.806078
9241.000000;0.806168
9240.000000;0.806270
9239.000000;0.806225
9238.000000;0.805952
9237.000000;0.805466
9236.000000;0.804864
9235.000000;0.804291
9234.000000;0.803896
9233.000000;0.803788
9232.000000;0.803963
9231.000000;0.804230
9230.000000;0.804282
9229.000000;0.803961
9228.000000;0.803432
9227.000000;0.802994
9226.000000;0.802760
9225.000000;0.802623
9224.000000;0.802479
9223.000000;0.802332
9222.000000;0.802186
9221.000000;0.801988
9220.000000;0.801710
9219.000000;0.801363
9218.000000;0.800946
9217.000000;0.800506
9216.000000;0.800227
9215.000000;0.800247
9214.000000;0.800371
9213.000000;0.800164
9212.000000;0.799449
9211.000000;0.798530
9210.000000;0.797841
9209.000000;0.797526
9208.000000;0.797459
9207.000000;0.797508
9206.000000;0.797608
9205.000000;0.797663
9204.000000;0.797564
9203.000000;0.797299
9202.000000;0.796949
9201.000000;0.796597
9200.000000;0.796290
9199.000000;0.796051
9198.000000;0.795866
9197.000000;0.795677
9196.000000;0.795412
9195.000000;0.795017
9194.000000;0.794485
9193.000000;0.793950
9192.000000;0.793681
9191.000000;0.793837
9190.000000;0.794188
9189.000000;0.794252
9188.000000;0.793791
9187.000000;0.793002
9186.000000;0.792193
9185.000000;0.791455
9184.000000;0.790781
9183.000000;0.790288
9182.000000;0.790106
9181.000000;0.790132
9180.000000;0.790093
9179.000000;0.789805
9178.000000;0.789257
9177.000000;0.788514
9176.000000;0.787723
9175.000000;0.787152
9174.000000;0.787043
9173.000000;0.787380
9172.000000;0.787922
9171.000000;0.788427
9170.000000;0.788726
9169.000000;0.788629
9168.000000;0.787998
9167.000000;0.786966
9166.000000;0.785932
9165.000000;0.785239
9164.000000;0.784924
9163.000000;0.784809
9162.000000;0.784705
9161.000000;0.784497
9160.000000;0.784165
9159.000000;0.783827
9158.000000;0.783679
9157.000000;0.783779
9156.000000;0.783929
9155.000000;0.783858
9154.000000;0.783506
9153.000000;0.783044
9152.000000;0.782636
9151.000000;0.782299
9150.000000;0.781990
9149.000000;0.781731
9148.000000;0.781549
9147.000000;0.781400
9146.000000;0.781241
9145.000000;0.781171
9144.000000;0.781351
9143.000000;0.781723
9142.000000;0.781935
9141.000000;0.781649
9140.000000;0.780897
9139.000000;0.780039
9138.000000;0.779396
9137.000000;0.779046
9136.000000;0.778930
9135.000000;0.778968
9134.000000;0.779003
9133.000000;0.778773
9132.000000;0.778142
9131.000000;0.777308
9130.000000;0.776672
9129.000000;0.776459
9128.000000;0.776546
9127.000000;0.776640
9126.000000;0.776527
9125.000000;0.776163
9124.000000;0.775630
9123.000000;0.775100
9122.000000;0.774739
9121.000000;0.774577
9120.000000;0.774496
9119.000000;0.774411
9118.000000;0.774440
9117.000000;0.774763
9116.000000;0.775293
9115.000000;0.775622
9114.000000;0.775413
9113.000000;0.774781
9112.000000;0.774136
9111.000000;0.773691
9110.000000;0.773267
9109.000000;0.772635
9108.000000;0.771900
9107.000000;0.771393
9106.000000;0.771262
9105.000000;0.771322
9104.000000;0.771292
9103.000000;0.771081
9102.000000;0.770775
9101.000000;0.770477
9100.000000;0.770207
9099.000000;0.769942
9098.000000;0.769653
9097.000000;0.769309
9096.000000;0.768906
9095.000000;0.768510
9094.000000;0.768258
9093.000000;0.768264
9092.000000;0.768489
9091.000000;0.768723
9090.000000;0.768747
9089.000000;0.768521
9088.000000;0.768185
9087.000000;0.767868
9086.000000;0.767574
9085.000000;0.767273
9084.000000;0.766985
9083.000000;0.766697
9082.000000;0.766277
9081.000000;0.765632
9080.000000;0.764916
9079.000000;0.764448
9078.000000;0.764381
9077.000000;0.764551
9076.000000;0.764676
9075.000000;0.764603
9074.000000;0.764320
9073.000000;0.763846
9072.000000;0.763238
9071.000000;0.762643
9070.000000;0.762214
9069.000000;0.761963
9068.000000;0.761764
9067.000000;0.761538
9066.000000;0.761354
9065.000000;0.761316
9064.000000;0.761417
9063.000000;0.761545
9062.000000;0.761610
9061.000000;0.761583
9060.000000;0.761421
9059.000000;0.761056
9058.000000;0.760507
9057.000000;0.759937
9056.000000;0.759516
9055.000000;0.759255
9054.000000;0.759056
9053.000000;0.758883
