Criado como novo conjunto de dados;"e2410_daniel_v2.spp","58864.7 Secs"
cm-1;Abs
10000.000000;1.133406
9999.000000;1.132263
9998.000000;1.131123
9997.000000;1.129986
9996.000000;1.128853
9995.000000;1.127721
9994.000000;1.126594
9993.000000;1.125467
9992.000000;1.124350
9991.000000;1.123079
9990.000000;1.121952
9989.000000;1.121218
9988.000000;1.120849
9987.000000;1.120654
9986.000000;1.120454
9985.000000;1.120169
9984.000000;1.119872
9983.000000;1.119720
9982.000000;1.119700
9981.000000;1.119560
9980.000000;1.119155
9979.000000;1.118728
9978.000000;1.118530
9977.000000;1.118282
9976.000000;1.117450
9975.000000;1.116067
9974.000000;1.114816
9973.000000;1.114150
9972.000000;1.113742
9971.000000;1.113067
9970.000000;1.112166
9969.000000;1.111451
9968.000000;1.110998
9967.000000;1.110428
9966.000000;1.109460
9965.000000;1.108279
9964.000000;1.107350
9963.000000;1.107077
9962.000000;1.107587
9961.000000;1.108611
9960.000000;1.109541
9959.000000;1.109769
9958.000000;1.109098
9957.000000;1.107837
9956.000000;1.106557
9955.000000;1.105681
9954.000000;1.105159
9953.000000;1.104549
9952.000000;1.103567
9951.000000;1.102521
9950.000000;1.101973
9949.000000;1.102026
9948.000000;1.102260
9947.000000;1.102382
9946.000000;1.102498
9945.000000;1.102605
9944.000000;1.102316
9943.000000;1.101425
9942.000000;1.100365
9941.000000;1.099650
9940.000000;1.099191
9939.000000;1.098600
9938.000000;1.097927
9937.000000;1.097560
9936.000000;1.097515
9935.000000;1.097320
9934.000000;1.096648
9933.000000;1.095663
9932.000000;1.094700
9931.000000;1.093941
9930.000000;1.093440
9929.000000;1.093150
9928.000000;1.092866
9927.000000;1.092407
9926.000000;1.091857
9925.000000;1.091387
9924.000000;1.090903
9923.000000;1.090231
9922.000000;1.089605
9921.000000;1.089551
9920.000000;1.090156
9919.000000;1.090789
9918.000000;1.090754
9917.000000;1.089995
9916.000000;1.088977
9915.000000;1.088136
9914.000000;1.087621
9913.000000;1.087373
9912.000000;1.087177
9911.000000;1.086708
9910.000000;1.085741
9909.000000;1.084353
9908.000000;1.082858
9907.000000;1.081571
9906.000000;1.080638
9905.000000;1.080064
9904.000000;1.079837
9903.000000;1.079987
9902.000000;1.080442
9901.000000;1.080839
9900.000000;1.080701
9899.000000;1.079927
9898.000000;1.078965
9897.000000;1.078321
9896.000000;1.078000
9895.000000;1.077611
9894.000000;1.076897
9893.000000;1.075965
9892.000000;1.075056
9891.000000;1.074338
9890.000000;1.073894
9889.000000;1.073674
9888.000000;1.073467
9887.000000;1.073108
9886.000000;1.072690
9885.000000;1.072391
9884.000000;1.072165
9883.000000;1.071833
9882.000000;1.071400
9881.000000;1.070975
9880.000000;1.070453
9879.000000;1.069608
9878.000000;1.068548
9877.000000;1.067718
9876.000000;1.067334
9875.000000;1.067103
9874.000000;1.066652
9873.000000;1.065982
9872.000000;1.065308
9871.000000;1.064684
9870.000000;1.064044
9869.000000;1.063496
9868.000000;1.063300
9867.000000;1.063513
9866.000000;1.063826
9865.000000;1.063795
9864.000000;1.063223
9863.000000;1.062295
9862.000000;1.061364
9861.000000;1.060637
9860.000000;1.060100
9859.000000;1.059682
9858.000000;1.059355
9857.000000;1.059017
9856.000000;1.058439
9855.000000;1.057490
9854.000000;1.056348
9853.000000;1.055343
9852.000000;1.054679
9851.000000;1.054412
9850.000000;1.054561
9849.000000;1.055000
9848.000000;1.055277
9847.000000;1.054849
9846.000000;1.053571
9845.000000;1.051845
9844.000000;1.050266
9843.000000;1.049214
9842.000000;1.048711
9841.000000;1.048480
9840.000000;1.048172
9839.000000;1.047697
9838.000000;1.047298
9837.000000;1.047172
9836.000000;1.047134
9835.000000;1.046874
9834.000000;1.046451
9833.000000;1.046194
9832.000000;1.046110
9831.000000;1.045742
9830.000000;1.044778
9829.000000;1.043532
9828.000000;1.042624
9827.000000;1.042318
9826.000000;1.042347
9825.000000;1.042248
9824.000000;1.041758
9823.000000;1.040961
9822.000000;1.040208
9821.000000;1.039852
9820.000000;1.039965
9819.000000;1.040257
9818.000000;1.040267
9817.000000;1.039659
9816.000000;1.038414
9815.000000;1.036859
9814.000000;1.035501
9813.000000;1.034735
9812.000000;1.034643
9811.000000;1.035072
9810.000000;1.035805
9809.000000;1.036587
9808.000000;1.037110
9807.000000;1.037124
9806.000000;1.036553
9805.000000;1.035432
9804.000000;1.033870
9803.000000;1.032206
9802.000000;1.031020
9801.000000;1.030676
9800.000000;1.030857
9799.000000;1.030838
9798.000000;1.030302
9797.000000;1.029665
9796.000000;1.029504
9795.000000;1.029874
9794.000000;1.030306
9793.000000;1.030322
9792.000000;1.029791
9791.000000;1.028843
9790.000000;1.027612
9789.000000;1.026153
9788.000000;1.024598
9787.000000;1.023284
9786.000000;1.022547
9785.000000;1.022349
9784.000000;1.022254
9783.000000;1.021916
9782.000000;1.021446
9781.000000;1.021122
9780.000000;1.020889
9779.000000;1.020450
9778.000000;1.019767
9777.000000;1.019150
9776.000000;1.018813
9775.000000;1.018622
9774.000000;1.018388
9773.000000;1.018139
9772.000000;1.017959
9771.000000;1.017766
9770.000000;1.017418
9769.000000;1.016893
9768.000000;1.016198
9767.000000;1.015238
9766.000000;1.013968
9765.000000;1.012638
9764.000000;1.011673
9763.000000;1.011237
9762.000000;1.011036
9761.000000;1.010618
9760.000000;1.009874
9759.000000;1.009182
9758.000000;1.009035
9757.000000;1.009497
9756.000000;1.010054
9755.000000;1.010035
9754.000000;1.009220
9753.000000;1.008041
9752.000000;1.007215
9751.000000;1.007156
9750.000000;1.007639
9749.000000;1.007998
9748.000000;1.007734
9747.000000;1.006986
9746.000000;1.006300
9745.000000;1.005949
9744.000000;1.005614
9743.000000;1.004829
9742.000000;1.003587
9741.000000;1.002352
9740.000000;1.001566
9739.000000;1.001285
9738.000000;1.001259
9737.000000;1.001161
9736.000000;1.000765
9735.000000;1.000068
9734.000000;0.999286
9733.000000;0.998691
9732.000000;0.998431
9731.000000;0.998474
9730.000000;0.998631
9729.000000;0.998628
9728.000000;0.998304
9727.000000;0.997789
9726.000000;0.997341
9725.000000;0.996971
9724.000000;0.996476
9723.000000;0.995881
9722.000000;0.995562
9721.000000;0.995679
9720.000000;0.995761
9719.000000;0.995191
9718.000000;0.993998
9717.000000;0.992819
9716.000000;0.992134
9715.000000;0.991864
9714.000000;0.991679
9713.000000;0.991389
9712.000000;0.990984
9711.000000;0.990544
9710.000000;0.990166
9709.000000;0.989829
9708.000000;0.989315
9707.000000;0.988447
9706.000000;0.987385
9705.000000;0.986516
9704.000000;0.986047
9703.000000;0.985876
9702.000000;0.985791
9701.000000;0.985620
9700.000000;0.985233
9699.000000;0.984646
9698.000000;0.984115
9697.000000;0.983895
9696.000000;0.983874
9695.000000;0.983665
9694.000000;0.983100
9693.000000;0.982416
9692.000000;0.981912
9691.000000;0.981606
9690.000000;0.981316
9689.000000;0.980892
9688.000000;0.980308
9687.000000;0.979666
9686.000000;0.979154
9685.000000;0.978886
9684.000000;0.978748
9683.000000;0.978538
9682.000000;0.978233
9681.000000;0.977979
9680.000000;0.977826
9679.000000;0.977662
9678.000000;0.977427
9677.000000;0.977156
9676.000000;0.976777
9675.000000;0.976093
9674.000000;0.975079
9673.000000;0.974036
9672.000000;0.973299
9671.000000;0.972881
9670.000000;0.972511
9669.000000;0.971970
9668.000000;0.971323
9667.000000;0.970834
9666.000000;0.970669
9665.000000;0.970688
9664.000000;0.970550
9663.000000;0.970050
9662.000000;0.969298
9661.000000;0.968522
9660.000000;0.967850
9659.000000;0.967369
9658.000000;0.967228
9657.000000;0.967465
9656.000000;0.967771
9655.000000;0.967666
9654.000000;0.966926
9653.000000;0.965762
9652.000000;0.964610
9651.000000;0.963861
9650.000000;0.963661
9649.000000;0.963757
9648.000000;0.963614
9647.000000;0.962895
9646.000000;0.961806
9645.000000;0.960817
9644.000000;0.960135
9643.000000;0.959667
9642.000000;0.959363
9641.000000;0.959288
9640.000000;0.959363
9639.000000;0.959335
9638.000000;0.959059
9637.000000;0.958590
9636.000000;0.957983
9635.000000;0.957225
9634.000000;0.956409
9633.000000;0.955732
9632.000000;0.955288
9631.000000;0.955012
9630.000000;0.954861
9629.000000;0.954825
9628.000000;0.954748
9627.000000;0.954381
9626.000000;0.953662
9625.000000;0.952769
9624.000000;0.951868
9623.000000;0.951041
9622.000000;0.950466
9621.000000;0.950382
9620.000000;0.950730
9619.000000;0.951053
9618.000000;0.950892
9617.000000;0.950190
9616.000000;0.949241
9615.000000;0.948406
9614.000000;0.947895
9613.000000;0.947666
9612.000000;0.947479
9611.000000;0.947165
9610.000000;0.946828
9609.000000;0.946608
9608.000000;0.946341
9607.000000;0.945751
9606.000000;0.944969
9605.000000;0.944478
9604.000000;0.944402
9603.000000;0.944201
9602.000000;0.943326
9601.000000;0.941946
9600.000000;0.940789
9599.000000;0.940387
9598.000000;0.940656
9597.000000;0.941085
9596.000000;0.941143
9595.000000;0.940619
9594.000000;0.939736
9593.000000;0.938940
9592.000000;0.938518
9591.000000;0.938448
9590.000000;0.938566
9589.000000;0.938710
9588.000000;0.938701
9587.000000;0.938384
9586.000000;0.937793
9585.000000;0.937097
9584.000000;0.936317
9583.000000;0.935303
9582.000000;0.934063
9581.000000;0.932925
9580.000000;0.932219
9579.000000;0.931964
9578.000000;0.931996
9577.000000;0.932206
9576.000000;0.932503
9575.000000;0.932693
9574.000000;0.932604
9573.000000;0.932265
9572.000000;0.931834
9571.000000;0.931403
9570.000000;0.930988
9569.000000;0.930564
9568.000000;0.930024
9567.000000;0.929219
9566.000000;0.928174
9565.000000;0.927126
9564.000000;0.926268
9563.000000;0.925575
9562.000000;0.925008
9561.000000;0.924664
9560.000000;0.924581
9559.000000;0.924560
9558.000000;0.924382
9557.000000;0.924070
9556.000000;0.923731
9555.000000;0.923300
9554.000000;0.922695
9553.000000;0.922135
9552.000000;0.921991
9551.000000;0.922292
9550.000000;0.922600
9549.000000;0.922444
9548.000000;0.921730
9547.000000;0.920711
9546.000000;0.919750
9545.000000;0.919159
9544.000000;0.919084
9543.000000;0.919408
9542.000000;0.919801
9541.000000;0.919930
9540.000000;0.919631
9539.000000;0.918936
9538.000000;0.918042
9537.000000;0.917233
9536.000000;0.916709
9535.000000;0.916456
9534.000000;0.916308
9533.000000;0.916149
9532.000000;0.915970
9531.000000;0.915736
9530.000000;0.915321
9529.000000;0.914645
9528.000000;0.913841
9527.000000;0.913199
9526.000000;0.912893
9525.000000;0.912769
9524.000000;0.912464
9523.000000;0.911812
9522.000000;0.911079
9521.000000;0.910683
9520.000000;0.910691
9519.000000;0.910735
9518.000000;0.910483
9517.000000;0.910017
9516.000000;0.909605
9515.000000;0.909257
9514.000000;0.908759
9513.000000;0.908079
9512.000000;0.907489
9511.000000;0.907191
9510.000000;0.907021
9509.000000;0.906647
9508.000000;0.905962
9507.000000;0.905191
9506.000000;0.904658
9505.000000;0.904533
9504.000000;0.904712
9503.000000;0.904881
9502.000000;0.904742
9501.000000;0.904246
9500.000000;0.903556
9499.000000;0.902781
9498.000000;0.901905
9497.000000;0.901041
9496.000000;0.900553
9495.000000;0.900680
9494.000000;0.901101
9493.000000;0.901155
9492.000000;0.900559
9491.000000;0.899685
9490.000000;0.899027
9489.000000;0.898629
9488.000000;0.898204
9487.000000;0.897606
9486.000000;0.896949
9485.000000;0.896365
9484.000000;0.895898
9483.000000;0.895604
9482.000000;0.895519
9481.000000;0.895514
9480.000000;0.895395
9479.000000;0.895168
9478.000000;0.894998
9477.000000;0.894897
9476.000000;0.894641
9475.000000;0.894098
9474.000000;0.893428
9473.000000;0.892865
9472.000000;0.892452
9471.000000;0.892087
9470.000000;0.891694
9469.000000;0.891233
9468.000000;0.890665
9467.000000;0.890042
9466.000000;0.889521
9465.000000;0.889204
9464.000000;0.889056
9463.000000;0.889029
9462.000000;0.889109
9461.000000;0.889177
9460.000000;0.889001
9459.000000;0.888493
9458.000000;0.887817
9457.000000;0.887125
9456.000000;0.886391
9455.000000;0.885648
9454.000000;0.885150
9453.000000;0.885050
9452.000000;0.885074
9451.000000;0.884826
9450.000000;0.884293
9449.000000;0.883764
9448.000000;0.883329
9447.000000;0.882789
9446.000000;0.882095
9445.000000;0.881549
9444.000000;0.881466
9443.000000;0.881811
9442.000000;0.882200
9441.000000;0.882163
9440.000000;0.881449
9439.000000;0.880302
9438.000000;0.879371
9437.000000;0.879136
9436.000000;0.879379
9435.000000;0.879452
9434.000000;0.879051
9433.000000;0.878477
9432.000000;0.878099
9431.000000;0.877873
9430.000000;0.877543
9429.000000;0.877040
9428.000000;0.876504
9427.000000;0.876053
9426.000000;0.875709
9425.000000;0.875458
9424.000000;0.875239
9423.000000;0.874986
9422.000000;0.874741
9421.000000;0.874630
9420.000000;0.874634
9419.000000;0.874527
9418.000000;0.874142
9417.000000;0.873587
9416.000000;0.873080
9415.000000;0.872711
9414.000000;0.872512
9413.000000;0.872610
9412.000000;0.873066
9411.000000;0.873580
9410.000000;0.873608
9409.000000;0.872876
9408.000000;0.871683
9407.000000;0.870585
9406.000000;0.869855
9405.000000;0.869330
9404.000000;0.868747
9403.000000;0.868098
9402.000000;0.867575
9401.000000;0.867249
9400.000000;0.866924
9399.000000;0.866363
9398.000000;0.865570
9397.000000;0.864774
9396.000000;0.864190
9395.000000;0.863901
9394.000000;0.863918
9393.000000;0.864184
9392.000000;0.864510
9391.000000;0.864613
9390.000000;0.864325
9389.000000;0.863731
9388.000000;0.863087
9387.000000;0.862614
9386.000000;0.862334
9385.000000;0.862065
9384.000000;0.861576
9383.000000;0.860831
9382.000000;0.860055
9381.000000;0.859525
9380.000000;0.859319
9379.000000;0.859331
9378.000000;0.859437
9377.000000;0.859525
9376.000000;0.859440
9375.000000;0.859073
9374.000000;0.858525
9373.000000;0.858037
9372.000000;0.857714
9371.000000;0.857446
9370.000000;0.857148
9369.000000;0.856930
9368.000000;0.856909
9367.000000;0.856957
9366.000000;0.856780
9365.000000;0.856244
9364.000000;0.855514
9363.000000;0.854877
9362.000000;0.854494
9361.000000;0.854342
9360.000000;0.854318
9359.000000;0.854311
9358.000000;0.854196
9357.000000;0.853853
9356.000000;0.853260
9355.000000;0.852559
9354.000000;0.851975
9353.000000;0.851668
9352.000000;0.851677
9351.000000;0.851934
9350.000000;0.852233
9349.000000;0.852224
9348.000000;0.851623
9347.000000;0.850471
9346.000000;0.849106
9345.000000;0.847858
9344.000000;0.846903
9343.000000;0.846370
9342.000000;0.846324
9341.000000;0.846536
9340.000000;0.846532
9339.000000;0.846103
9338.000000;0.845608
9337.000000;0.845509
9336.000000;0.845723
9335.000000;0.845715
9334.000000;0.845196
9333.000000;0.844473
9332.000000;0.844076
9331.000000;0.844220
9330.000000;0.844663
9329.000000;0.844961
9328.000000;0.844822
9327.000000;0.844345
9326.000000;0.843889
9325.000000;0.843637
9324.000000;0.843359
9323.000000;0.842765
9322.000000;0.841953
9321.000000;0.841295
9320.000000;0.840934
9319.000000;0.840674
9318.000000;0.840375
9317.000000;0.840166
9316.000000;0.840169
9315.000000;0.840239
9314.000000;0.840147
9313.000000;0.839853
9312.000000;0.839474
9311.000000;0.839074
9310.000000;0.838636
9309.000000;0.838148
9308.000000;0.837642
9307.000000;0.837176
9306.000000;0.836824
9305.000000;0.836613
9304.000000;0.836450
9303.000000;0.836198
9302.000000;0.835867
9301.000000;0.835602
9300.000000;0.835457
9299.000000;0.835282
9298.000000;0.834924
9297.000000;0.834463
9296.000000;0.834159
9295.000000;0.834173
9294.000000;0.834376
9293.000000;0.834419
9292.000000;0.834012
9291.000000;0.833200
9290.000000;0.832335
9289.000000;0.831726
9288.000000;0.831362
9287.000000;0.831051
9286.000000;0.830725
9285.000000;0.830467
9284.000000;0.830285
9283.000000;0.830058
9282.000000;0.829746
9281.000000;0.829474
9280.000000;0.829345
9279.000000;0.829264
9278.000000;0.829035
9277.000000;0.828532
9276.000000;0.827777
9275.000000;0.826938
9274.000000;0.826269
9273.000000;0.825943
9272.000000;0.825916
9271.000000;0.826016
9270.000000;0.826123
9269.000000;0.826190
9268.000000;0.826146
9267.000000;0.825939
9266.000000;0.825659
9265.000000;0.825440
9264.000000;0.825274
9263.000000;0.825092
9262.000000;0.824975
9261.000000;0.825032
9260.000000;0.825077
9259.000000;0.824720
9258.000000;0.823919
9257.000000;0.823164
9256.000000;0.822939
9255.000000;0.823161
9254.000000;0.823327
9253.000000;0.823075
9252.000000;0.822426
9251.000000;0.821593
9250.000000;0.820780
9249.000000;0.820137
9248.000000;0.819761
9247.000000;0.819687
9246.000000;0.819896
9245.000000;0.820272
9244.000000;0.820508
9243.000000;0.820230
9242.000000;0.819350
9241.000000;0.818244
9240.000000;0.817436
9239.000000;0.817108
9238.000000;0.817034
9237.000000;0.816924
9236.000000;0.816735
9235.000000;0.816615
9234.000000;0.816623
9233.000000;0.816594
9232.000000;0.816302
9231.000000;0.815756
9230.000000;0.815258
9229.000000;0.815088
9228.000000;0.815193
9227.000000;0.815279
9226.000000;0.815171
9225.000000;0.814906
9224.000000;0.814513
9223.000000;0.813924
9222.000000;0.813223
9221.000000;0.812740
9220.000000;0.812729
9219.000000;0.813021
9218.000000;0.813176
9217.000000;0.812921
9216.000000;0.812351
9215.000000;0.811744
9214.000000;0.811291
9213.000000;0.810970
9212.000000;0.810605
9211.000000;0.810095
9210.000000;0.809630
9209.000000;0.809553
9208.000000;0.809918
9207.000000;0.810295
9206.000000;0.810163
9205.000000;0.809456
9204.000000;0.808560
9203.000000;0.807859
9202.000000;0.807448
9201.000000;0.807256
9200.000000;0.807244
9199.000000;0.807377
9198.000000;0.807543
9197.000000;0.807583
9196.000000;0.807403
9195.000000;0.807044
9194.000000;0.806654
9193.000000;0.806387
9192.000000;0.806262
9191.000000;0.806115
9190.000000;0.805769
9189.000000;0.805247
9188.000000;0.804752
9187.000000;0.804432
9186.000000;0.804220
9185.000000;0.803936
9184.000000;0.803495
9183.000000;0.802986
9182.000000;0.802588
9181.000000;0.802420
9180.000000;0.802451
9179.000000;0.802546
9178.000000;0.802597
9177.000000;0.802595
9176.000000;0.802568
9175.000000;0.802469
9174.000000;0.802188
9173.000000;0.801655
9172.000000;0.800940
9171.000000;0.800212
9170.000000;0.799668
9169.000000;0.799454
9168.000000;0.799613
9167.000000;0.800042
9166.000000;0.800508
9165.000000;0.800742
9164.000000;0.800613
9163.000000;0.800230
9162.000000;0.799849
9161.000000;0.799627
9160.000000;0.799472
9159.000000;0.799183
9158.000000;0.798706
9157.000000;0.798167
9156.000000;0.797672
9155.000000;0.797207
9154.000000;0.796776
9153.000000;0.796511
9152.000000;0.796508
9151.000000;0.796603
9150.000000;0.796466
9149.000000;0.795945
9148.000000;0.795245
9147.000000;0.794729
9146.000000;0.794578
9145.000000;0.794664
9144.000000;0.794720
9143.000000;0.794587
9142.000000;0.794313
9141.000000;0.794053
9140.000000;0.793888
9139.000000;0.793750
9138.000000;0.793515
9137.000000;0.793155
9136.000000;0.792772
9135.000000;0.792484
9134.000000;0.792294
9133.000000;0.792111
9132.000000;0.791870
9131.000000;0.791612
9130.000000;0.791407
9129.000000;0.791265
9128.000000;0.791160
9127.000000;0.791096
9126.000000;0.791054
9125.000000;0.790885
9124.000000;0.790410
9123.000000;0.789693
9122.000000;0.789081
9121.000000;0.788830
9120.000000;0.788744
9119.000000;0.788384
9118.000000;0.787642
9117.000000;0.786971
9116.000000;0.786933
9115.000000;0.787597
9114.000000;0.788456
9113.000000;0.788875
9112.000000;0.788592
9111.000000;0.787846
9110.000000;0.787092
9109.000000;0.786613
9108.000000;0.786340
9107.000000;0.786015
9106.000000;0.785520
9105.000000;0.784995
9104.000000;0.784670
9103.000000;0.784633
9102.000000;0.784796
9101.000000;0.784991
9100.000000;0.785054
9099.000000;0.784857
9098.000000;0.784401
9097.000000;0.783872
9096.000000;0.783541
9095.000000;0.783534
9094.000000;0.783705
9093.000000;0.783780
9092.000000;0.783598
9091.000000;0.783210
9090.000000;0.782757
9089.000000;0.782325
9088.000000;0.781932
9087.000000;0.781603
9086.000000;0.781364
9085.000000;0.781171
9084.000000;0.780953
9083.000000;0.780723
9082.000000;0.780579
9081.000000;0.780522
9080.000000;0.780379
9079.000000;0.780026
9078.000000;0.779612
9077.000000;0.779419
9076.000000;0.779488
9075.000000;0.779537
9074.000000;0.779292
9073.000000;0.778789
9072.000000;0.778290
9071.000000;0.778003
9070.000000;0.777979
9069.000000;0.778174
9068.000000;0.778471
9067.000000;0.778666
9066.000000;0.778571
9065.000000;0.778193
9064.000000;0.777739
9063.000000;0.777424
9062.000000;0.777289
9061.000000;0.777213
9060.000000;0.777028
9059.000000;0.776631
9058.000000;0.776060
9057.000000;0.775513
9056.000000;0.775236
9055.000000;0.775307
9054.000000;0.775560
9053.000000;0.775735
