Criado como novo conjunto de dados;"e2410_daniel_v2.spp","101887.6 Secs"
cm-1;Abs
10000.000000;0.136930
9999.000000;0.137488
9998.000000;0.138037
9997.000000;0.138605
9996.000000;0.139093
9995.000000;0.139558
9994.000000;0.140158
9993.000000;0.140893
9992.000000;0.141695
9991.000000;0.142442
9990.000000;0.143049
9989.000000;0.143496
9988.000000;0.143855
9987.000000;0.144272
9986.000000;0.144858
9985.000000;0.145599
9984.000000;0.146414
9983.000000;0.147285
9982.000000;0.148228
9981.000000;0.149150
9980.000000;0.149869
9979.000000;0.150327
9978.000000;0.150700
9977.000000;0.151211
9976.000000;0.151918
9975.000000;0.152734
9974.000000;0.153574
9973.000000;0.154374
9972.000000;0.155049
9971.000000;0.155518
9970.000000;0.155786
9969.000000;0.155957
9968.000000;0.156210
9967.000000;0.156777
9966.000000;0.157837
9965.000000;0.159295
9964.000000;0.160725
9963.000000;0.161678
9962.000000;0.162092
9961.000000;0.162322
9960.000000;0.162769
9959.000000;0.163538
9958.000000;0.164436
9957.000000;0.165191
9956.000000;0.165666
9955.000000;0.165938
9954.000000;0.166240
9953.000000;0.166815
9952.000000;0.167742
9951.000000;0.168874
9950.000000;0.169927
9949.000000;0.170687
9948.000000;0.171180
9947.000000;0.171637
9946.000000;0.172274
9945.000000;0.173078
9944.000000;0.173876
9943.000000;0.174586
9942.000000;0.175333
9941.000000;0.176253
9940.000000;0.177283
9939.000000;0.178208
9938.000000;0.178898
9937.000000;0.179400
9936.000000;0.179834
9935.000000;0.180274
9934.000000;0.180754
9933.000000;0.181339
9932.000000;0.182120
9931.000000;0.183112
9930.000000;0.184151
9929.000000;0.184972
9928.000000;0.185467
9927.000000;0.185859
9926.000000;0.186509
9925.000000;0.187517
9924.000000;0.188609
9923.000000;0.189477
9922.000000;0.190108
9921.000000;0.190699
9920.000000;0.191357
9919.000000;0.192052
9918.000000;0.192812
9917.000000;0.193752
9916.000000;0.194882
9915.000000;0.195997
9914.000000;0.196830
9913.000000;0.197260
9912.000000;0.197382
9911.000000;0.197441
9910.000000;0.197719
9909.000000;0.198370
9908.000000;0.199325
9907.000000;0.200382
9906.000000;0.201415
9905.000000;0.202430
9904.000000;0.203421
9903.000000;0.204277
9902.000000;0.204897
9901.000000;0.205351
9900.000000;0.205842
9899.000000;0.206517
9898.000000;0.207361
9897.000000;0.208257
9896.000000;0.209117
9895.000000;0.209952
9894.000000;0.210834
9893.000000;0.211803
9892.000000;0.212795
9891.000000;0.213664
9890.000000;0.214301
9889.000000;0.214732
9888.000000;0.215104
9887.000000;0.215570
9886.000000;0.216189
9885.000000;0.216922
9884.000000;0.217694
9883.000000;0.218459
9882.000000;0.219214
9881.000000;0.219964
9880.000000;0.220728
9879.000000;0.221546
9878.000000;0.222478
9877.000000;0.223524
9876.000000;0.224591
9875.000000;0.225543
9874.000000;0.226321
9873.000000;0.226996
9872.000000;0.227694
9871.000000;0.228482
9870.000000;0.229330
9869.000000;0.230187
9868.000000;0.231055
9867.000000;0.231973
9866.000000;0.232925
9865.000000;0.233824
9864.000000;0.234598
9863.000000;0.235266
9862.000000;0.235884
9861.000000;0.236494
9860.000000;0.237162
9859.000000;0.238012
9858.000000;0.239124
9857.000000;0.240390
9856.000000;0.241574
9855.000000;0.242526
9854.000000;0.243295
9853.000000;0.244007
9852.000000;0.244722
9851.000000;0.245441
9850.000000;0.246173
9849.000000;0.246949
9848.000000;0.247807
9847.000000;0.248772
9846.000000;0.249805
9845.000000;0.250794
9844.000000;0.251659
9843.000000;0.252471
9842.000000;0.253352
9841.000000;0.254258
9840.000000;0.255016
9839.000000;0.255607
9838.000000;0.256262
9837.000000;0.257159
9836.000000;0.258172
9835.000000;0.259074
9834.000000;0.259872
9833.000000;0.260757
9832.000000;0.261767
9831.000000;0.262681
9830.000000;0.263274
9829.000000;0.263560
9828.000000;0.263783
9827.000000;0.264265
9826.000000;0.265236
9825.000000;0.266632
9824.000000;0.268036
9823.000000;0.268966
9822.000000;0.269343
9821.000000;0.269603
9820.000000;0.270258
9819.000000;0.271419
9818.000000;0.272764
9817.000000;0.273904
9816.000000;0.274721
9815.000000;0.275405
9814.000000;0.276216
9813.000000;0.277230
9812.000000;0.278301
9811.000000;0.279272
9810.000000;0.280190
9809.000000;0.281227
9808.000000;0.282401
9807.000000;0.283480
9806.000000;0.284238
9805.000000;0.284701
9804.000000;0.285110
9803.000000;0.285670
9802.000000;0.286433
9801.000000;0.287346
9800.000000;0.288355
9799.000000;0.289446
9798.000000;0.290637
9797.000000;0.291903
9796.000000;0.293083
9795.000000;0.293936
9794.000000;0.294393
9793.000000;0.294725
9792.000000;0.295348
9791.000000;0.296432
9790.000000;0.297731
9789.000000;0.298824
9788.000000;0.299501
9787.000000;0.299898
9786.000000;0.300338
9785.000000;0.301074
9784.000000;0.302149
9783.000000;0.303429
9782.000000;0.304733
9781.000000;0.305947
9780.000000;0.307033
9779.000000;0.307957
9778.000000;0.308664
9777.000000;0.309132
9776.000000;0.309448
9775.000000;0.309836
9774.000000;0.310573
9773.000000;0.311813
9772.000000;0.313432
9771.000000;0.315071
9770.000000;0.316427
9769.000000;0.317515
9768.000000;0.318556
9767.000000;0.319612
9766.000000;0.320491
9765.000000;0.321069
9764.000000;0.321554
9763.000000;0.322249
9762.000000;0.323151
9761.000000;0.324002
9760.000000;0.324735
9759.000000;0.325615
9758.000000;0.326850
9757.000000;0.328254
9756.000000;0.329468
9755.000000;0.330389
9754.000000;0.331218
9753.000000;0.332129
9752.000000;0.333095
9751.000000;0.333990
9750.000000;0.334729
9749.000000;0.335284
9748.000000;0.335724
9747.000000;0.336269
9746.000000;0.337161
9745.000000;0.338442
9744.000000;0.339916
9743.000000;0.341355
9742.000000;0.342680
9741.000000;0.343912
9740.000000;0.345067
9739.000000;0.346138
9738.000000;0.347113
9737.000000;0.347950
9736.000000;0.348613
9735.000000;0.349147
9734.000000;0.349664
9733.000000;0.350244
9732.000000;0.350919
9731.000000;0.351773
9730.000000;0.352949
9729.000000;0.354478
9728.000000;0.356162
9727.000000;0.357704
9726.000000;0.358926
9725.000000;0.359865
9724.000000;0.360702
9723.000000;0.361629
9722.000000;0.362677
9721.000000;0.363642
9720.000000;0.364298
9719.000000;0.364720
9718.000000;0.365285
9717.000000;0.366240
9716.000000;0.367389
9715.000000;0.368346
9714.000000;0.369054
9713.000000;0.369893
9712.000000;0.371190
9711.000000;0.372754
9710.000000;0.373972
9709.000000;0.374387
9708.000000;0.374160
9707.000000;0.373962
9706.000000;0.374402
9705.000000;0.375543
9704.000000;0.376974
9703.000000;0.378304
9702.000000;0.379525
9701.000000;0.380887
9700.000000;0.382525
9699.000000;0.384303
9698.000000;0.385947
9697.000000;0.387257
9696.000000;0.388189
9695.000000;0.388851
9694.000000;0.389448
9693.000000;0.390184
9692.000000;0.391129
9691.000000;0.392163
9690.000000;0.393075
9689.000000;0.393797
9688.000000;0.394545
9687.000000;0.395636
9686.000000;0.397105
9685.000000;0.398555
9684.000000;0.399528
9683.000000;0.400000
9682.000000;0.400411
9681.000000;0.401195
9680.000000;0.402425
9679.000000;0.403896
9678.000000;0.405355
9677.000000;0.406594
9676.000000;0.407508
9675.000000;0.408208
9674.000000;0.408957
9673.000000;0.409854
9672.000000;0.410640
9671.000000;0.410975
9670.000000;0.410881
9669.000000;0.410857
9668.000000;0.411547
9667.000000;0.413288
9666.000000;0.415789
9665.000000;0.418166
9664.000000;0.419527
9663.000000;0.419762
9662.000000;0.419700
9661.000000;0.420284
9660.000000;0.421669
9659.000000;0.423230
9658.000000;0.424328
9657.000000;0.424838
9656.000000;0.425015
9655.000000;0.425203
9654.000000;0.425718
9653.000000;0.426728
9652.000000;0.428050
9651.000000;0.429257
9650.000000;0.430131
9649.000000;0.430893
9648.000000;0.431850
9647.000000;0.432971
9646.000000;0.433970
9645.000000;0.434701
9644.000000;0.435291
9643.000000;0.435931
9642.000000;0.436732
9641.000000;0.437763
9640.000000;0.439061
9639.000000;0.440508
9638.000000;0.441827
9637.000000;0.442794
9636.000000;0.443437
9635.000000;0.443990
9634.000000;0.444686
9633.000000;0.445632
9632.000000;0.446813
9631.000000;0.448113
9630.000000;0.449320
9629.000000;0.450211
9628.000000;0.450721
9627.000000;0.451030
9626.000000;0.451446
9625.000000;0.452184
9624.000000;0.453253
9623.000000;0.454522
9622.000000;0.455838
9621.000000;0.457084
9620.000000;0.458222
9619.000000;0.459314
9618.000000;0.460437
9617.000000;0.461542
9616.000000;0.462457
9615.000000;0.463084
9614.000000;0.463570
9613.000000;0.464191
9612.000000;0.465096
9611.000000;0.466181
9610.000000;0.467173
9609.000000;0.467835
9608.000000;0.468185
9607.000000;0.468547
9606.000000;0.469295
9605.000000;0.470427
9604.000000;0.471528
9603.000000;0.472286
9602.000000;0.472933
9601.000000;0.473945
9600.000000;0.475361
9599.000000;0.476666
9598.000000;0.477418
9597.000000;0.477756
9596.000000;0.478140
9595.000000;0.478781
9594.000000;0.479542
9593.000000;0.480278
9592.000000;0.481027
9591.000000;0.481883
9590.000000;0.482856
9589.000000;0.483881
9588.000000;0.484817
9587.000000;0.485423
9586.000000;0.485524
9585.000000;0.485313
9584.000000;0.485345
9583.000000;0.486116
9582.000000;0.487648
9581.000000;0.489502
9580.000000;0.491122
9579.000000;0.492148
9578.000000;0.492513
9577.000000;0.492461
9576.000000;0.492436
9575.000000;0.492834
9574.000000;0.493754
9573.000000;0.495049
9572.000000;0.496565
9571.000000;0.498222
9570.000000;0.499810
9569.000000;0.500913
9568.000000;0.501238
9567.000000;0.501023
9566.000000;0.500925
9565.000000;0.501417
9564.000000;0.502352
9563.000000;0.503148
9562.000000;0.503380
9561.000000;0.503177
9560.000000;0.503079
9559.000000;0.503572
9558.000000;0.504704
9557.000000;0.506082
9556.000000;0.507180
9555.000000;0.507707
9554.000000;0.507787
9553.000000;0.507836
9552.000000;0.508257
9551.000000;0.509163
9550.000000;0.510328
9549.000000;0.511451
9548.000000;0.512457
9547.000000;0.513432
9546.000000;0.514274
9545.000000;0.514641
9544.000000;0.514410
9543.000000;0.514011
9542.000000;0.514005
9541.000000;0.514364
9540.000000;0.514487
9539.000000;0.514018
9538.000000;0.513405
9537.000000;0.513441
9536.000000;0.514387
9535.000000;0.515751
9534.000000;0.516857
9533.000000;0.517512
9532.000000;0.518074
9531.000000;0.518978
9530.000000;0.520227
9529.000000;0.521344
9528.000000;0.521834
9527.000000;0.521726
9526.000000;0.521580
9525.000000;0.521971
9524.000000;0.522988
9523.000000;0.524229
9522.000000;0.525152
9521.000000;0.525452
9520.000000;0.525250
9519.000000;0.525001
9518.000000;0.525083
9517.000000;0.525418
9516.000000;0.525629
9515.000000;0.525623
9514.000000;0.525825
9513.000000;0.526643
9512.000000;0.527875
9511.000000;0.528868
9510.000000;0.529192
9509.000000;0.528961
9508.000000;0.528551
9507.000000;0.528264
9506.000000;0.528281
9505.000000;0.528682
9504.000000;0.529343
9503.000000;0.529969
9502.000000;0.530322
9501.000000;0.530401
9500.000000;0.530381
9499.000000;0.530476
9498.000000;0.530825
9497.000000;0.531353
9496.000000;0.531705
9495.000000;0.531498
9494.000000;0.530731
9493.000000;0.529821
9492.000000;0.529187
9491.000000;0.528921
9490.000000;0.528954
9489.000000;0.529350
9488.000000;0.530228
9487.000000;0.531471
9486.000000;0.532734
9485.000000;0.533745
9484.000000;0.534450
9483.000000;0.534822
9482.000000;0.534731
9481.000000;0.534147
9480.000000;0.533367
9479.000000;0.532852
9478.000000;0.532832
9477.000000;0.533185
9476.000000;0.533681
9475.000000;0.534175
9474.000000;0.534504
9473.000000;0.534397
9472.000000;0.533708
9471.000000;0.532709
9470.000000;0.531962
9469.000000;0.531829
9468.000000;0.532184
9467.000000;0.532619
9466.000000;0.532821
9465.000000;0.532758
9464.000000;0.532587
9463.000000;0.532479
9462.000000;0.532483
9461.000000;0.532533
9460.000000;0.532563
9459.000000;0.532573
9458.000000;0.532488
9457.000000;0.532127
9456.000000;0.531500
9455.000000;0.531088
9454.000000;0.531451
9453.000000;0.532478
9452.000000;0.533304
9451.000000;0.533212
9450.000000;0.532431
9449.000000;0.531796
9448.000000;0.531812
9447.000000;0.532290
9446.000000;0.532746
9445.000000;0.532843
9444.000000;0.532520
9443.000000;0.531974
9442.000000;0.531525
9441.000000;0.531288
9440.000000;0.531007
9439.000000;0.530428
9438.000000;0.529780
9437.000000;0.529566
9436.000000;0.529857
9435.000000;0.530112
9434.000000;0.529811
9433.000000;0.529046
9432.000000;0.528327
9431.000000;0.527987
9430.000000;0.527917
9429.000000;0.527760
9428.000000;0.527297
9427.000000;0.526714
9426.000000;0.526509
9425.000000;0.526942
9424.000000;0.527566
9423.000000;0.527554
9422.000000;0.526584
9421.000000;0.525227
9420.000000;0.524327
9419.000000;0.524244
9418.000000;0.524737
9417.000000;0.525311
9416.000000;0.525474
9415.000000;0.524936
9414.000000;0.523841
9413.000000;0.522714
9412.000000;0.521970
9411.000000;0.521544
9410.000000;0.521129
9409.000000;0.520592
9408.000000;0.519995
9407.000000;0.519349
9406.000000;0.518626
9405.000000;0.517923
9404.000000;0.517388
9403.000000;0.517056
9402.000000;0.516892
9401.000000;0.516858
9400.000000;0.516759
9399.000000;0.516225
9398.000000;0.515136
9397.000000;0.513951
9396.000000;0.513254
9395.000000;0.513074
9394.000000;0.512981
9393.000000;0.512788
9392.000000;0.512742
9391.000000;0.512986
9390.000000;0.513264
9389.000000;0.513317
9388.000000;0.513190
9387.000000;0.512951
9386.000000;0.512441
9385.000000;0.511580
9384.000000;0.510645
9383.000000;0.509937
9382.000000;0.509370
9381.000000;0.508645
9380.000000;0.507691
9379.000000;0.506673
9378.000000;0.505693
9377.000000;0.504750
9376.000000;0.503923
9375.000000;0.503318
9374.000000;0.502882
9373.000000;0.502466
9372.000000;0.502055
9371.000000;0.501716
9370.000000;0.501385
9369.000000;0.500927
9368.000000;0.500398
9367.000000;0.500017
9366.000000;0.499837
9365.000000;0.499648
9364.000000;0.499236
9363.000000;0.498601
9362.000000;0.497853
9361.000000;0.497073
9360.000000;0.496324
9359.000000;0.495664
9358.000000;0.495096
9357.000000;0.494625
9356.000000;0.494354
9355.000000;0.494342
9354.000000;0.494344
9353.000000;0.493919
9352.000000;0.492936
9351.000000;0.491807
9350.000000;0.491068
9349.000000;0.490822
9348.000000;0.490691
9347.000000;0.490206
9346.000000;0.489168
9345.000000;0.487730
9344.000000;0.486290
9343.000000;0.485245
9342.000000;0.484666
9341.000000;0.484236
9340.000000;0.483622
9339.000000;0.482835
9338.000000;0.482109
9337.000000;0.481473
9336.000000;0.480699
9335.000000;0.479695
9334.000000;0.478734
9333.000000;0.478145
9332.000000;0.477893
9331.000000;0.477639
9330.000000;0.477150
9329.000000;0.476500
9328.000000;0.475852
9327.000000;0.475214
9326.000000;0.474494
9325.000000;0.473696
9324.000000;0.472961
9323.000000;0.472422
9322.000000;0.472094
9321.000000;0.471862
9320.000000;0.471526
9319.000000;0.470900
9318.000000;0.469965
9317.000000;0.468912
9316.000000;0.467962
9315.000000;0.467152
9314.000000;0.466381
9313.000000;0.465638
9312.000000;0.465016
9311.000000;0.464529
9310.000000;0.464101
9309.000000;0.463763
9308.000000;0.463636
9307.000000;0.463612
9306.000000;0.463271
9305.000000;0.462357
9304.000000;0.461149
9303.000000;0.460123
9302.000000;0.459372
9301.000000;0.458639
9300.000000;0.457824
9299.000000;0.457129
9298.000000;0.456656
9297.000000;0.456185
9296.000000;0.455447
9295.000000;0.454392
9294.000000;0.453124
9293.000000;0.451820
9292.000000;0.450773
9291.000000;0.450253
9290.000000;0.450184
9289.000000;0.450157
9288.000000;0.449863
9287.000000;0.449314
9286.000000;0.448561
9285.000000;0.447522
9284.000000;0.446283
9283.000000;0.445249
9282.000000;0.444683
9281.000000;0.444315
9280.000000;0.443708
9279.000000;0.442841
9278.000000;0.441976
9277.000000;0.441105
9276.000000;0.439972
9275.000000;0.438600
9274.000000;0.437406
9273.000000;0.436697
9272.000000;0.436365
9271.000000;0.436146
9270.000000;0.435901
9269.000000;0.435514
9268.000000;0.434803
9267.000000;0.433696
9266.000000;0.432351
9265.000000;0.431027
9264.000000;0.429951
9263.000000;0.429292
9262.000000;0.429002
9261.000000;0.428684
9260.000000;0.427905
9259.000000;0.426797
9258.000000;0.426017
9257.000000;0.425911
9256.000000;0.426005
9255.000000;0.425589
9254.000000;0.424600
9253.000000;0.423564
9252.000000;0.422809
9251.000000;0.422153
9250.000000;0.421391
9249.000000;0.420676
9248.000000;0.420239
9247.000000;0.419977
9246.000000;0.419561
9245.000000;0.418861
9244.000000;0.418091
9243.000000;0.417550
9242.000000;0.417296
9241.000000;0.417080
9240.000000;0.416548
9239.000000;0.415532
9238.000000;0.414203
9237.000000;0.412930
9236.000000;0.411947
9235.000000;0.411164
9234.000000;0.410306
9233.000000;0.409242
9232.000000;0.408140
9231.000000;0.407312
9230.000000;0.406915
9229.000000;0.406799
9228.000000;0.406643
9227.000000;0.406201
9226.000000;0.405464
9225.000000;0.404622
9224.000000;0.403901
9223.000000;0.403413
9222.000000;0.403112
9221.000000;0.402869
9220.000000;0.402585
9219.000000;0.402179
9218.000000;0.401506
9217.000000;0.400416
9216.000000;0.398999
9215.000000;0.397665
9214.000000;0.396783
9213.000000;0.396241
9212.000000;0.395540
9211.000000;0.394411
9210.000000;0.393195
9209.000000;0.392482
9208.000000;0.392459
9207.000000;0.392752
9206.000000;0.392869
9205.000000;0.392633
9204.000000;0.392161
9203.000000;0.391570
9202.000000;0.390865
9201.000000;0.390079
9200.000000;0.389350
9199.000000;0.388735
9198.000000;0.388038
9197.000000;0.386964
9196.000000;0.385478
9195.000000;0.383907
9194.000000;0.382659
9193.000000;0.381919
9192.000000;0.381632
9191.000000;0.381584
9190.000000;0.381419
9189.000000;0.380776
9188.000000;0.379635
9187.000000;0.378453
9186.000000;0.377717
9185.000000;0.377429
9184.000000;0.377237
9183.000000;0.376984
9182.000000;0.376791
9181.000000;0.376573
9180.000000;0.375915
9179.000000;0.374641
9178.000000;0.373210
9177.000000;0.372247
9176.000000;0.371857
9175.000000;0.371654
9174.000000;0.371290
9173.000000;0.370673
9172.000000;0.369821
9171.000000;0.368848
9170.000000;0.368071
9169.000000;0.367779
9168.000000;0.367808
9167.000000;0.367610
9166.000000;0.366851
9165.000000;0.365754
9164.000000;0.364773
9163.000000;0.364145
9162.000000;0.363836
9161.000000;0.363686
9160.000000;0.363445
9159.000000;0.362853
9158.000000;0.361880
9157.000000;0.360825
9156.000000;0.360021
9155.000000;0.359500
9154.000000;0.359029
9153.000000;0.358429
9152.000000;0.357712
9151.000000;0.356990
9150.000000;0.356361
9149.000000;0.355868
9148.000000;0.355453
9147.000000;0.354964
9146.000000;0.354310
9145.000000;0.353603
9144.000000;0.353059
9143.000000;0.352751
9142.000000;0.352539
9141.000000;0.352225
9140.000000;0.351701
9139.000000;0.350954
9138.000000;0.350002
9137.000000;0.348908
9136.000000;0.347796
9135.000000;0.346842
9134.000000;0.346208
9133.000000;0.345923
9132.000000;0.345802
9131.000000;0.345549
9130.000000;0.345045
9129.000000;0.344482
9128.000000;0.344100
9127.000000;0.343825
9126.000000;0.343324
9125.000000;0.342456
9124.000000;0.341487
9123.000000;0.340750
9122.000000;0.340221
9121.000000;0.339615
9120.000000;0.338855
9119.000000;0.338255
9118.000000;0.338152
9117.000000;0.338455
9116.000000;0.338680
9115.000000;0.338399
9114.000000;0.337602
9113.000000;0.336597
9112.000000;0.335657
9111.000000;0.334823
9110.000000;0.334011
9109.000000;0.333196
9108.000000;0.332430
9107.000000;0.331741
9106.000000;0.331084
9105.000000;0.330427
9104.000000;0.329806
9103.000000;0.329274
9102.000000;0.328822
9101.000000;0.328406
9100.000000;0.328012
9099.000000;0.327682
9098.000000;0.327471
9097.000000;0.327395
9096.000000;0.327374
9095.000000;0.327219
9094.000000;0.326727
9093.000000;0.325865
9092.000000;0.324843
9091.000000;0.323956
9090.000000;0.323341
9089.000000;0.322899
9088.000000;0.322439
9087.000000;0.321853
9086.000000;0.321205
9085.000000;0.320678
9084.000000;0.320391
9083.000000;0.320212
9082.000000;0.319789
9081.000000;0.318883
9080.000000;0.317663
9079.000000;0.316618
9078.000000;0.316135
9077.000000;0.316208
9076.000000;0.316506
9075.000000;0.316644
9074.000000;0.316422
9073.000000;0.315930
9072.000000;0.315419
9071.000000;0.315017
9070.000000;0.314575
9069.000000;0.313880
9068.000000;0.312982
9067.000000;0.312143
9066.000000;0.311470
9065.000000;0.310799
9064.000000;0.310032
9063.000000;0.309374
9062.000000;0.309084
9061.000000;0.309104
9060.000000;0.309100
9059.000000;0.308792
9058.000000;0.308125
9057.000000;0.307240
9056.000000;0.306441
9055.000000;0.306070
9054.000000;0.306202
9053.000000;0.306449
