Criado como novo conjunto de dados;"e2410_daniel_v2.spp","8282.4 Secs"
cm-1;Abs
10000.000000;0.198092
9999.000000;0.197483
9998.000000;0.197122
9997.000000;0.196914
9996.000000;0.196681
9995.000000;0.196331
9994.000000;0.195894
9993.000000;0.195425
9992.000000;0.194918
9991.000000;0.194334
9990.000000;0.193694
9989.000000;0.193076
9988.000000;0.192539
9987.000000;0.192076
9986.000000;0.191665
9985.000000;0.191313
9984.000000;0.191009
9983.000000;0.190686
9982.000000;0.190262
9981.000000;0.189734
9980.000000;0.189161
9979.000000;0.188594
9978.000000;0.188068
9977.000000;0.187646
9976.000000;0.187363
9975.000000;0.187120
9974.000000;0.186716
9973.000000;0.186066
9972.000000;0.185313
9971.000000;0.184684
9970.000000;0.184251
9969.000000;0.183903
9968.000000;0.183478
9967.000000;0.182878
9966.000000;0.182116
9965.000000;0.181327
9964.000000;0.180693
9963.000000;0.180279
9962.000000;0.179961
9961.000000;0.179588
9960.000000;0.179138
9959.000000;0.178656
9958.000000;0.178093
9957.000000;0.177394
9956.000000;0.176687
9955.000000;0.176230
9954.000000;0.176097
9953.000000;0.176060
9952.000000;0.175843
9951.000000;0.175404
9950.000000;0.174887
9949.000000;0.174407
9948.000000;0.173975
9947.000000;0.173562
9946.000000;0.173154
9945.000000;0.172739
9944.000000;0.172324
9943.000000;0.171926
9942.000000;0.171526
9941.000000;0.171047
9940.000000;0.170423
9939.000000;0.169674
9938.000000;0.168884
9937.000000;0.168158
9936.000000;0.167596
9935.000000;0.167258
9934.000000;0.167079
9933.000000;0.166893
9932.000000;0.166586
9931.000000;0.166185
9930.000000;0.165765
9929.000000;0.165312
9928.000000;0.164744
9927.000000;0.164051
9926.000000;0.163332
9925.000000;0.162712
9924.000000;0.162256
9923.000000;0.161943
9922.000000;0.161682
9921.000000;0.161349
9920.000000;0.160864
9919.000000;0.160240
9918.000000;0.159556
9917.000000;0.158882
9916.000000;0.158242
9915.000000;0.157623
9914.000000;0.157012
9913.000000;0.156443
9912.000000;0.155994
9911.000000;0.155705
9910.000000;0.155475
9909.000000;0.155140
9908.000000;0.154650
9907.000000;0.154122
9906.000000;0.153669
9905.000000;0.153265
9904.000000;0.152823
9903.000000;0.152337
9902.000000;0.151874
9901.000000;0.151461
9900.000000;0.151080
9899.000000;0.150743
9898.000000;0.150471
9897.000000;0.150210
9896.000000;0.149839
9895.000000;0.149286
9894.000000;0.148603
9893.000000;0.147921
9892.000000;0.147370
9891.000000;0.146997
9890.000000;0.146711
9889.000000;0.146320
9888.000000;0.145697
9887.000000;0.144908
9886.000000;0.144148
9885.000000;0.143557
9884.000000;0.143159
9883.000000;0.142927
9882.000000;0.142805
9881.000000;0.142658
9880.000000;0.142304
9879.000000;0.141678
9878.000000;0.140918
9877.000000;0.140239
9876.000000;0.139739
9875.000000;0.139329
9874.000000;0.138873
9873.000000;0.138331
9872.000000;0.137801
9871.000000;0.137400
9870.000000;0.137124
9869.000000;0.136834
9868.000000;0.136391
9867.000000;0.135807
9866.000000;0.135219
9865.000000;0.134748
9864.000000;0.134396
9863.000000;0.134067
9862.000000;0.133669
9861.000000;0.133181
9860.000000;0.132644
9859.000000;0.132080
9858.000000;0.131455
9857.000000;0.130740
9856.000000;0.130028
9855.000000;0.129518
9854.000000;0.129312
9853.000000;0.129275
9852.000000;0.129144
9851.000000;0.128772
9850.000000;0.128228
9849.000000;0.127667
9848.000000;0.127193
9847.000000;0.126812
9846.000000;0.126452
9845.000000;0.125999
9844.000000;0.125407
9843.000000;0.124780
9842.000000;0.124278
9841.000000;0.123922
9840.000000;0.123549
9839.000000;0.123026
9838.000000;0.122421
9837.000000;0.121901
9836.000000;0.121506
9835.000000;0.121121
9834.000000;0.120650
9833.000000;0.120134
9832.000000;0.119670
9831.000000;0.119280
9830.000000;0.118900
9829.000000;0.118477
9828.000000;0.118006
9827.000000;0.117493
9826.000000;0.116934
9825.000000;0.116364
9824.000000;0.115872
9823.000000;0.115513
9822.000000;0.115220
9821.000000;0.114859
9820.000000;0.114391
9819.000000;0.113911
9818.000000;0.113508
9817.000000;0.113123
9816.000000;0.112618
9815.000000;0.111977
9814.000000;0.111341
9813.000000;0.110859
9812.000000;0.110538
9811.000000;0.110271
9810.000000;0.109960
9809.000000;0.109567
9808.000000;0.109092
9807.000000;0.108549
9806.000000;0.107952
9805.000000;0.107305
9804.000000;0.106608
9803.000000;0.105906
9802.000000;0.105312
9801.000000;0.104920
9800.000000;0.104702
9799.000000;0.104504
9798.000000;0.104176
9797.000000;0.103687
9796.000000;0.103129
9795.000000;0.102615
9794.000000;0.102189
9793.000000;0.101814
9792.000000;0.101407
9791.000000;0.100923
9790.000000;0.100405
9789.000000;0.099966
9788.000000;0.099679
9787.000000;0.099479
9786.000000;0.099197
9785.000000;0.098722
9784.000000;0.098108
9783.000000;0.097520
9782.000000;0.097071
9781.000000;0.096739
9780.000000;0.096435
9779.000000;0.096105
9778.000000;0.095734
9777.000000;0.095287
9776.000000;0.094694
9775.000000;0.093930
9774.000000;0.093100
9773.000000;0.092397
9772.000000;0.091977
9771.000000;0.091825
9770.000000;0.091774
9769.000000;0.091629
9768.000000;0.091304
9767.000000;0.090853
9766.000000;0.090375
9765.000000;0.089934
9764.000000;0.089529
9763.000000;0.089146
9762.000000;0.088792
9761.000000;0.088482
9760.000000;0.088181
9759.000000;0.087801
9758.000000;0.087262
9757.000000;0.086582
9756.000000;0.085866
9755.000000;0.085224
9754.000000;0.084698
9753.000000;0.084279
9752.000000;0.083943
9751.000000;0.083659
9750.000000;0.083370
9749.000000;0.083038
9748.000000;0.082661
9747.000000;0.082240
9746.000000;0.081735
9745.000000;0.081123
9744.000000;0.080471
9743.000000;0.079907
9742.000000;0.079507
9741.000000;0.079224
9740.000000;0.078933
9739.000000;0.078520
9738.000000;0.077947
9737.000000;0.077292
9736.000000;0.076700
9735.000000;0.076255
9734.000000;0.075892
9733.000000;0.075490
9732.000000;0.075032
9731.000000;0.074614
9730.000000;0.074297
9729.000000;0.074028
9728.000000;0.073718
9727.000000;0.073319
9726.000000;0.072802
9725.000000;0.072157
9724.000000;0.071484
9723.000000;0.070974
9722.000000;0.070718
9721.000000;0.070565
9720.000000;0.070253
9719.000000;0.069667
9718.000000;0.068906
9717.000000;0.068142
9716.000000;0.067498
9715.000000;0.067033
9714.000000;0.066743
9713.000000;0.066551
9712.000000;0.066346
9711.000000;0.066075
9710.000000;0.065768
9709.000000;0.065469
9708.000000;0.065179
9707.000000;0.064864
9706.000000;0.064483
9705.000000;0.064005
9704.000000;0.063438
9703.000000;0.062841
9702.000000;0.062307
9701.000000;0.061894
9700.000000;0.061581
9699.000000;0.061283
9698.000000;0.060901
9697.000000;0.060408
9696.000000;0.059885
9695.000000;0.059461
9694.000000;0.059173
9693.000000;0.058909
9692.000000;0.058528
9691.000000;0.058002
9690.000000;0.057424
9689.000000;0.056894
9688.000000;0.056447
9687.000000;0.056087
9686.000000;0.055809
9685.000000;0.055591
9684.000000;0.055385
9683.000000;0.055127
9682.000000;0.054751
9681.000000;0.054220
9680.000000;0.053580
9679.000000;0.052957
9678.000000;0.052454
9677.000000;0.052065
9676.000000;0.051713
9675.000000;0.051347
9674.000000;0.050953
9673.000000;0.050518
9672.000000;0.050047
9671.000000;0.049605
9670.000000;0.049248
9669.000000;0.048922
9668.000000;0.048498
9667.000000;0.047937
9666.000000;0.047352
9665.000000;0.046879
9664.000000;0.046540
9663.000000;0.046269
9662.000000;0.045997
9661.000000;0.045680
9660.000000;0.045294
9659.000000;0.044839
9658.000000;0.044341
9657.000000;0.043822
9656.000000;0.043291
9655.000000;0.042788
9654.000000;0.042368
9653.000000;0.042028
9652.000000;0.041688
9651.000000;0.041287
9650.000000;0.040859
9649.000000;0.040464
9648.000000;0.040093
9647.000000;0.039702
9646.000000;0.039299
9645.000000;0.038927
9644.000000;0.038582
9643.000000;0.038205
9642.000000;0.037775
9641.000000;0.037359
9640.000000;0.037029
9639.000000;0.036782
9638.000000;0.036537
9637.000000;0.036208
9636.000000;0.035760
9635.000000;0.035221
9634.000000;0.034645
9633.000000;0.034076
9632.000000;0.033529
9631.000000;0.033024
9630.000000;0.032613
9629.000000;0.032330
9628.000000;0.032127
9627.000000;0.031885
9626.000000;0.031521
9625.000000;0.031059
9624.000000;0.030579
9623.000000;0.030127
9622.000000;0.029697
9621.000000;0.029275
9620.000000;0.028874
9619.000000;0.028493
9618.000000;0.028084
9617.000000;0.027583
9616.000000;0.026994
9615.000000;0.026421
9614.000000;0.025992
9613.000000;0.025750
9612.000000;0.025612
9611.000000;0.025444
9610.000000;0.025165
9609.000000;0.024788
9608.000000;0.024382
9607.000000;0.024012
9606.000000;0.023702
9605.000000;0.023428
9604.000000;0.023125
9603.000000;0.022729
9602.000000;0.022223
9601.000000;0.021661
9600.000000;0.021130
9599.000000;0.020682
9598.000000;0.020296
9597.000000;0.019919
9596.000000;0.019532
9595.000000;0.019176
9594.000000;0.018901
9593.000000;0.018703
9592.000000;0.018497
9591.000000;0.018190
9590.000000;0.017764
9589.000000;0.017296
9588.000000;0.016885
9587.000000;0.016558
9586.000000;0.016256
9585.000000;0.015897
9584.000000;0.015446
9583.000000;0.014928
9582.000000;0.014400
9581.000000;0.013914
9580.000000;0.013492
9579.000000;0.013118
9578.000000;0.012757
9577.000000;0.012398
9576.000000;0.012053
9575.000000;0.011716
9574.000000;0.011348
9573.000000;0.010928
9572.000000;0.010517
9571.000000;0.010195
9570.000000;0.009958
9569.000000;0.009682
9568.000000;0.009246
9567.000000;0.008659
9566.000000;0.008063
9565.000000;0.007588
9564.000000;0.007233
9563.000000;0.006885
9562.000000;0.006450
9561.000000;0.005962
9560.000000;0.005538
9559.000000;0.005239
9558.000000;0.005010
9557.000000;0.004759
9556.000000;0.004464
9555.000000;0.004165
9554.000000;0.003878
9553.000000;0.003570
9552.000000;0.003219
9551.000000;0.002843
9550.000000;0.002468
9549.000000;0.002094
9548.000000;0.001724
9547.000000;0.001369
9546.000000;0.001018
9545.000000;0.000624
9544.000000;0.000156
9543.000000;-0.000361
9542.000000;-0.000865
9541.000000;-0.001303
9540.000000;-0.001626
9539.000000;-0.001813
9538.000000;-0.001905
9537.000000;-0.002032
9536.000000;-0.002321
9535.000000;-0.002800
9534.000000;-0.003385
9533.000000;-0.003956
9532.000000;-0.004436
9531.000000;-0.004816
9530.000000;-0.005139
9529.000000;-0.005455
9528.000000;-0.005789
9527.000000;-0.006138
9526.000000;-0.006514
9525.000000;-0.006936
9524.000000;-0.007397
9523.000000;-0.007855
9522.000000;-0.008277
9521.000000;-0.008663
9520.000000;-0.009005
9519.000000;-0.009277
9518.000000;-0.009499
9517.000000;-0.009769
9516.000000;-0.010183
9515.000000;-0.010713
9514.000000;-0.011230
9513.000000;-0.011640
9512.000000;-0.011966
9511.000000;-0.012295
9510.000000;-0.012676
9509.000000;-0.013094
9508.000000;-0.013498
9507.000000;-0.013833
9506.000000;-0.014063
9505.000000;-0.014202
9504.000000;-0.014322
9503.000000;-0.014525
9502.000000;-0.014875
9501.000000;-0.015355
9500.000000;-0.015871
9499.000000;-0.016343
9498.000000;-0.016763
9497.000000;-0.017172
9496.000000;-0.017584
9495.000000;-0.017977
9494.000000;-0.018340
9493.000000;-0.018689
9492.000000;-0.019024
9491.000000;-0.019319
9490.000000;-0.019596
9489.000000;-0.019947
9488.000000;-0.020432
9487.000000;-0.020981
9486.000000;-0.021438
9485.000000;-0.021716
9484.000000;-0.021863
9483.000000;-0.021995
9482.000000;-0.022213
9481.000000;-0.022558
9480.000000;-0.022992
9479.000000;-0.023419
9478.000000;-0.023772
9477.000000;-0.024063
9476.000000;-0.024342
9475.000000;-0.024612
9474.000000;-0.024839
9473.000000;-0.025036
9472.000000;-0.025281
9471.000000;-0.025636
9470.000000;-0.026078
9469.000000;-0.026536
9468.000000;-0.026953
9467.000000;-0.027315
9466.000000;-0.027645
9465.000000;-0.027981
9464.000000;-0.028338
9463.000000;-0.028688
9462.000000;-0.029008
9461.000000;-0.029319
9460.000000;-0.029653
9459.000000;-0.029984
9458.000000;-0.030267
9457.000000;-0.030524
9456.000000;-0.030828
9455.000000;-0.031184
9454.000000;-0.031504
9453.000000;-0.031734
9452.000000;-0.031942
9451.000000;-0.032237
9450.000000;-0.032635
9449.000000;-0.033069
9448.000000;-0.033482
9447.000000;-0.033882
9446.000000;-0.034299
9445.000000;-0.034730
9444.000000;-0.035128
9443.000000;-0.035441
9442.000000;-0.035660
9441.000000;-0.035859
9440.000000;-0.036132
9439.000000;-0.036502
9438.000000;-0.036907
9437.000000;-0.037298
9436.000000;-0.037709
9435.000000;-0.038182
9434.000000;-0.038674
9433.000000;-0.039079
9432.000000;-0.039345
9431.000000;-0.039519
9430.000000;-0.039684
9429.000000;-0.039886
9428.000000;-0.040129
9427.000000;-0.040392
9426.000000;-0.040655
9425.000000;-0.040916
9424.000000;-0.041206
9423.000000;-0.041548
9422.000000;-0.041926
9421.000000;-0.042296
9420.000000;-0.042621
9419.000000;-0.042885
9418.000000;-0.043100
9417.000000;-0.043322
9416.000000;-0.043642
9415.000000;-0.044116
9414.000000;-0.044704
9413.000000;-0.045290
9412.000000;-0.045755
9411.000000;-0.046042
9410.000000;-0.046172
9409.000000;-0.046254
9408.000000;-0.046441
9407.000000;-0.046814
9406.000000;-0.047301
9405.000000;-0.047767
9404.000000;-0.048157
9403.000000;-0.048514
9402.000000;-0.048855
9401.000000;-0.049117
9400.000000;-0.049258
9399.000000;-0.049360
9398.000000;-0.049561
9397.000000;-0.049912
9396.000000;-0.050340
9395.000000;-0.050737
9394.000000;-0.051042
9393.000000;-0.051268
9392.000000;-0.051486
9391.000000;-0.051785
9390.000000;-0.052193
9389.000000;-0.052647
9388.000000;-0.053047
9387.000000;-0.053350
9386.000000;-0.053589
9385.000000;-0.053821
9384.000000;-0.054077
9383.000000;-0.054351
9382.000000;-0.054613
9381.000000;-0.054833
9380.000000;-0.055027
9379.000000;-0.055271
9378.000000;-0.055637
9377.000000;-0.056100
9376.000000;-0.056547
9375.000000;-0.056890
9374.000000;-0.057152
9373.000000;-0.057420
9372.000000;-0.057742
9371.000000;-0.058079
9370.000000;-0.058361
9369.000000;-0.058559
9368.000000;-0.058729
9367.000000;-0.058968
9366.000000;-0.059333
9365.000000;-0.059793
9364.000000;-0.060261
9363.000000;-0.060668
9362.000000;-0.060989
9361.000000;-0.061230
9360.000000;-0.061433
9359.000000;-0.061679
9358.000000;-0.062031
9357.000000;-0.062434
9356.000000;-0.062739
9355.000000;-0.062865
9354.000000;-0.062916
9353.000000;-0.063081
9352.000000;-0.063429
9351.000000;-0.063849
9350.000000;-0.064207
9349.000000;-0.064497
9348.000000;-0.064807
9347.000000;-0.065181
9346.000000;-0.065552
9345.000000;-0.065821
9344.000000;-0.065966
9343.000000;-0.066073
9342.000000;-0.066257
9341.000000;-0.066568
9340.000000;-0.066952
9339.000000;-0.067318
9338.000000;-0.067630
9337.000000;-0.067924
9336.000000;-0.068237
9335.000000;-0.068545
9334.000000;-0.068799
9333.000000;-0.068998
9332.000000;-0.069191
9331.000000;-0.069417
9330.000000;-0.069670
9329.000000;-0.069946
9328.000000;-0.070276
9327.000000;-0.070682
9326.000000;-0.071113
9325.000000;-0.071473
9324.000000;-0.071730
9323.000000;-0.071952
9322.000000;-0.072231
9321.000000;-0.072571
9320.000000;-0.072900
9319.000000;-0.073164
9318.000000;-0.073380
9317.000000;-0.073594
9316.000000;-0.073827
9315.000000;-0.074084
9314.000000;-0.074372
9313.000000;-0.074684
9312.000000;-0.074972
9311.000000;-0.075193
9310.000000;-0.075373
9309.000000;-0.075598
9308.000000;-0.075922
9307.000000;-0.076290
9306.000000;-0.076600
9305.000000;-0.076821
9304.000000;-0.077044
9303.000000;-0.077378
9302.000000;-0.077813
9301.000000;-0.078219
9300.000000;-0.078496
9299.000000;-0.078689
9298.000000;-0.078930
9297.000000;-0.079261
9296.000000;-0.079596
9295.000000;-0.079842
9294.000000;-0.080005
9293.000000;-0.080144
9292.000000;-0.080274
9291.000000;-0.080386
9290.000000;-0.080527
9289.000000;-0.080794
9288.000000;-0.081230
9287.000000;-0.081763
9286.000000;-0.082262
9285.000000;-0.082638
9284.000000;-0.082890
9283.000000;-0.083089
9282.000000;-0.083315
9281.000000;-0.083597
9280.000000;-0.083887
9279.000000;-0.084119
9278.000000;-0.084288
9277.000000;-0.084456
9276.000000;-0.084670
9275.000000;-0.084908
9274.000000;-0.085122
9273.000000;-0.085308
9272.000000;-0.085514
9271.000000;-0.085796
9270.000000;-0.086164
9269.000000;-0.086575
9268.000000;-0.086964
9267.000000;-0.087278
9266.000000;-0.087495
9265.000000;-0.087617
9264.000000;-0.087683
9263.000000;-0.087768
9262.000000;-0.087948
9261.000000;-0.088234
9260.000000;-0.088566
9259.000000;-0.088879
9258.000000;-0.089158
9257.000000;-0.089423
9256.000000;-0.089689
9255.000000;-0.089969
9254.000000;-0.090279
9253.000000;-0.090606
9252.000000;-0.090896
9251.000000;-0.091119
9250.000000;-0.091331
9249.000000;-0.091605
9248.000000;-0.091923
9247.000000;-0.092192
9246.000000;-0.092373
9245.000000;-0.092519
9244.000000;-0.092685
9243.000000;-0.092862
9242.000000;-0.093036
9241.000000;-0.093234
9240.000000;-0.093475
9239.000000;-0.093718
9238.000000;-0.093921
9237.000000;-0.094120
9236.000000;-0.094399
9235.000000;-0.094787
9234.000000;-0.095217
9233.000000;-0.095587
9232.000000;-0.095841
9231.000000;-0.096002
9230.000000;-0.096143
9229.000000;-0.096315
9228.000000;-0.096496
9227.000000;-0.096629
9226.000000;-0.096715
9225.000000;-0.096826
9224.000000;-0.097040
9223.000000;-0.097373
9222.000000;-0.097786
9221.000000;-0.098225
9220.000000;-0.098628
9219.000000;-0.098934
9218.000000;-0.099140
9217.000000;-0.099314
9216.000000;-0.099525
9215.000000;-0.099785
9214.000000;-0.100061
9213.000000;-0.100321
9212.000000;-0.100548
9211.000000;-0.100732
9210.000000;-0.100901
9209.000000;-0.101116
9208.000000;-0.101400
9207.000000;-0.101694
9206.000000;-0.101927
9205.000000;-0.102103
9204.000000;-0.102293
9203.000000;-0.102536
9202.000000;-0.102801
9201.000000;-0.103040
9200.000000;-0.103235
9199.000000;-0.103393
9198.000000;-0.103527
9197.000000;-0.103656
9196.000000;-0.103812
9195.000000;-0.104028
9194.000000;-0.104326
9193.000000;-0.104694
9192.000000;-0.105061
9191.000000;-0.105340
9190.000000;-0.105524
9189.000000;-0.105707
9188.000000;-0.105968
9187.000000;-0.106261
9186.000000;-0.106467
9185.000000;-0.106542
9184.000000;-0.106562
9183.000000;-0.106625
9182.000000;-0.106766
9181.000000;-0.106973
9180.000000;-0.107231
9179.000000;-0.107514
9178.000000;-0.107793
9177.000000;-0.108057
9176.000000;-0.108330
9175.000000;-0.108632
9174.000000;-0.108952
9173.000000;-0.109266
9172.000000;-0.109550
9171.000000;-0.109764
9170.000000;-0.109877
9169.000000;-0.109918
9168.000000;-0.109968
9167.000000;-0.110085
9166.000000;-0.110261
9165.000000;-0.110479
9164.000000;-0.110774
9163.000000;-0.111181
9162.000000;-0.111649
9161.000000;-0.112053
9160.000000;-0.112313
9159.000000;-0.112456
9158.000000;-0.112579
9157.000000;-0.112735
9156.000000;-0.112906
9155.000000;-0.113062
9154.000000;-0.113229
9153.000000;-0.113464
9152.000000;-0.113775
9151.000000;-0.114072
9150.000000;-0.114248
9149.000000;-0.114293
9148.000000;-0.114300
9147.000000;-0.114370
9146.000000;-0.114533
9145.000000;-0.114769
9144.000000;-0.115054
9143.000000;-0.115361
9142.000000;-0.115656
9141.000000;-0.115918
9140.000000;-0.116148
9139.000000;-0.116339
9138.000000;-0.116469
9137.000000;-0.116564
9136.000000;-0.116722
9135.000000;-0.117028
9134.000000;-0.117425
9133.000000;-0.117749
9132.000000;-0.117898
9131.000000;-0.117931
9130.000000;-0.117977
9129.000000;-0.118100
9128.000000;-0.118274
9127.000000;-0.118466
9126.000000;-0.118665
9125.000000;-0.118860
9124.000000;-0.119027
9123.000000;-0.119171
9122.000000;-0.119332
9121.000000;-0.119545
9120.000000;-0.119813
9119.000000;-0.120125
9118.000000;-0.120474
9117.000000;-0.120831
9116.000000;-0.121138
9115.000000;-0.121341
9114.000000;-0.121438
9113.000000;-0.121480
9112.000000;-0.121528
9111.000000;-0.121627
9110.000000;-0.121797
9109.000000;-0.122034
9108.000000;-0.122317
9107.000000;-0.122617
9106.000000;-0.122906
9105.000000;-0.123169
9104.000000;-0.123400
9103.000000;-0.123596
9102.000000;-0.123751
9101.000000;-0.123860
9100.000000;-0.123956
9099.000000;-0.124111
9098.000000;-0.124370
9097.000000;-0.124671
9096.000000;-0.124883
9095.000000;-0.124951
9094.000000;-0.124965
9093.000000;-0.125060
9092.000000;-0.125286
9091.000000;-0.125590
9090.000000;-0.125902
9089.000000;-0.126164
9088.000000;-0.126335
9087.000000;-0.126415
9086.000000;-0.126465
9085.000000;-0.126549
9084.000000;-0.126673
9083.000000;-0.126815
9082.000000;-0.127008
9081.000000;-0.127308
9080.000000;-0.127692
9079.000000;-0.128045
9078.000000;-0.128290
9077.000000;-0.128460
9076.000000;-0.128616
9075.000000;-0.128762
