Criado como novo conjunto de dados;"e2410_daniel_v2.spp","13502.4 Secs"
cm-1;Abs
10000.000000;0.587214
9999.000000;0.586822
9998.000000;0.586431
9997.000000;0.586040
9996.000000;0.585649
9995.000000;0.585260
9994.000000;0.584869
9993.000000;0.584481
9992.000000;0.584089
9991.000000;0.583705
9990.000000;0.583307
9989.000000;0.582968
9988.000000;0.582654
9987.000000;0.582200
9986.000000;0.581668
9985.000000;0.581185
9984.000000;0.580641
9983.000000;0.579818
9982.000000;0.578843
9981.000000;0.578131
9980.000000;0.577837
9979.000000;0.577669
9978.000000;0.577317
9977.000000;0.576781
9976.000000;0.576225
9975.000000;0.575770
9974.000000;0.575492
9973.000000;0.575372
9972.000000;0.575166
9971.000000;0.574570
9970.000000;0.573618
9969.000000;0.572686
9968.000000;0.572053
9967.000000;0.571664
9966.000000;0.571352
9965.000000;0.571048
9964.000000;0.570712
9963.000000;0.570309
9962.000000;0.569915
9961.000000;0.569651
9960.000000;0.569430
9959.000000;0.568997
9958.000000;0.568262
9957.000000;0.567418
9956.000000;0.566675
9955.000000;0.566088
9954.000000;0.565651
9953.000000;0.565348
9952.000000;0.565062
9951.000000;0.564657
9950.000000;0.564164
9949.000000;0.563725
9948.000000;0.563334
9947.000000;0.562869
9946.000000;0.562358
9945.000000;0.561948
9944.000000;0.561590
9943.000000;0.561053
9942.000000;0.560293
9941.000000;0.559552
9940.000000;0.558995
9939.000000;0.558502
9938.000000;0.557905
9937.000000;0.557220
9936.000000;0.556564
9935.000000;0.556020
9934.000000;0.555654
9933.000000;0.555488
9932.000000;0.555385
9931.000000;0.555143
9930.000000;0.554725
9929.000000;0.554236
9928.000000;0.553685
9927.000000;0.553004
9926.000000;0.552284
9925.000000;0.551723
9924.000000;0.551320
9923.000000;0.550865
9922.000000;0.550256
9921.000000;0.549587
9920.000000;0.548897
9919.000000;0.548122
9918.000000;0.547336
9917.000000;0.546773
9916.000000;0.546520
9915.000000;0.546423
9914.000000;0.546340
9913.000000;0.546235
9912.000000;0.545968
9911.000000;0.545327
9910.000000;0.544357
9909.000000;0.543418
9908.000000;0.542755
9907.000000;0.542265
9906.000000;0.541780
9905.000000;0.541330
9904.000000;0.540986
9903.000000;0.540691
9902.000000;0.540414
9901.000000;0.540260
9900.000000;0.540260
9899.000000;0.540198
9898.000000;0.539812
9897.000000;0.539063
9896.000000;0.538100
9895.000000;0.537120
9894.000000;0.536324
9893.000000;0.535850
9892.000000;0.535625
9891.000000;0.535400
9890.000000;0.535034
9889.000000;0.534607
9888.000000;0.534207
9887.000000;0.533786
9886.000000;0.533291
9885.000000;0.532769
9884.000000;0.532270
9883.000000;0.531772
9882.000000;0.531280
9881.000000;0.530860
9880.000000;0.530502
9879.000000;0.530103
9878.000000;0.529624
9877.000000;0.529117
9876.000000;0.528552
9875.000000;0.527806
9874.000000;0.526905
9873.000000;0.526073
9872.000000;0.525462
9871.000000;0.524992
9870.000000;0.524545
9869.000000;0.524153
9868.000000;0.523868
9867.000000;0.523570
9866.000000;0.523077
9865.000000;0.522370
9864.000000;0.521649
9863.000000;0.521158
9862.000000;0.520994
9861.000000;0.521009
9860.000000;0.520910
9859.000000;0.520527
9858.000000;0.519970
9857.000000;0.519459
9856.000000;0.519061
9855.000000;0.518703
9854.000000;0.518342
9853.000000;0.517961
9852.000000;0.517468
9851.000000;0.516808
9850.000000;0.516146
9849.000000;0.515715
9848.000000;0.515507
9847.000000;0.515295
9846.000000;0.514954
9845.000000;0.514561
9844.000000;0.514181
9843.000000;0.513768
9842.000000;0.513299
9841.000000;0.512807
9840.000000;0.512280
9839.000000;0.511687
9838.000000;0.511088
9837.000000;0.510532
9836.000000;0.509897
9835.000000;0.509062
9834.000000;0.508212
9833.000000;0.507665
9832.000000;0.507393
9831.000000;0.507012
9830.000000;0.506320
9829.000000;0.505560
9828.000000;0.505025
9827.000000;0.504665
9826.000000;0.504239
9825.000000;0.503681
9824.000000;0.503125
9823.000000;0.502713
9822.000000;0.502490
9821.000000;0.502369
9820.000000;0.502130
9819.000000;0.501566
9818.000000;0.500715
9817.000000;0.499865
9816.000000;0.499260
9815.000000;0.498885
9814.000000;0.498580
9813.000000;0.498233
9812.000000;0.497837
9811.000000;0.497473
9810.000000;0.497253
9809.000000;0.497177
9808.000000;0.497047
9807.000000;0.496645
9806.000000;0.495992
9805.000000;0.495297
9804.000000;0.494662
9803.000000;0.494017
9802.000000;0.493322
9801.000000;0.492673
9800.000000;0.492163
9799.000000;0.491793
9798.000000;0.491509
9797.000000;0.491215
9796.000000;0.490764
9795.000000;0.490103
9794.000000;0.489425
9793.000000;0.488988
9792.000000;0.488806
9791.000000;0.488663
9790.000000;0.488428
9789.000000;0.488156
9788.000000;0.487884
9787.000000;0.487530
9786.000000;0.487046
9785.000000;0.486489
9784.000000;0.485912
9783.000000;0.485310
9782.000000;0.484695
9781.000000;0.484106
9780.000000;0.483556
9779.000000;0.483085
9778.000000;0.482820
9777.000000;0.482792
9776.000000;0.482751
9775.000000;0.482368
9774.000000;0.481619
9773.000000;0.480795
9772.000000;0.480138
9771.000000;0.479664
9770.000000;0.479299
9769.000000;0.478976
9768.000000;0.478572
9767.000000;0.477978
9766.000000;0.477279
9765.000000;0.476688
9764.000000;0.476308
9763.000000;0.476077
9762.000000;0.475925
9761.000000;0.475793
9760.000000;0.475523
9759.000000;0.474968
9758.000000;0.474228
9757.000000;0.473576
9756.000000;0.473151
9755.000000;0.472856
9754.000000;0.472550
9753.000000;0.472137
9752.000000;0.471528
9751.000000;0.470728
9750.000000;0.469956
9749.000000;0.469440
9748.000000;0.469102
9747.000000;0.468651
9746.000000;0.467996
9745.000000;0.467333
9744.000000;0.466820
9743.000000;0.466402
9742.000000;0.466006
9741.000000;0.465665
9740.000000;0.465392
9739.000000;0.465110
9738.000000;0.464755
9737.000000;0.464314
9736.000000;0.463770
9735.000000;0.463171
9734.000000;0.462694
9733.000000;0.462449
9732.000000;0.462245
9731.000000;0.461802
9730.000000;0.461159
9729.000000;0.460648
9728.000000;0.460425
9727.000000;0.460297
9726.000000;0.460003
9725.000000;0.459458
9724.000000;0.458707
9723.000000;0.457878
9722.000000;0.457208
9721.000000;0.456839
9720.000000;0.456570
9719.000000;0.456058
9718.000000;0.455268
9717.000000;0.454512
9716.000000;0.454001
9715.000000;0.453659
9714.000000;0.453388
9713.000000;0.453224
9712.000000;0.453115
9711.000000;0.452863
9710.000000;0.452392
9709.000000;0.451867
9708.000000;0.451405
9707.000000;0.450922
9706.000000;0.450348
9705.000000;0.449789
9704.000000;0.449329
9703.000000;0.448889
9702.000000;0.448407
9701.000000;0.447981
9700.000000;0.447713
9699.000000;0.447553
9698.000000;0.447396
9697.000000;0.447180
9696.000000;0.446827
9695.000000;0.446273
9694.000000;0.445640
9693.000000;0.445198
9692.000000;0.445039
9691.000000;0.444938
9690.000000;0.444626
9689.000000;0.444075
9688.000000;0.443437
9687.000000;0.442841
9686.000000;0.442332
9685.000000;0.441867
9684.000000;0.441339
9683.000000;0.440704
9682.000000;0.440119
9681.000000;0.439774
9680.000000;0.439590
9679.000000;0.439267
9678.000000;0.438672
9677.000000;0.437992
9676.000000;0.437446
9675.000000;0.437039
9674.000000;0.436696
9673.000000;0.436416
9672.000000;0.436191
9671.000000;0.435923
9670.000000;0.435549
9669.000000;0.435143
9668.000000;0.434800
9667.000000;0.434502
9666.000000;0.434158
9665.000000;0.433679
9664.000000;0.433011
9663.000000;0.432205
9662.000000;0.431448
9661.000000;0.430908
9660.000000;0.430514
9659.000000;0.430059
9658.000000;0.429496
9657.000000;0.428988
9656.000000;0.428651
9655.000000;0.428437
9654.000000;0.428270
9653.000000;0.428110
9652.000000;0.427850
9651.000000;0.427360
9650.000000;0.426693
9649.000000;0.426066
9648.000000;0.425599
9647.000000;0.425216
9646.000000;0.424835
9645.000000;0.424456
9644.000000;0.424063
9643.000000;0.423608
9642.000000;0.423156
9641.000000;0.422840
9640.000000;0.422641
9639.000000;0.422373
9638.000000;0.421942
9637.000000;0.421435
9636.000000;0.420920
9635.000000;0.420372
9634.000000;0.419858
9633.000000;0.419548
9632.000000;0.419446
9631.000000;0.419287
9630.000000;0.418829
9629.000000;0.418129
9628.000000;0.417437
9627.000000;0.416940
9626.000000;0.416670
9625.000000;0.416529
9624.000000;0.416316
9623.000000;0.415864
9622.000000;0.415208
9621.000000;0.414552
9620.000000;0.414020
9619.000000;0.413576
9618.000000;0.413173
9617.000000;0.412837
9616.000000;0.412551
9615.000000;0.412213
9614.000000;0.411761
9613.000000;0.411215
9612.000000;0.410576
9611.000000;0.409855
9610.000000;0.409202
9609.000000;0.408842
9608.000000;0.408804
9607.000000;0.408847
9606.000000;0.408717
9605.000000;0.408363
9604.000000;0.407899
9603.000000;0.407463
9602.000000;0.407154
9601.000000;0.406948
9600.000000;0.406654
9599.000000;0.406106
9598.000000;0.405410
9597.000000;0.404867
9596.000000;0.404628
9595.000000;0.404542
9594.000000;0.404355
9593.000000;0.403920
9592.000000;0.403231
9591.000000;0.402419
9590.000000;0.401723
9589.000000;0.401308
9588.000000;0.401093
9587.000000;0.400854
9586.000000;0.400514
9585.000000;0.400158
9584.000000;0.399808
9583.000000;0.399371
9582.000000;0.398839
9581.000000;0.398327
9580.000000;0.397913
9579.000000;0.397574
9578.000000;0.397290
9577.000000;0.397045
9576.000000;0.396720
9575.000000;0.396200
9574.000000;0.395591
9573.000000;0.395142
9572.000000;0.394915
9571.000000;0.394732
9570.000000;0.394476
9569.000000;0.394210
9568.000000;0.393982
9567.000000;0.393698
9566.000000;0.393286
9565.000000;0.392799
9564.000000;0.392275
9563.000000;0.391667
9562.000000;0.390974
9561.000000;0.390310
9560.000000;0.389785
9559.000000;0.389433
9558.000000;0.389255
9557.000000;0.389198
9556.000000;0.389088
9555.000000;0.388757
9554.000000;0.388241
9553.000000;0.387700
9552.000000;0.387168
9551.000000;0.386587
9550.000000;0.386054
9549.000000;0.385771
9548.000000;0.385704
9547.000000;0.385568
9546.000000;0.385191
9545.000000;0.384696
9544.000000;0.384239
9543.000000;0.383813
9542.000000;0.383403
9541.000000;0.383083
9540.000000;0.382839
9539.000000;0.382492
9538.000000;0.381947
9537.000000;0.381356
9536.000000;0.380925
9535.000000;0.380671
9534.000000;0.380481
9533.000000;0.380265
9532.000000;0.379958
9531.000000;0.379521
9530.000000;0.379019
9529.000000;0.378598
9528.000000;0.378297
9527.000000;0.378004
9526.000000;0.377653
9525.000000;0.377320
9524.000000;0.377068
9523.000000;0.376839
9522.000000;0.376544
9521.000000;0.376143
9520.000000;0.375584
9519.000000;0.374847
9518.000000;0.374100
9517.000000;0.373622
9516.000000;0.373481
9515.000000;0.373422
9514.000000;0.373181
9513.000000;0.372749
9512.000000;0.372254
9511.000000;0.371742
9510.000000;0.371230
9509.000000;0.370821
9508.000000;0.370618
9507.000000;0.370552
9506.000000;0.370422
9505.000000;0.370087
9504.000000;0.369548
9503.000000;0.368927
9502.000000;0.368392
9501.000000;0.368066
9500.000000;0.367919
9499.000000;0.367802
9498.000000;0.367574
9497.000000;0.367182
9496.000000;0.366646
9495.000000;0.366068
9494.000000;0.365624
9493.000000;0.365415
9492.000000;0.365321
9491.000000;0.365110
9490.000000;0.364693
9489.000000;0.364168
9488.000000;0.363638
9487.000000;0.363146
9486.000000;0.362763
9485.000000;0.362565
9484.000000;0.362479
9483.000000;0.362300
9482.000000;0.361908
9481.000000;0.361362
9480.000000;0.360768
9479.000000;0.360182
9478.000000;0.359652
9477.000000;0.359221
9476.000000;0.358866
9475.000000;0.358538
9474.000000;0.358260
9473.000000;0.358071
9472.000000;0.357900
9471.000000;0.357643
9470.000000;0.357351
9469.000000;0.357164
9468.000000;0.357073
9467.000000;0.356911
9466.000000;0.356583
9465.000000;0.356120
9464.000000;0.355514
9463.000000;0.354721
9462.000000;0.353869
9461.000000;0.353255
9460.000000;0.353026
9459.000000;0.353011
9458.000000;0.352953
9457.000000;0.352749
9456.000000;0.352430
9455.000000;0.352028
9454.000000;0.351575
9453.000000;0.351126
9452.000000;0.350718
9451.000000;0.350388
9450.000000;0.350209
9449.000000;0.350179
9448.000000;0.350106
9447.000000;0.349771
9446.000000;0.349218
9445.000000;0.348702
9444.000000;0.348337
9443.000000;0.347977
9442.000000;0.347505
9441.000000;0.347012
9440.000000;0.346613
9439.000000;0.346271
9438.000000;0.345919
9437.000000;0.345585
9436.000000;0.345302
9435.000000;0.345021
9434.000000;0.344705
9433.000000;0.344411
9432.000000;0.344182
9431.000000;0.343961
9430.000000;0.343700
9429.000000;0.343427
9428.000000;0.343160
9427.000000;0.342842
9426.000000;0.342449
9425.000000;0.342037
9424.000000;0.341627
9423.000000;0.341146
9422.000000;0.340565
9421.000000;0.339988
9420.000000;0.339539
9419.000000;0.339245
9418.000000;0.339079
9417.000000;0.339018
9416.000000;0.338977
9415.000000;0.338784
9414.000000;0.338335
9413.000000;0.337729
9412.000000;0.337179
9411.000000;0.336812
9410.000000;0.336580
9409.000000;0.336335
9408.000000;0.335969
9407.000000;0.335508
9406.000000;0.335071
9405.000000;0.334730
9404.000000;0.334451
9403.000000;0.334203
9402.000000;0.334042
9401.000000;0.333999
9400.000000;0.333949
9399.000000;0.333738
9398.000000;0.333381
9397.000000;0.333009
9396.000000;0.332659
9395.000000;0.332268
9394.000000;0.331826
9393.000000;0.331390
9392.000000;0.330964
9391.000000;0.330521
9390.000000;0.330126
9389.000000;0.329868
9388.000000;0.329685
9387.000000;0.329423
9386.000000;0.329079
9385.000000;0.328793
9384.000000;0.328592
9383.000000;0.328334
9382.000000;0.327945
9381.000000;0.327528
9380.000000;0.327176
9379.000000;0.326847
9378.000000;0.326515
9377.000000;0.326258
9376.000000;0.326107
9375.000000;0.325937
9374.000000;0.325609
9373.000000;0.325156
9372.000000;0.324730
9371.000000;0.324446
9370.000000;0.324312
9369.000000;0.324241
9368.000000;0.324079
9367.000000;0.323709
9366.000000;0.323163
9365.000000;0.322602
9364.000000;0.322149
9363.000000;0.321810
9362.000000;0.321542
9361.000000;0.321298
9360.000000;0.321023
9359.000000;0.320681
9358.000000;0.320308
9357.000000;0.319954
9356.000000;0.319609
9355.000000;0.319242
9354.000000;0.318909
9353.000000;0.318692
9352.000000;0.318553
9351.000000;0.318347
9350.000000;0.317984
9349.000000;0.317506
9348.000000;0.317012
9347.000000;0.316618
9346.000000;0.316417
9345.000000;0.316365
9344.000000;0.316240
9343.000000;0.315858
9342.000000;0.315299
9341.000000;0.314813
9340.000000;0.314512
9339.000000;0.314310
9338.000000;0.314116
9337.000000;0.313916
9336.000000;0.313674
9335.000000;0.313323
9334.000000;0.312894
9333.000000;0.312499
9332.000000;0.312180
9331.000000;0.311894
9330.000000;0.311646
9329.000000;0.311477
9328.000000;0.311328
9327.000000;0.311063
9326.000000;0.310659
9325.000000;0.310258
9324.000000;0.309977
9323.000000;0.309795
9322.000000;0.309623
9321.000000;0.309386
9320.000000;0.309025
9319.000000;0.308546
9318.000000;0.308067
9317.000000;0.307699
9316.000000;0.307387
9315.000000;0.307002
9314.000000;0.306561
9313.000000;0.306195
9312.000000;0.305929
9311.000000;0.305661
9310.000000;0.305383
9309.000000;0.305240
9308.000000;0.305325
9307.000000;0.305534
9306.000000;0.305670
9305.000000;0.305582
9304.000000;0.305197
9303.000000;0.304560
9302.000000;0.303855
9301.000000;0.303283
9300.000000;0.302884
9299.000000;0.302570
9298.000000;0.302289
9297.000000;0.302021
9296.000000;0.301686
9295.000000;0.301227
9294.000000;0.300773
9293.000000;0.300536
9292.000000;0.300523
9291.000000;0.300519
9290.000000;0.300370
9289.000000;0.300112
9288.000000;0.299825
9287.000000;0.299535
9286.000000;0.299273
9285.000000;0.299059
9284.000000;0.298786
9283.000000;0.298316
9282.000000;0.297723
9281.000000;0.297260
9280.000000;0.297042
9279.000000;0.296926
9278.000000;0.296757
9277.000000;0.296535
9276.000000;0.296293
9275.000000;0.295979
9274.000000;0.295597
9273.000000;0.295286
9272.000000;0.295141
9271.000000;0.295051
9270.000000;0.294849
9269.000000;0.294518
9268.000000;0.294192
9267.000000;0.294002
9266.000000;0.293981
9265.000000;0.294030
9264.000000;0.293927
9263.000000;0.293472
9262.000000;0.292704
9261.000000;0.291900
9260.000000;0.291345
9259.000000;0.291128
9258.000000;0.291164
9257.000000;0.291290
9256.000000;0.291314
9255.000000;0.291108
9254.000000;0.290723
9253.000000;0.290347
9252.000000;0.290100
9251.000000;0.289932
9250.000000;0.289724
9249.000000;0.289426
9248.000000;0.289081
9247.000000;0.288789
9246.000000;0.288640
9245.000000;0.288610
9244.000000;0.288510
9243.000000;0.288155
9242.000000;0.287584
9241.000000;0.287019
9240.000000;0.286622
9239.000000;0.286378
9238.000000;0.286202
9237.000000;0.286044
9236.000000;0.285875
9235.000000;0.285692
9234.000000;0.285545
9233.000000;0.285461
9232.000000;0.285346
9231.000000;0.285064
9230.000000;0.284612
9229.000000;0.284126
9228.000000;0.283701
9227.000000;0.283340
9226.000000;0.283054
9225.000000;0.282874
9224.000000;0.282749
9223.000000;0.282553
9222.000000;0.282246
9221.000000;0.281921
9220.000000;0.281687
9219.000000;0.281563
9218.000000;0.281496
9217.000000;0.281405
9216.000000;0.281225
9215.000000;0.280974
9214.000000;0.280748
9213.000000;0.280578
9212.000000;0.280344
9211.000000;0.279951
9210.000000;0.279506
9209.000000;0.279203
9208.000000;0.279078
9207.000000;0.279023
9206.000000;0.278974
9205.000000;0.278928
9204.000000;0.278804
9203.000000;0.278493
9202.000000;0.278041
9201.000000;0.277623
9200.000000;0.277314
9199.000000;0.277064
9198.000000;0.276866
9197.000000;0.276758
9196.000000;0.276637
9195.000000;0.276269
9194.000000;0.275576
9193.000000;0.274791
9192.000000;0.274247
9191.000000;0.274102
9190.000000;0.274265
9189.000000;0.274484
9188.000000;0.274480
9187.000000;0.274142
9186.000000;0.273631
9185.000000;0.273219
9184.000000;0.273002
9183.000000;0.272864
9182.000000;0.272692
9181.000000;0.272494
9180.000000;0.272308
9179.000000;0.272130
9178.000000;0.271949
9177.000000;0.271737
9176.000000;0.271415
9175.000000;0.270926
9174.000000;0.270366
9173.000000;0.269906
9172.000000;0.269611
9171.000000;0.269421
9170.000000;0.269303
9169.000000;0.269260
9168.000000;0.269231
9167.000000;0.269116
9166.000000;0.268914
9165.000000;0.268698
9164.000000;0.268468
9163.000000;0.268160
9162.000000;0.267789
9161.000000;0.267451
9160.000000;0.267195
9159.000000;0.267008
9158.000000;0.266902
9157.000000;0.266867
9156.000000;0.266783
9155.000000;0.266536
9154.000000;0.266207
9153.000000;0.265977
9152.000000;0.265861
9151.000000;0.265706
9150.000000;0.265449
9149.000000;0.265182
9148.000000;0.264952
9147.000000;0.264691
9146.000000;0.264383
9145.000000;0.264108
9144.000000;0.263894
9143.000000;0.263688
9142.000000;0.263495
9141.000000;0.263409
9140.000000;0.263444
9139.000000;0.263484
9138.000000;0.263439
9137.000000;0.263307
9136.000000;0.263086
9135.000000;0.262759
9134.000000;0.262393
9133.000000;0.262096
9132.000000;0.261864
9131.000000;0.261606
9130.000000;0.261323
9129.000000;0.261097
9128.000000;0.260911
9127.000000;0.260658
9126.000000;0.260349
9125.000000;0.260123
9124.000000;0.260009
9123.000000;0.259874
9122.000000;0.259653
9121.000000;0.259433
9120.000000;0.259256
9119.000000;0.259038
9118.000000;0.258749
9117.000000;0.258504
9116.000000;0.258382
9115.000000;0.258289
9114.000000;0.258113
9113.000000;0.257862
9112.000000;0.257598
9111.000000;0.257338
9110.000000;0.257107
9109.000000;0.256956
9108.000000;0.256860
9107.000000;0.256721
9106.000000;0.256513
9105.000000;0.256311
9104.000000;0.256134
9103.000000;0.255909
9102.000000;0.255629
9101.000000;0.255387
9100.000000;0.255168
9099.000000;0.254796
9098.000000;0.254206
9097.000000;0.253630
9096.000000;0.253375
9095.000000;0.253484
9094.000000;0.253723
9093.000000;0.253830
9092.000000;0.253714
9091.000000;0.253467
9090.000000;0.253260
9089.000000;0.253182
9088.000000;0.253142
9087.000000;0.252976
9086.000000;0.252637
9085.000000;0.252231
9084.000000;0.251870
9083.000000;0.251589
9082.000000;0.251400
9081.000000;0.251301
9080.000000;0.251228
9079.000000;0.251099
9078.000000;0.250924
9077.000000;0.250747
9076.000000;0.250519
9075.000000;0.250158
9074.000000;0.249747
9073.000000;0.249466
9072.000000;0.249332
9071.000000;0.249144
9070.000000;0.248786
9069.000000;0.248396
9068.000000;0.248186
9067.000000;0.248190
9066.000000;0.248276
9065.000000;0.248283
9064.000000;0.248101
9063.000000;0.247743
9062.000000;0.247373
9061.000000;0.247178
9060.000000;0.247150
9059.000000;0.247111
9058.000000;0.246963
9057.000000;0.246784
9056.000000;0.246657
9055.000000;0.246538
9054.000000;0.246369
9053.000000;0.246173
