Criado como novo conjunto de dados;"e2410_daniel_v2.spp","37623.7 Secs"
cm-1;Abs
10000.000000;0.533147
9999.000000;0.532310
9998.000000;0.531629
9997.000000;0.531192
9996.000000;0.530864
9995.000000;0.530462
9994.000000;0.529974
9993.000000;0.529459
9992.000000;0.528833
9991.000000;0.527963
9990.000000;0.526960
9989.000000;0.526153
9988.000000;0.525732
9987.000000;0.525576
9986.000000;0.525458
9985.000000;0.525238
9984.000000;0.524843
9983.000000;0.524251
9982.000000;0.523555
9981.000000;0.522909
9980.000000;0.522340
9979.000000;0.521765
9978.000000;0.521177
9977.000000;0.520663
9976.000000;0.520207
9975.000000;0.519674
9974.000000;0.519015
9973.000000;0.518340
9972.000000;0.517738
9971.000000;0.517200
9970.000000;0.516734
9969.000000;0.516369
9968.000000;0.516021
9967.000000;0.515542
9966.000000;0.514962
9965.000000;0.514468
9964.000000;0.514106
9963.000000;0.513680
9962.000000;0.513040
9961.000000;0.512262
9960.000000;0.511482
9959.000000;0.510742
9958.000000;0.510102
9957.000000;0.509704
9956.000000;0.509583
9955.000000;0.509536
9954.000000;0.509308
9953.000000;0.508826
9952.000000;0.508214
9951.000000;0.507666
9950.000000;0.507322
9949.000000;0.507138
9948.000000;0.506851
9947.000000;0.506245
9946.000000;0.505452
9945.000000;0.504797
9944.000000;0.504363
9943.000000;0.503934
9942.000000;0.503405
9941.000000;0.502947
9940.000000;0.502656
9939.000000;0.502316
9938.000000;0.501691
9937.000000;0.500861
9936.000000;0.500087
9935.000000;0.499481
9934.000000;0.498993
9933.000000;0.498568
9932.000000;0.498171
9931.000000;0.497757
9930.000000;0.497339
9929.000000;0.497001
9928.000000;0.496746
9927.000000;0.496437
9926.000000;0.495963
9925.000000;0.495367
9924.000000;0.494725
9923.000000;0.494051
9922.000000;0.493400
9921.000000;0.492920
9920.000000;0.492674
9919.000000;0.492507
9918.000000;0.492198
9917.000000;0.491662
9916.000000;0.490975
9915.000000;0.490306
9914.000000;0.489846
9913.000000;0.489670
9912.000000;0.489579
9911.000000;0.489241
9910.000000;0.488556
9909.000000;0.487738
9908.000000;0.487011
9907.000000;0.486386
9906.000000;0.485790
9905.000000;0.485222
9904.000000;0.484653
9903.000000;0.483969
9902.000000;0.483145
9901.000000;0.482359
9900.000000;0.481822
9899.000000;0.481601
9898.000000;0.481631
9897.000000;0.481736
9896.000000;0.481607
9895.000000;0.480965
9894.000000;0.479886
9893.000000;0.478772
9892.000000;0.477904
9891.000000;0.477214
9890.000000;0.476574
9889.000000;0.476067
9888.000000;0.475791
9887.000000;0.475616
9886.000000;0.475348
9885.000000;0.474990
9884.000000;0.474659
9883.000000;0.474345
9882.000000;0.473948
9881.000000;0.473471
9880.000000;0.472992
9879.000000;0.472526
9878.000000;0.472051
9877.000000;0.471594
9876.000000;0.471153
9875.000000;0.470652
9874.000000;0.470102
9873.000000;0.469699
9872.000000;0.469594
9871.000000;0.469648
9870.000000;0.469556
9869.000000;0.469145
9868.000000;0.468437
9867.000000;0.467519
9866.000000;0.466528
9865.000000;0.465645
9864.000000;0.464957
9863.000000;0.464363
9862.000000;0.463755
9861.000000;0.463204
9860.000000;0.462842
9859.000000;0.462629
9858.000000;0.462392
9857.000000;0.462040
9856.000000;0.461607
9855.000000;0.461123
9854.000000;0.460592
9853.000000;0.460059
9852.000000;0.459569
9851.000000;0.459090
9850.000000;0.458573
9849.000000;0.458076
9848.000000;0.457699
9847.000000;0.457426
9846.000000;0.457105
9845.000000;0.456593
9844.000000;0.455878
9843.000000;0.455083
9842.000000;0.454389
9841.000000;0.453905
9840.000000;0.453553
9839.000000;0.453161
9838.000000;0.452690
9837.000000;0.452275
9836.000000;0.451996
9835.000000;0.451726
9834.000000;0.451288
9833.000000;0.450661
9832.000000;0.449943
9831.000000;0.449232
9830.000000;0.448627
9829.000000;0.448227
9828.000000;0.447985
9827.000000;0.447688
9826.000000;0.447188
9825.000000;0.446587
9824.000000;0.446066
9823.000000;0.445624
9822.000000;0.445125
9821.000000;0.444527
9820.000000;0.443915
9819.000000;0.443359
9818.000000;0.442886
9817.000000;0.442564
9816.000000;0.442447
9815.000000;0.442440
9814.000000;0.442321
9813.000000;0.441918
9812.000000;0.441219
9811.000000;0.440341
9810.000000;0.439470
9809.000000;0.438787
9808.000000;0.438338
9807.000000;0.437976
9806.000000;0.437518
9805.000000;0.436948
9804.000000;0.436418
9803.000000;0.436057
9802.000000;0.435851
9801.000000;0.435674
9800.000000;0.435391
9799.000000;0.434940
9798.000000;0.434360
9797.000000;0.433739
9796.000000;0.433121
9795.000000;0.432509
9794.000000;0.431965
9793.000000;0.431592
9792.000000;0.431381
9791.000000;0.431144
9790.000000;0.430709
9789.000000;0.430110
9788.000000;0.429519
9787.000000;0.429021
9786.000000;0.428568
9785.000000;0.428113
9784.000000;0.427669
9783.000000;0.427251
9782.000000;0.426813
9781.000000;0.426286
9780.000000;0.425654
9779.000000;0.424976
9778.000000;0.424362
9777.000000;0.423887
9776.000000;0.423522
9775.000000;0.423186
9774.000000;0.422853
9773.000000;0.422575
9772.000000;0.422367
9771.000000;0.422157
9770.000000;0.421849
9769.000000;0.421412
9768.000000;0.420856
9767.000000;0.420209
9766.000000;0.419527
9765.000000;0.418884
9764.000000;0.418307
9763.000000;0.417773
9762.000000;0.417284
9761.000000;0.416872
9760.000000;0.416500
9759.000000;0.416063
9758.000000;0.415531
9757.000000;0.415038
9756.000000;0.414738
9755.000000;0.414615
9754.000000;0.414501
9753.000000;0.414231
9752.000000;0.413741
9751.000000;0.413063
9750.000000;0.412280
9749.000000;0.411489
9748.000000;0.410780
9747.000000;0.410206
9746.000000;0.409763
9745.000000;0.409371
9744.000000;0.408915
9743.000000;0.408354
9742.000000;0.407785
9741.000000;0.407335
9740.000000;0.407002
9739.000000;0.406673
9738.000000;0.406282
9737.000000;0.405869
9736.000000;0.405485
9735.000000;0.405121
9734.000000;0.404750
9733.000000;0.404348
9732.000000;0.403881
9731.000000;0.403325
9730.000000;0.402731
9729.000000;0.402199
9728.000000;0.401772
9727.000000;0.401407
9726.000000;0.401042
9725.000000;0.400624
9724.000000;0.400106
9723.000000;0.399504
9722.000000;0.398944
9721.000000;0.398557
9720.000000;0.398338
9719.000000;0.398171
9718.000000;0.397966
9717.000000;0.397685
9716.000000;0.397255
9715.000000;0.396604
9714.000000;0.395800
9713.000000;0.395031
9712.000000;0.394446
9711.000000;0.394057
9710.000000;0.393797
9709.000000;0.393549
9708.000000;0.393170
9707.000000;0.392610
9706.000000;0.392011
9705.000000;0.391566
9704.000000;0.391293
9703.000000;0.391073
9702.000000;0.390861
9701.000000;0.390687
9700.000000;0.390460
9699.000000;0.389983
9698.000000;0.389221
9697.000000;0.388398
9696.000000;0.387755
9695.000000;0.387351
9694.000000;0.387130
9693.000000;0.386992
9692.000000;0.386760
9691.000000;0.386243
9690.000000;0.385445
9689.000000;0.384589
9688.000000;0.383875
9687.000000;0.383325
9686.000000;0.382913
9685.000000;0.382658
9684.000000;0.382515
9683.000000;0.382323
9682.000000;0.381971
9681.000000;0.381504
9680.000000;0.380984
9679.000000;0.380385
9678.000000;0.379728
9677.000000;0.379151
9676.000000;0.378739
9675.000000;0.378383
9674.000000;0.377934
9673.000000;0.377395
9672.000000;0.376848
9671.000000;0.376313
9670.000000;0.375796
9669.000000;0.375385
9668.000000;0.375145
9667.000000;0.374981
9666.000000;0.374733
9665.000000;0.374346
9664.000000;0.373868
9663.000000;0.373357
9662.000000;0.372877
9661.000000;0.372503
9660.000000;0.372211
9659.000000;0.371837
9658.000000;0.371252
9657.000000;0.370547
9656.000000;0.369933
9655.000000;0.369506
9654.000000;0.369189
9653.000000;0.368850
9652.000000;0.368398
9651.000000;0.367810
9650.000000;0.367167
9649.000000;0.366621
9648.000000;0.366251
9647.000000;0.365962
9646.000000;0.365598
9645.000000;0.365109
9644.000000;0.364559
9643.000000;0.364000
9642.000000;0.363451
9641.000000;0.362939
9640.000000;0.362500
9639.000000;0.362146
9638.000000;0.361870
9637.000000;0.361668
9636.000000;0.361491
9635.000000;0.361232
9634.000000;0.360815
9633.000000;0.360291
9632.000000;0.359789
9631.000000;0.359401
9630.000000;0.359133
9629.000000;0.358915
9628.000000;0.358630
9627.000000;0.358182
9626.000000;0.357603
9625.000000;0.357034
9624.000000;0.356570
9623.000000;0.356154
9622.000000;0.355657
9621.000000;0.355034
9620.000000;0.354346
9619.000000;0.353692
9618.000000;0.353138
9617.000000;0.352696
9616.000000;0.352313
9615.000000;0.351940
9614.000000;0.351605
9613.000000;0.351376
9612.000000;0.351229
9611.000000;0.351018
9610.000000;0.350620
9609.000000;0.350083
9608.000000;0.349581
9607.000000;0.349249
9606.000000;0.349063
9605.000000;0.348852
9604.000000;0.348440
9603.000000;0.347842
9602.000000;0.347296
9601.000000;0.347020
9600.000000;0.346938
9599.000000;0.346773
9598.000000;0.346383
9597.000000;0.345883
9596.000000;0.345411
9595.000000;0.344940
9594.000000;0.344389
9593.000000;0.343781
9592.000000;0.343196
9591.000000;0.342669
9590.000000;0.342213
9589.000000;0.341863
9588.000000;0.341585
9587.000000;0.341241
9586.000000;0.340750
9585.000000;0.340215
9584.000000;0.339767
9583.000000;0.339363
9582.000000;0.338851
9581.000000;0.338210
9580.000000;0.337591
9579.000000;0.337136
9578.000000;0.336855
9577.000000;0.336688
9576.000000;0.336576
9575.000000;0.336451
9574.000000;0.336227
9573.000000;0.335846
9572.000000;0.335321
9571.000000;0.334730
9570.000000;0.334197
9569.000000;0.333833
9568.000000;0.333654
9567.000000;0.333555
9566.000000;0.333379
9565.000000;0.333019
9564.000000;0.332458
9563.000000;0.331752
9562.000000;0.331025
9561.000000;0.330426
9560.000000;0.330017
9559.000000;0.329723
9558.000000;0.329423
9557.000000;0.329073
9556.000000;0.328717
9555.000000;0.328390
9554.000000;0.328062
9553.000000;0.327698
9552.000000;0.327328
9551.000000;0.327024
9550.000000;0.326807
9549.000000;0.326594
9548.000000;0.326265
9547.000000;0.325781
9546.000000;0.325236
9545.000000;0.324748
9544.000000;0.324335
9543.000000;0.323922
9542.000000;0.323465
9541.000000;0.323021
9540.000000;0.322689
9539.000000;0.322506
9538.000000;0.322389
9537.000000;0.322170
9536.000000;0.321729
9535.000000;0.321124
9534.000000;0.320548
9533.000000;0.320124
9532.000000;0.319792
9531.000000;0.319422
9530.000000;0.319001
9529.000000;0.318595
9528.000000;0.318199
9527.000000;0.317747
9526.000000;0.317259
9525.000000;0.316855
9524.000000;0.316593
9523.000000;0.316382
9522.000000;0.316085
9521.000000;0.315653
9520.000000;0.315125
9519.000000;0.314588
9518.000000;0.314133
9517.000000;0.313776
9516.000000;0.313388
9515.000000;0.312797
9514.000000;0.312011
9513.000000;0.311270
9512.000000;0.310819
9511.000000;0.310680
9510.000000;0.310681
9509.000000;0.310649
9508.000000;0.310516
9507.000000;0.310293
9506.000000;0.310014
9505.000000;0.309692
9504.000000;0.309303
9503.000000;0.308818
9502.000000;0.308263
9501.000000;0.307716
9500.000000;0.307216
9499.000000;0.306719
9498.000000;0.306170
9497.000000;0.305594
9496.000000;0.305079
9495.000000;0.304680
9494.000000;0.304394
9493.000000;0.304209
9492.000000;0.304123
9491.000000;0.304082
9490.000000;0.303945
9489.000000;0.303596
9488.000000;0.303097
9487.000000;0.302665
9486.000000;0.302428
9485.000000;0.302264
9484.000000;0.301968
9483.000000;0.301526
9482.000000;0.301085
9481.000000;0.300676
9480.000000;0.300158
9479.000000;0.299484
9478.000000;0.298869
9477.000000;0.298532
9476.000000;0.298399
9475.000000;0.298203
9474.000000;0.297801
9473.000000;0.297276
9472.000000;0.296771
9471.000000;0.296370
9470.000000;0.296100
9469.000000;0.295911
9468.000000;0.295667
9467.000000;0.295269
9466.000000;0.294771
9465.000000;0.294293
9464.000000;0.293861
9463.000000;0.293423
9462.000000;0.292995
9461.000000;0.292663
9460.000000;0.292460
9459.000000;0.292331
9458.000000;0.292213
9457.000000;0.292050
9456.000000;0.291778
9455.000000;0.291399
9454.000000;0.291024
9453.000000;0.290740
9452.000000;0.290462
9451.000000;0.290047
9450.000000;0.289512
9449.000000;0.289000
9448.000000;0.288570
9447.000000;0.288161
9446.000000;0.287752
9445.000000;0.287390
9444.000000;0.287063
9443.000000;0.286703
9442.000000;0.286330
9441.000000;0.286064
9440.000000;0.285939
9439.000000;0.285834
9438.000000;0.285621
9437.000000;0.285274
9436.000000;0.284802
9435.000000;0.284199
9434.000000;0.283518
9433.000000;0.282899
9432.000000;0.282453
9431.000000;0.282168
9430.000000;0.281960
9429.000000;0.281739
9428.000000;0.281442
9427.000000;0.281080
9426.000000;0.280756
9425.000000;0.280549
9424.000000;0.280388
9423.000000;0.280120
9422.000000;0.279701
9421.000000;0.279215
9420.000000;0.278730
9419.000000;0.278247
9418.000000;0.277792
9417.000000;0.277408
9416.000000;0.277067
9415.000000;0.276695
9414.000000;0.276306
9413.000000;0.275993
9412.000000;0.275765
9411.000000;0.275540
9410.000000;0.275298
9409.000000;0.275101
9408.000000;0.274939
9407.000000;0.274700
9406.000000;0.274349
9405.000000;0.273983
9404.000000;0.273655
9403.000000;0.273279
9402.000000;0.272791
9401.000000;0.272288
9400.000000;0.271909
9399.000000;0.271668
9398.000000;0.271474
9397.000000;0.271244
9396.000000;0.270927
9395.000000;0.270500
9394.000000;0.270008
9393.000000;0.269563
9392.000000;0.269224
9391.000000;0.268951
9390.000000;0.268679
9389.000000;0.268392
9388.000000;0.268080
9387.000000;0.267723
9386.000000;0.267366
9385.000000;0.267110
9384.000000;0.266974
9383.000000;0.266826
9382.000000;0.266523
9381.000000;0.266083
9380.000000;0.265638
9379.000000;0.265270
9378.000000;0.264941
9377.000000;0.264556
9376.000000;0.264067
9375.000000;0.263522
9374.000000;0.263036
9373.000000;0.262689
9372.000000;0.262454
9371.000000;0.262241
9370.000000;0.262009
9369.000000;0.261760
9368.000000;0.261468
9367.000000;0.261080
9366.000000;0.260605
9365.000000;0.260124
9364.000000;0.259699
9363.000000;0.259337
9362.000000;0.259030
9361.000000;0.258773
9360.000000;0.258514
9359.000000;0.258190
9358.000000;0.257822
9357.000000;0.257515
9356.000000;0.257347
9355.000000;0.257279
9354.000000;0.257180
9353.000000;0.256935
9352.000000;0.256533
9351.000000;0.256112
9350.000000;0.255832
9349.000000;0.255669
9348.000000;0.255388
9347.000000;0.254826
9346.000000;0.254130
9345.000000;0.253606
9344.000000;0.253381
9343.000000;0.253337
9342.000000;0.253326
9341.000000;0.253275
9340.000000;0.253113
9339.000000;0.252770
9338.000000;0.252282
9337.000000;0.251771
9336.000000;0.251284
9335.000000;0.250798
9334.000000;0.250376
9333.000000;0.250163
9332.000000;0.250171
9331.000000;0.250206
9330.000000;0.250067
9329.000000;0.249719
9328.000000;0.249248
9327.000000;0.248760
9326.000000;0.248359
9325.000000;0.248106
9324.000000;0.247918
9323.000000;0.247630
9322.000000;0.247209
9321.000000;0.246808
9320.000000;0.246563
9319.000000;0.246419
9318.000000;0.246236
9317.000000;0.245960
9316.000000;0.245644
9315.000000;0.245354
9314.000000;0.245120
9313.000000;0.244910
9312.000000;0.244615
9311.000000;0.244130
9310.000000;0.243501
9309.000000;0.242910
9308.000000;0.242498
9307.000000;0.242258
9306.000000;0.242096
9305.000000;0.241930
9304.000000;0.241713
9303.000000;0.241439
9302.000000;0.241167
9301.000000;0.240934
9300.000000;0.240679
9299.000000;0.240343
9298.000000;0.240021
9297.000000;0.239860
9296.000000;0.239790
9295.000000;0.239542
9294.000000;0.239002
9293.000000;0.238404
9292.000000;0.238055
9291.000000;0.238005
9290.000000;0.238073
9289.000000;0.238081
9288.000000;0.237946
9287.000000;0.237617
9286.000000;0.237109
9285.000000;0.236553
9284.000000;0.236106
9283.000000;0.235801
9282.000000;0.235563
9281.000000;0.235335
9280.000000;0.235132
9279.000000;0.234965
9278.000000;0.234789
9277.000000;0.234537
9276.000000;0.234176
9275.000000;0.233751
9274.000000;0.233353
9273.000000;0.233030
9272.000000;0.232728
9271.000000;0.232353
9270.000000;0.231901
9269.000000;0.231477
9268.000000;0.231177
9267.000000;0.230993
9266.000000;0.230861
9265.000000;0.230742
9264.000000;0.230626
9263.000000;0.230485
9262.000000;0.230270
9261.000000;0.229951
9260.000000;0.229572
9259.000000;0.229249
9258.000000;0.229066
9257.000000;0.228942
9256.000000;0.228691
9255.000000;0.228261
9254.000000;0.227855
9253.000000;0.227675
9252.000000;0.227631
9251.000000;0.227430
9250.000000;0.226950
9249.000000;0.226364
9248.000000;0.225904
9247.000000;0.225620
9246.000000;0.225434
9245.000000;0.225280
9244.000000;0.225140
9243.000000;0.224999
9242.000000;0.224828
9241.000000;0.224591
9240.000000;0.224259
9239.000000;0.223864
9238.000000;0.223518
9237.000000;0.223287
9236.000000;0.223082
9235.000000;0.222781
9234.000000;0.222407
9233.000000;0.222086
9232.000000;0.221837
9231.000000;0.221570
9230.000000;0.221288
9229.000000;0.221103
9228.000000;0.221025
9227.000000;0.220902
9226.000000;0.220635
9225.000000;0.220306
9224.000000;0.220018
9223.000000;0.219745
9222.000000;0.219432
9221.000000;0.219122
9220.000000;0.218873
9219.000000;0.218641
9218.000000;0.218358
9217.000000;0.218065
9216.000000;0.217855
9215.000000;0.217724
9214.000000;0.217577
9213.000000;0.217344
9212.000000;0.217035
9211.000000;0.216687
9210.000000;0.216319
9209.000000;0.215940
9208.000000;0.215571
9207.000000;0.215267
9206.000000;0.215075
9205.000000;0.214963
9204.000000;0.214804
9203.000000;0.214534
9202.000000;0.214260
9201.000000;0.214125
9200.000000;0.214065
9199.000000;0.213851
9198.000000;0.213400
9197.000000;0.212905
9196.000000;0.212589
9195.000000;0.212466
9194.000000;0.212391
9193.000000;0.212263
9192.000000;0.212069
9191.000000;0.211817
9190.000000;0.211523
9189.000000;0.211236
9188.000000;0.211005
9187.000000;0.210819
9186.000000;0.210617
9185.000000;0.210348
9184.000000;0.210007
9183.000000;0.209655
9182.000000;0.209374
9181.000000;0.209164
9180.000000;0.208914
9179.000000;0.208549
9178.000000;0.208162
9177.000000;0.207897
9176.000000;0.207722
9175.000000;0.207453
9174.000000;0.207028
9173.000000;0.206604
9172.000000;0.206340
9171.000000;0.206221
9170.000000;0.206160
9169.000000;0.206136
9168.000000;0.206151
9167.000000;0.206146
9166.000000;0.206061
9165.000000;0.205904
9164.000000;0.205699
9163.000000;0.205433
9162.000000;0.205108
9161.000000;0.204783
9160.000000;0.204499
9159.000000;0.204221
9158.000000;0.203915
9157.000000;0.203603
9156.000000;0.203316
9155.000000;0.203041
9154.000000;0.202778
9153.000000;0.202568
9152.000000;0.202414
9151.000000;0.202246
9150.000000;0.202019
9149.000000;0.201769
9148.000000;0.201540
9147.000000;0.201303
9146.000000;0.201015
9145.000000;0.200684
9144.000000;0.200341
9143.000000;0.200012
9142.000000;0.199770
9141.000000;0.199714
9140.000000;0.199835
9139.000000;0.199941
9138.000000;0.199832
9137.000000;0.199500
9136.000000;0.199100
9135.000000;0.198766
9134.000000;0.198509
9133.000000;0.198276
9132.000000;0.198029
9131.000000;0.197764
9130.000000;0.197498
9129.000000;0.197246
9128.000000;0.197008
9127.000000;0.196789
9126.000000;0.196627
9125.000000;0.196550
9124.000000;0.196494
9123.000000;0.196344
9122.000000;0.196057
9121.000000;0.195706
9120.000000;0.195383
9119.000000;0.195110
9118.000000;0.194878
9117.000000;0.194697
9116.000000;0.194584
9115.000000;0.194525
9114.000000;0.194485
9113.000000;0.194418
9112.000000;0.194268
9111.000000;0.194008
9110.000000;0.193679
9109.000000;0.193340
9108.000000;0.192994
9107.000000;0.192604
9106.000000;0.192190
9105.000000;0.191821
9104.000000;0.191522
9103.000000;0.191290
9102.000000;0.191174
9101.000000;0.191235
9100.000000;0.191384
9099.000000;0.191396
9098.000000;0.191140
9097.000000;0.190724
9096.000000;0.190345
9095.000000;0.190073
9094.000000;0.189855
9093.000000;0.189643
9092.000000;0.189450
9091.000000;0.189302
9090.000000;0.189201
9089.000000;0.189108
9088.000000;0.188949
9087.000000;0.188673
9086.000000;0.188317
9085.000000;0.187981
9084.000000;0.187728
9083.000000;0.187547
9082.000000;0.187405
9081.000000;0.187280
9080.000000;0.187122
9079.000000;0.186887
9078.000000;0.186608
9077.000000;0.186375
9076.000000;0.186230
9075.000000;0.186154
9074.000000;0.186121
9073.000000;0.186106
9072.000000;0.186027
9071.000000;0.185801
9070.000000;0.185472
9069.000000;0.185171
9068.000000;0.184937
9067.000000;0.184699
9066.000000;0.184448
9065.000000;0.184287
9064.000000;0.184235
9063.000000;0.184128
9062.000000;0.183821
9061.000000;0.183380
9060.000000;0.182989
9059.000000;0.182741
9058.000000;0.182597
9057.000000;0.182473
9056.000000;0.182280
9055.000000;0.181958
9054.000000;0.181558
9053.000000;0.181249
