Criado como novo conjunto de dados;"e2410_daniel_v2.spp","100627.1 Secs"
cm-1;Abs
10000.000000;0.121679
9999.000000;0.121839
9998.000000;0.122120
9997.000000;0.122690
9996.000000;0.123580
9995.000000;0.124633
9994.000000;0.125580
9993.000000;0.126237
9992.000000;0.126658
9991.000000;0.127072
9990.000000;0.127639
9989.000000;0.128300
9988.000000;0.128904
9987.000000;0.129438
9986.000000;0.130049
9985.000000;0.130857
9984.000000;0.131822
9983.000000;0.132799
9982.000000;0.133647
9981.000000;0.134273
9980.000000;0.134658
9979.000000;0.134913
9978.000000;0.135253
9977.000000;0.135840
9976.000000;0.136657
9975.000000;0.137563
9974.000000;0.138429
9973.000000;0.139184
9972.000000;0.139774
9971.000000;0.140175
9970.000000;0.140465
9969.000000;0.140831
9968.000000;0.141447
9967.000000;0.142358
9966.000000;0.143457
9965.000000;0.144572
9964.000000;0.145557
9963.000000;0.146333
9962.000000;0.146886
9961.000000;0.147282
9960.000000;0.147665
9959.000000;0.148180
9958.000000;0.148844
9957.000000;0.149523
9956.000000;0.150096
9955.000000;0.150627
9954.000000;0.151294
9953.000000;0.152137
9952.000000;0.152952
9951.000000;0.153517
9950.000000;0.153868
9949.000000;0.154270
9948.000000;0.154912
9947.000000;0.155712
9946.000000;0.156444
9945.000000;0.157003
9944.000000;0.157500
9943.000000;0.158124
9942.000000;0.158960
9941.000000;0.159958
9940.000000;0.161013
9939.000000;0.162023
9938.000000;0.162869
9937.000000;0.163455
9936.000000;0.163798
9935.000000;0.164068
9934.000000;0.164473
9933.000000;0.165119
9932.000000;0.165983
9931.000000;0.166988
9930.000000;0.168055
9929.000000;0.169101
9928.000000;0.170079
9927.000000;0.171024
9926.000000;0.171990
9925.000000;0.172922
9924.000000;0.173693
9923.000000;0.174270
9922.000000;0.174797
9921.000000;0.175427
9920.000000;0.176145
9919.000000;0.176820
9918.000000;0.177394
9917.000000;0.177922
9916.000000;0.178439
9915.000000;0.178887
9914.000000;0.179237
9913.000000;0.179610
9912.000000;0.180216
9911.000000;0.181151
9910.000000;0.182295
9909.000000;0.183422
9908.000000;0.184380
9907.000000;0.185138
9906.000000;0.185736
9905.000000;0.186255
9904.000000;0.186846
9903.000000;0.187679
9902.000000;0.188793
9901.000000;0.190016
9900.000000;0.191102
9899.000000;0.191953
9898.000000;0.192653
9897.000000;0.193312
9896.000000;0.193958
9895.000000;0.194565
9894.000000;0.195119
9893.000000;0.195619
9892.000000;0.196079
9891.000000;0.196550
9890.000000;0.197104
9889.000000;0.197770
9888.000000;0.198533
9887.000000;0.199384
9886.000000;0.200324
9885.000000;0.201305
9884.000000;0.202236
9883.000000;0.203070
9882.000000;0.203837
9881.000000;0.204570
9880.000000;0.205273
9879.000000;0.205972
9878.000000;0.206732
9877.000000;0.207575
9876.000000;0.208471
9875.000000;0.209425
9874.000000;0.210485
9873.000000;0.211579
9872.000000;0.212484
9871.000000;0.213063
9870.000000;0.213491
9869.000000;0.214105
9868.000000;0.215023
9867.000000;0.216023
9866.000000;0.216787
9865.000000;0.217209
9864.000000;0.217486
9863.000000;0.218001
9862.000000;0.219061
9861.000000;0.220602
9860.000000;0.222149
9859.000000;0.223196
9858.000000;0.223681
9857.000000;0.223987
9856.000000;0.224473
9855.000000;0.225158
9854.000000;0.225915
9853.000000;0.226757
9852.000000;0.227762
9851.000000;0.228811
9850.000000;0.229633
9849.000000;0.230133
9848.000000;0.230546
9847.000000;0.231195
9846.000000;0.232192
9845.000000;0.233400
9844.000000;0.234619
9843.000000;0.235745
9842.000000;0.236797
9841.000000;0.237841
9840.000000;0.238868
9839.000000;0.239750
9838.000000;0.240373
9837.000000;0.240824
9836.000000;0.241360
9835.000000;0.242138
9834.000000;0.243039
9833.000000;0.243828
9832.000000;0.244469
9831.000000;0.245147
9830.000000;0.246012
9829.000000;0.246993
9828.000000;0.247917
9827.000000;0.248707
9826.000000;0.249406
9825.000000;0.250099
9824.000000;0.250894
9823.000000;0.251912
9822.000000;0.253131
9821.000000;0.254294
9820.000000;0.255109
9819.000000;0.255589
9818.000000;0.256047
9817.000000;0.256723
9816.000000;0.257557
9815.000000;0.258396
9814.000000;0.259259
9813.000000;0.260258
9812.000000;0.261343
9811.000000;0.262309
9810.000000;0.263064
9809.000000;0.263747
9808.000000;0.264569
9807.000000;0.265630
9806.000000;0.266861
9805.000000;0.268037
9804.000000;0.268880
9803.000000;0.269307
9802.000000;0.269607
9801.000000;0.270224
9800.000000;0.271296
9799.000000;0.272536
9798.000000;0.273601
9797.000000;0.274436
9796.000000;0.275176
9795.000000;0.275898
9794.000000;0.276638
9793.000000;0.277533
9792.000000;0.278703
9791.000000;0.279995
9790.000000;0.281057
9789.000000;0.281711
9788.000000;0.282142
9787.000000;0.282658
9786.000000;0.283405
9785.000000;0.284368
9784.000000;0.285506
9783.000000;0.286779
9782.000000;0.288081
9781.000000;0.289255
9780.000000;0.290193
9779.000000;0.290903
9778.000000;0.291512
9777.000000;0.292203
9776.000000;0.293088
9775.000000;0.294092
9774.000000;0.295005
9773.000000;0.295668
9772.000000;0.296107
9771.000000;0.296488
9770.000000;0.297017
9769.000000;0.297884
9768.000000;0.299163
9767.000000;0.300685
9766.000000;0.302077
9765.000000;0.303081
9764.000000;0.303834
9763.000000;0.304729
9762.000000;0.305977
9761.000000;0.307381
9760.000000;0.308579
9759.000000;0.309440
9758.000000;0.310159
9757.000000;0.310987
9756.000000;0.311946
9755.000000;0.312847
9754.000000;0.313546
9753.000000;0.314136
9752.000000;0.314849
9751.000000;0.315821
9750.000000;0.316990
9749.000000;0.318214
9748.000000;0.319406
9747.000000;0.320529
9746.000000;0.321558
9745.000000;0.322505
9744.000000;0.323436
9743.000000;0.324416
9742.000000;0.325471
9741.000000;0.326640
9740.000000;0.327971
9739.000000;0.329382
9738.000000;0.330588
9737.000000;0.331361
9736.000000;0.331846
9735.000000;0.332436
9734.000000;0.333286
9733.000000;0.334106
9732.000000;0.334568
9731.000000;0.334776
9730.000000;0.335156
9729.000000;0.335953
9728.000000;0.337029
9727.000000;0.338180
9726.000000;0.339425
9725.000000;0.340886
9724.000000;0.342471
9723.000000;0.343879
9722.000000;0.344908
9721.000000;0.345661
9720.000000;0.346416
9719.000000;0.347344
9718.000000;0.348412
9717.000000;0.349522
9716.000000;0.350666
9715.000000;0.351898
9714.000000;0.353198
9713.000000;0.354408
9712.000000;0.355345
9711.000000;0.355968
9710.000000;0.356430
9709.000000;0.357010
9708.000000;0.357985
9707.000000;0.359449
9706.000000;0.361145
9705.000000;0.362524
9704.000000;0.363147
9703.000000;0.363107
9702.000000;0.362998
9701.000000;0.363387
9700.000000;0.364356
9699.000000;0.365581
9698.000000;0.366757
9697.000000;0.367836
9696.000000;0.368902
9695.000000;0.369962
9694.000000;0.370937
9693.000000;0.371782
9692.000000;0.372532
9691.000000;0.373252
9690.000000;0.374004
9689.000000;0.374851
9688.000000;0.375876
9687.000000;0.377149
9686.000000;0.378643
9685.000000;0.380168
9684.000000;0.381418
9683.000000;0.382191
9682.000000;0.382609
9681.000000;0.383092
9680.000000;0.384045
9679.000000;0.385535
9678.000000;0.387252
9677.000000;0.388757
9676.000000;0.389798
9675.000000;0.390428
9674.000000;0.390882
9673.000000;0.391367
9672.000000;0.391977
9671.000000;0.392774
9670.000000;0.393813
9669.000000;0.395023
9668.000000;0.396145
9667.000000;0.396974
9666.000000;0.397665
9665.000000;0.398655
9664.000000;0.400185
9663.000000;0.402000
9662.000000;0.403603
9661.000000;0.404729
9660.000000;0.405484
9659.000000;0.406095
9658.000000;0.406693
9657.000000;0.407319
9656.000000;0.407987
9655.000000;0.408687
9654.000000;0.409410
9653.000000;0.410211
9652.000000;0.411207
9651.000000;0.412450
9650.000000;0.413820
9649.000000;0.415062
9648.000000;0.415947
9647.000000;0.416469
9646.000000;0.416919
9645.000000;0.417664
9644.000000;0.418771
9643.000000;0.419867
9642.000000;0.420526
9641.000000;0.420786
9640.000000;0.421159
9639.000000;0.422106
9638.000000;0.423612
9637.000000;0.425297
9636.000000;0.426797
9635.000000;0.427992
9634.000000;0.428987
9633.000000;0.430002
9632.000000;0.431200
9631.000000;0.432509
9630.000000;0.433693
9629.000000;0.434670
9628.000000;0.435676
9627.000000;0.436958
9626.000000;0.438370
9625.000000;0.439498
9624.000000;0.440210
9623.000000;0.440891
9622.000000;0.441991
9621.000000;0.443464
9620.000000;0.444793
9619.000000;0.445535
9618.000000;0.445738
9617.000000;0.445829
9616.000000;0.446204
9615.000000;0.446940
9614.000000;0.447834
9613.000000;0.448629
9612.000000;0.449241
9611.000000;0.449801
9610.000000;0.450501
9609.000000;0.451410
9608.000000;0.452468
9607.000000;0.453622
9606.000000;0.454897
9605.000000;0.456311
9604.000000;0.457800
9603.000000;0.459280
9602.000000;0.460691
9601.000000;0.461912
9600.000000;0.462732
9599.000000;0.463064
9598.000000;0.463151
9597.000000;0.463381
9596.000000;0.463878
9595.000000;0.464411
9594.000000;0.464787
9593.000000;0.465153
9592.000000;0.465799
9591.000000;0.466827
9590.000000;0.468144
9589.000000;0.469662
9588.000000;0.471284
9587.000000;0.472734
9586.000000;0.473652
9585.000000;0.473927
9584.000000;0.473838
9583.000000;0.473834
9582.000000;0.474232
9581.000000;0.475062
9580.000000;0.476057
9579.000000;0.476844
9578.000000;0.477315
9577.000000;0.477809
9576.000000;0.478735
9575.000000;0.480027
9574.000000;0.481202
9573.000000;0.481970
9572.000000;0.482572
9571.000000;0.483402
9570.000000;0.484547
9569.000000;0.485841
9568.000000;0.487144
9567.000000;0.488374
9566.000000;0.489404
9565.000000;0.490153
9564.000000;0.490719
9563.000000;0.491277
9562.000000;0.491925
9561.000000;0.492738
9560.000000;0.493788
9559.000000;0.494907
9558.000000;0.495613
9557.000000;0.495554
9556.000000;0.494995
9555.000000;0.494591
9554.000000;0.494745
9553.000000;0.495399
9552.000000;0.496349
9551.000000;0.497399
9550.000000;0.498242
9549.000000;0.498636
9548.000000;0.498855
9547.000000;0.499593
9546.000000;0.501158
9545.000000;0.502992
9544.000000;0.504285
9543.000000;0.504864
9542.000000;0.505206
9541.000000;0.505742
9540.000000;0.506517
9539.000000;0.507429
9538.000000;0.508386
9537.000000;0.509149
9536.000000;0.509390
9535.000000;0.509124
9534.000000;0.508851
9533.000000;0.509047
9532.000000;0.509642
9531.000000;0.510208
9530.000000;0.510555
9529.000000;0.510939
9528.000000;0.511694
9527.000000;0.512831
9526.000000;0.514032
9525.000000;0.514916
9524.000000;0.515303
9523.000000;0.515320
9522.000000;0.515285
9521.000000;0.515436
9520.000000;0.515755
9519.000000;0.516131
9518.000000;0.516611
9517.000000;0.517355
9516.000000;0.518341
9515.000000;0.519276
9514.000000;0.519911
9513.000000;0.520315
9512.000000;0.520720
9511.000000;0.521161
9510.000000;0.521426
9509.000000;0.521394
9508.000000;0.521303
9507.000000;0.521567
9506.000000;0.522312
9505.000000;0.523140
9504.000000;0.523469
9503.000000;0.523147
9502.000000;0.522658
9501.000000;0.522633
9500.000000;0.523204
9499.000000;0.523977
9498.000000;0.524571
9497.000000;0.524971
9496.000000;0.525290
9495.000000;0.525455
9494.000000;0.525349
9493.000000;0.525138
9492.000000;0.525206
9491.000000;0.525729
9490.000000;0.526492
9489.000000;0.527151
9488.000000;0.527555
9487.000000;0.527812
9486.000000;0.528169
9485.000000;0.528805
9484.000000;0.529594
9483.000000;0.530115
9482.000000;0.530064
9481.000000;0.529695
9480.000000;0.529638
9479.000000;0.530208
9478.000000;0.531040
9477.000000;0.531507
9476.000000;0.531384
9475.000000;0.530981
9474.000000;0.530733
9473.000000;0.530836
9472.000000;0.531266
9471.000000;0.531926
9470.000000;0.532645
9469.000000;0.533116
9468.000000;0.533015
9467.000000;0.532337
9466.000000;0.531526
9465.000000;0.531131
9464.000000;0.531244
9463.000000;0.531416
9462.000000;0.531217
9461.000000;0.530771
9460.000000;0.530581
9459.000000;0.530935
9458.000000;0.531676
9457.000000;0.532503
9456.000000;0.533216
9455.000000;0.533663
9454.000000;0.533692
9453.000000;0.533330
9452.000000;0.532839
9451.000000;0.532474
9450.000000;0.532296
9449.000000;0.532265
9448.000000;0.532332
9447.000000;0.532363
9446.000000;0.532155
9445.000000;0.531736
9444.000000;0.531464
9443.000000;0.531607
9442.000000;0.531932
9441.000000;0.531988
9440.000000;0.531753
9439.000000;0.531692
9438.000000;0.532080
9437.000000;0.532528
9436.000000;0.532370
9435.000000;0.531399
9434.000000;0.530034
9433.000000;0.528824
9432.000000;0.527998
9431.000000;0.527529
9430.000000;0.527382
9429.000000;0.527506
9428.000000;0.527657
9427.000000;0.527553
9426.000000;0.527276
9425.000000;0.527298
9424.000000;0.527875
9423.000000;0.528598
9422.000000;0.528815
9421.000000;0.528455
9420.000000;0.528082
9419.000000;0.528104
9418.000000;0.528299
9417.000000;0.528253
9416.000000;0.527938
9415.000000;0.527570
9414.000000;0.527172
9413.000000;0.526640
9412.000000;0.526094
9411.000000;0.525748
9410.000000;0.525421
9409.000000;0.524595
9408.000000;0.523110
9407.000000;0.521527
9406.000000;0.520633
9405.000000;0.520726
9404.000000;0.521525
9403.000000;0.522538
9402.000000;0.523331
9401.000000;0.523601
9400.000000;0.523262
9399.000000;0.522500
9398.000000;0.521576
9397.000000;0.520565
9396.000000;0.519421
9395.000000;0.518272
9394.000000;0.517483
9393.000000;0.517303
9392.000000;0.517523
9391.000000;0.517642
9390.000000;0.517419
9389.000000;0.517127
9388.000000;0.517158
9387.000000;0.517449
9386.000000;0.517474
9385.000000;0.516875
9384.000000;0.515922
9383.000000;0.515199
9382.000000;0.514906
9381.000000;0.514662
9380.000000;0.513992
9379.000000;0.512859
9378.000000;0.511696
9377.000000;0.511004
9376.000000;0.510968
9375.000000;0.511363
9374.000000;0.511748
9373.000000;0.511799
9372.000000;0.511428
9371.000000;0.510661
9370.000000;0.509520
9369.000000;0.508141
9368.000000;0.506899
9367.000000;0.506161
9366.000000;0.505912
9365.000000;0.505809
9364.000000;0.505645
9363.000000;0.505500
9362.000000;0.505324
9361.000000;0.504695
9360.000000;0.503313
9359.000000;0.501594
9358.000000;0.500424
9357.000000;0.500240
9356.000000;0.500595
9355.000000;0.500680
9354.000000;0.500133
9353.000000;0.499237
9352.000000;0.498479
9351.000000;0.498072
9350.000000;0.497889
9349.000000;0.497686
9348.000000;0.497301
9347.000000;0.496696
9346.000000;0.495912
9345.000000;0.495054
9344.000000;0.494305
9343.000000;0.493818
9342.000000;0.493517
9341.000000;0.493088
9340.000000;0.492262
9339.000000;0.491134
9338.000000;0.490124
9337.000000;0.489604
9336.000000;0.489608
9335.000000;0.489881
9334.000000;0.490137
9333.000000;0.490251
9332.000000;0.490217
9331.000000;0.489929
9330.000000;0.489096
9329.000000;0.487500
9328.000000;0.485389
9327.000000;0.483480
9326.000000;0.482444
9325.000000;0.482371
9324.000000;0.482790
9323.000000;0.483093
9322.000000;0.482872
9321.000000;0.481957
9320.000000;0.480391
9319.000000;0.478457
9318.000000;0.476602
9317.000000;0.475229
9316.000000;0.474578
9315.000000;0.474743
9314.000000;0.475613
9313.000000;0.476773
9312.000000;0.477624
9311.000000;0.477769
9310.000000;0.477249
9309.000000;0.476348
9308.000000;0.475250
9307.000000;0.473967
9306.000000;0.472498
9305.000000;0.470984
9304.000000;0.469675
9303.000000;0.468776
9302.000000;0.468265
9301.000000;0.467879
9300.000000;0.467349
9299.000000;0.466661
9298.000000;0.465982
9297.000000;0.465361
9296.000000;0.464668
9295.000000;0.463861
9294.000000;0.463142
9293.000000;0.462694
9292.000000;0.462401
9291.000000;0.461977
9290.000000;0.461286
9289.000000;0.460406
9288.000000;0.459432
9287.000000;0.458400
9286.000000;0.457388
9285.000000;0.456517
9284.000000;0.455834
9283.000000;0.455277
9282.000000;0.454746
9281.000000;0.454129
9280.000000;0.453331
9279.000000;0.452381
9278.000000;0.451477
9277.000000;0.450784
9276.000000;0.450214
9275.000000;0.449568
9274.000000;0.448860
9273.000000;0.448309
9272.000000;0.448000
9271.000000;0.447753
9270.000000;0.447402
9269.000000;0.446979
9268.000000;0.446488
9267.000000;0.445737
9266.000000;0.444618
9265.000000;0.443464
9264.000000;0.442788
9263.000000;0.442642
9262.000000;0.442460
9261.000000;0.441655
9260.000000;0.440235
9259.000000;0.438668
9258.000000;0.437314
9257.000000;0.436198
9256.000000;0.435301
9255.000000;0.434783
9254.000000;0.434757
9253.000000;0.434978
9252.000000;0.434984
9251.000000;0.434556
9250.000000;0.433885
9249.000000;0.433245
9248.000000;0.432646
9247.000000;0.431895
9246.000000;0.430897
9245.000000;0.429770
9244.000000;0.428706
9243.000000;0.427807
9242.000000;0.427056
9241.000000;0.426355
9240.000000;0.425617
9239.000000;0.424884
9238.000000;0.424323
9237.000000;0.424035
9236.000000;0.423882
9235.000000;0.423596
9234.000000;0.423058
9233.000000;0.422370
9232.000000;0.421637
9231.000000;0.420785
9230.000000;0.419678
9229.000000;0.418368
9228.000000;0.417149
9227.000000;0.416326
9226.000000;0.415931
9225.000000;0.415651
9224.000000;0.415081
9223.000000;0.414093
9222.000000;0.412955
9221.000000;0.412061
9220.000000;0.411576
9219.000000;0.411391
9218.000000;0.411334
9217.000000;0.411314
9216.000000;0.411208
9215.000000;0.410767
9214.000000;0.409778
9213.000000;0.408328
9212.000000;0.406812
9211.000000;0.405611
9210.000000;0.404776
9209.000000;0.404053
9208.000000;0.403258
9207.000000;0.402550
9206.000000;0.402247
9205.000000;0.402388
9204.000000;0.402566
9203.000000;0.402298
9202.000000;0.401488
9201.000000;0.400471
9200.000000;0.399652
9199.000000;0.399213
9198.000000;0.399056
9197.000000;0.398886
9196.000000;0.398354
9195.000000;0.397305
9194.000000;0.395957
9193.000000;0.394717
9192.000000;0.393797
9191.000000;0.393075
9190.000000;0.392342
9189.000000;0.391538
9188.000000;0.390714
9187.000000;0.389893
9186.000000;0.389094
9185.000000;0.388424
9184.000000;0.387993
9183.000000;0.387739
9182.000000;0.387418
9181.000000;0.386826
9180.000000;0.385988
9179.000000;0.385133
9178.000000;0.384474
9177.000000;0.384013
9176.000000;0.383585
9175.000000;0.383099
9174.000000;0.382683
9173.000000;0.382472
9172.000000;0.382327
9171.000000;0.381900
9170.000000;0.381031
9169.000000;0.379914
9168.000000;0.378814
9167.000000;0.377799
9166.000000;0.376853
9165.000000;0.376086
9164.000000;0.375612
9163.000000;0.375297
9162.000000;0.374849
9161.000000;0.374167
9160.000000;0.373422
9159.000000;0.372759
9158.000000;0.372136
9157.000000;0.371546
9156.000000;0.371217
9155.000000;0.371358
9154.000000;0.371756
9153.000000;0.371840
9152.000000;0.371231
9151.000000;0.370122
9150.000000;0.369000
9149.000000;0.368103
9148.000000;0.367270
9147.000000;0.366294
9146.000000;0.365247
9145.000000;0.364352
9144.000000;0.363666
9143.000000;0.363042
9142.000000;0.362357
9141.000000;0.361604
9140.000000;0.360761
9139.000000;0.359750
9138.000000;0.358647
9137.000000;0.357766
9136.000000;0.357368
9135.000000;0.357337
9134.000000;0.357300
9133.000000;0.357058
9132.000000;0.356724
9131.000000;0.356418
9130.000000;0.356042
9129.000000;0.355460
9128.000000;0.354772
9127.000000;0.354235
9126.000000;0.353938
9125.000000;0.353692
9124.000000;0.353248
9123.000000;0.352541
9122.000000;0.351700
9121.000000;0.350909
9120.000000;0.350279
9119.000000;0.349776
9118.000000;0.349226
9117.000000;0.348443
9116.000000;0.347443
9115.000000;0.346492
9114.000000;0.345892
9113.000000;0.345697
9112.000000;0.345680
9111.000000;0.345555
9110.000000;0.345193
9109.000000;0.344649
9108.000000;0.344048
9107.000000;0.343499
9106.000000;0.343038
9105.000000;0.342600
9104.000000;0.342082
9103.000000;0.341487
9102.000000;0.340978
9101.000000;0.340702
9100.000000;0.340568
9099.000000;0.340279
9098.000000;0.339621
9097.000000;0.338651
9096.000000;0.337598
9095.000000;0.336667
9094.000000;0.335985
9093.000000;0.335612
9092.000000;0.335447
9091.000000;0.335176
9090.000000;0.334484
9089.000000;0.333421
9088.000000;0.332413
9087.000000;0.331827
9086.000000;0.331578
9085.000000;0.331284
9084.000000;0.330738
9083.000000;0.330086
9082.000000;0.329553
9081.000000;0.329156
9080.000000;0.328793
9079.000000;0.328456
9078.000000;0.328185
9077.000000;0.327875
9076.000000;0.327308
9075.000000;0.326438
9074.000000;0.325526
9073.000000;0.324888
9072.000000;0.324560
9071.000000;0.324280
9070.000000;0.323763
9069.000000;0.322940
9068.000000;0.321956
9067.000000;0.321048
9066.000000;0.320423
9065.000000;0.320150
9064.000000;0.320100
9063.000000;0.320016
9062.000000;0.319723
9061.000000;0.319289
9060.000000;0.318932
9059.000000;0.318767
9058.000000;0.318669
9057.000000;0.318413
9056.000000;0.317899
9055.000000;0.317204
9054.000000;0.316460
9053.000000;0.315744
