Criado como novo conjunto de dados;"e2410_daniel_v2.spp","68765.4 Secs"
cm-1;Abs
10000.000000;1.237815
9999.000000;1.237516
9998.000000;1.237077
9997.000000;1.236467
9996.000000;1.235691
9995.000000;1.235003
9994.000000;1.234922
9993.000000;1.235637
9992.000000;1.236461
9991.000000;1.236336
9990.000000;1.234936
9989.000000;1.232982
9988.000000;1.231442
9987.000000;1.230669
9986.000000;1.230244
9985.000000;1.229482
9984.000000;1.228210
9983.000000;1.227146
9982.000000;1.227208
9981.000000;1.228324
9980.000000;1.229321
9979.000000;1.229198
9978.000000;1.228115
9977.000000;1.226833
9976.000000;1.225767
9975.000000;1.225056
9974.000000;1.224946
9973.000000;1.225375
9972.000000;1.225614
9971.000000;1.225076
9970.000000;1.224205
9969.000000;1.223818
9968.000000;1.223852
9967.000000;1.223520
9966.000000;1.222472
9965.000000;1.221055
9964.000000;1.219588
9963.000000;1.218200
9962.000000;1.217287
9961.000000;1.217247
9960.000000;1.217734
9959.000000;1.217908
9958.000000;1.217498
9957.000000;1.216939
9956.000000;1.216406
9955.000000;1.215479
9954.000000;1.213957
9953.000000;1.212364
9952.000000;1.211384
9951.000000;1.211219
9950.000000;1.211614
9949.000000;1.212049
9948.000000;1.211875
9947.000000;1.210781
9946.000000;1.209320
9945.000000;1.208490
9944.000000;1.208663
9943.000000;1.209239
9942.000000;1.209397
9941.000000;1.208880
9940.000000;1.207966
9939.000000;1.207057
9938.000000;1.206396
9937.000000;1.205911
9936.000000;1.205276
9935.000000;1.204342
9934.000000;1.203390
9933.000000;1.202730
9932.000000;1.202206
9931.000000;1.201459
9930.000000;1.200525
9929.000000;1.199815
9928.000000;1.199597
9927.000000;1.199816
9926.000000;1.200303
9925.000000;1.200776
9924.000000;1.200819
9923.000000;1.200269
9922.000000;1.199489
9921.000000;1.198866
9920.000000;1.198243
9919.000000;1.197295
9918.000000;1.196236
9917.000000;1.195588
9916.000000;1.195404
9915.000000;1.195264
9914.000000;1.194962
9913.000000;1.194670
9912.000000;1.194466
9911.000000;1.194249
9910.000000;1.194125
9909.000000;1.194328
9908.000000;1.194680
9907.000000;1.194596
9906.000000;1.193760
9905.000000;1.192431
9904.000000;1.191030
9903.000000;1.189743
9902.000000;1.188563
9901.000000;1.187430
9900.000000;1.186287
9899.000000;1.185159
9898.000000;1.184133
9897.000000;1.183144
9896.000000;1.182044
9895.000000;1.181070
9894.000000;1.180854
9893.000000;1.181607
9892.000000;1.182624
9891.000000;1.183053
9890.000000;1.182881
9889.000000;1.182707
9888.000000;1.182786
9887.000000;1.182848
9886.000000;1.182662
9885.000000;1.182201
9884.000000;1.181365
9883.000000;1.180149
9882.000000;1.179002
9881.000000;1.178448
9880.000000;1.178339
9879.000000;1.177959
9878.000000;1.176920
9877.000000;1.175596
9876.000000;1.174652
9875.000000;1.174452
9874.000000;1.174838
9873.000000;1.175153
9872.000000;1.174632
9871.000000;1.173187
9870.000000;1.171664
9869.000000;1.170959
9868.000000;1.171015
9867.000000;1.171027
9866.000000;1.170454
9865.000000;1.169436
9864.000000;1.168403
9863.000000;1.167672
9862.000000;1.167321
9861.000000;1.167132
9860.000000;1.166779
9859.000000;1.166328
9858.000000;1.166275
9857.000000;1.166754
9856.000000;1.167092
9855.000000;1.166621
9854.000000;1.165596
9853.000000;1.164795
9852.000000;1.164481
9851.000000;1.164286
9850.000000;1.163866
9849.000000;1.163084
9848.000000;1.161822
9847.000000;1.160227
9846.000000;1.158953
9845.000000;1.158520
9844.000000;1.158578
9843.000000;1.158336
9842.000000;1.157625
9841.000000;1.156946
9840.000000;1.156573
9839.000000;1.156280
9838.000000;1.155889
9837.000000;1.155476
9836.000000;1.155015
9835.000000;1.154400
9834.000000;1.153833
9833.000000;1.153679
9832.000000;1.153879
9831.000000;1.153925
9830.000000;1.153407
9829.000000;1.152226
9828.000000;1.150442
9827.000000;1.148433
9826.000000;1.147057
9825.000000;1.147022
9824.000000;1.148054
9823.000000;1.149165
9822.000000;1.149784
9821.000000;1.150149
9820.000000;1.150584
9819.000000;1.150945
9818.000000;1.150825
9817.000000;1.149907
9816.000000;1.148132
9815.000000;1.145981
9814.000000;1.144483
9813.000000;1.144389
9812.000000;1.145238
9811.000000;1.145691
9810.000000;1.144938
9809.000000;1.143403
9808.000000;1.142018
9807.000000;1.141255
9806.000000;1.140975
9805.000000;1.140789
9804.000000;1.140385
9803.000000;1.139752
9802.000000;1.139201
9801.000000;1.138983
9800.000000;1.138889
9799.000000;1.138466
9798.000000;1.137589
9797.000000;1.136577
9796.000000;1.135810
9795.000000;1.135434
9794.000000;1.135394
9793.000000;1.135489
9792.000000;1.135464
9791.000000;1.135251
9790.000000;1.135022
9789.000000;1.134880
9788.000000;1.134679
9787.000000;1.134316
9786.000000;1.133958
9785.000000;1.133744
9784.000000;1.133460
9783.000000;1.132794
9782.000000;1.131701
9781.000000;1.130304
9780.000000;1.128753
9779.000000;1.127437
9778.000000;1.126903
9777.000000;1.127186
9776.000000;1.127591
9775.000000;1.127537
9774.000000;1.127266
9773.000000;1.127247
9772.000000;1.127286
9771.000000;1.126849
9770.000000;1.125959
9769.000000;1.125150
9768.000000;1.124678
9767.000000;1.124345
9766.000000;1.123952
9765.000000;1.123419
9764.000000;1.122614
9763.000000;1.121572
9762.000000;1.120738
9761.000000;1.120485
9760.000000;1.120491
9759.000000;1.120068
9758.000000;1.119009
9757.000000;1.117704
9756.000000;1.116525
9755.000000;1.115567
9754.000000;1.114854
9753.000000;1.114355
9752.000000;1.113899
9751.000000;1.113410
9750.000000;1.113133
9749.000000;1.113250
9748.000000;1.113474
9747.000000;1.113408
9746.000000;1.113100
9745.000000;1.112810
9744.000000;1.112483
9743.000000;1.111946
9742.000000;1.111367
9741.000000;1.111004
9740.000000;1.110668
9739.000000;1.109981
9738.000000;1.109002
9737.000000;1.108123
9736.000000;1.107497
9735.000000;1.107049
9734.000000;1.106843
9733.000000;1.106895
9732.000000;1.106811
9731.000000;1.106176
9730.000000;1.105188
9729.000000;1.104396
9728.000000;1.103920
9727.000000;1.103460
9726.000000;1.102935
9725.000000;1.102571
9724.000000;1.102467
9723.000000;1.102584
9722.000000;1.103019
9721.000000;1.103758
9720.000000;1.104249
9719.000000;1.103851
9718.000000;1.102636
9717.000000;1.101219
9716.000000;1.099898
9715.000000;1.098537
9714.000000;1.097206
9713.000000;1.096278
9712.000000;1.095870
9711.000000;1.095728
9710.000000;1.095693
9709.000000;1.095750
9708.000000;1.095612
9707.000000;1.094885
9706.000000;1.093780
9705.000000;1.093096
9704.000000;1.093290
9703.000000;1.093978
9702.000000;1.094482
9701.000000;1.094491
9700.000000;1.094057
9699.000000;1.093300
9698.000000;1.092295
9697.000000;1.091041
9696.000000;1.089484
9695.000000;1.087791
9694.000000;1.086471
9693.000000;1.085903
9692.000000;1.085825
9691.000000;1.085654
9690.000000;1.085250
9689.000000;1.084971
9688.000000;1.085003
9687.000000;1.085094
9686.000000;1.084976
9685.000000;1.084640
9684.000000;1.084118
9683.000000;1.083376
9682.000000;1.082552
9681.000000;1.082003
9680.000000;1.081977
9679.000000;1.082391
9678.000000;1.082947
9677.000000;1.083303
9676.000000;1.083186
9675.000000;1.082553
9674.000000;1.081669
9673.000000;1.080875
9672.000000;1.080310
9671.000000;1.079914
9670.000000;1.079530
9669.000000;1.078901
9668.000000;1.077809
9667.000000;1.076423
9666.000000;1.075280
9665.000000;1.074695
9664.000000;1.074446
9663.000000;1.074186
9662.000000;1.073833
9661.000000;1.073355
9660.000000;1.072569
9659.000000;1.071521
9658.000000;1.070695
9657.000000;1.070424
9656.000000;1.070376
9655.000000;1.070069
9654.000000;1.069610
9653.000000;1.069438
9652.000000;1.069596
9651.000000;1.069773
9650.000000;1.069865
9649.000000;1.069939
9648.000000;1.069772
9647.000000;1.068980
9646.000000;1.067631
9645.000000;1.066295
9644.000000;1.065458
9643.000000;1.065151
9642.000000;1.065074
9641.000000;1.064816
9640.000000;1.064134
9639.000000;1.063301
9638.000000;1.062956
9637.000000;1.063330
9636.000000;1.063839
9635.000000;1.063797
9634.000000;1.063287
9633.000000;1.062884
9632.000000;1.062736
9631.000000;1.062444
9630.000000;1.061731
9629.000000;1.060779
9628.000000;1.059939
9627.000000;1.059446
9626.000000;1.059324
9625.000000;1.059306
9624.000000;1.058974
9623.000000;1.058241
9622.000000;1.057428
9621.000000;1.056678
9620.000000;1.055693
9619.000000;1.054399
9618.000000;1.053386
9617.000000;1.053147
9616.000000;1.053262
9615.000000;1.052969
9614.000000;1.052290
9613.000000;1.051909
9612.000000;1.052093
9611.000000;1.052401
9610.000000;1.052383
9609.000000;1.051968
9608.000000;1.051213
9607.000000;1.050208
9606.000000;1.049230
9605.000000;1.048540
9604.000000;1.048029
9603.000000;1.047417
9602.000000;1.046731
9601.000000;1.046187
9600.000000;1.045767
9599.000000;1.045331
9598.000000;1.045018
9597.000000;1.045035
9596.000000;1.045163
9595.000000;1.044968
9594.000000;1.044418
9593.000000;1.043831
9592.000000;1.043311
9591.000000;1.042774
9590.000000;1.042416
9589.000000;1.042584
9588.000000;1.043135
9587.000000;1.043434
9586.000000;1.043097
9585.000000;1.042298
9584.000000;1.041282
9583.000000;1.040056
9582.000000;1.038718
9581.000000;1.037684
9580.000000;1.037350
9579.000000;1.037717
9578.000000;1.038392
9577.000000;1.038811
9576.000000;1.038517
9575.000000;1.037492
9574.000000;1.036234
9573.000000;1.035349
9572.000000;1.035077
9571.000000;1.035277
9570.000000;1.035675
9569.000000;1.035948
9568.000000;1.035805
9567.000000;1.035244
9566.000000;1.034578
9565.000000;1.033975
9564.000000;1.033231
9563.000000;1.032233
9562.000000;1.031327
9561.000000;1.030872
9560.000000;1.030693
9559.000000;1.030366
9558.000000;1.029830
9557.000000;1.029329
9556.000000;1.028940
9555.000000;1.028553
9554.000000;1.028136
9553.000000;1.027672
9552.000000;1.027030
9551.000000;1.026279
9550.000000;1.025864
9549.000000;1.026049
9548.000000;1.026387
9547.000000;1.026173
9546.000000;1.025287
9545.000000;1.024215
9544.000000;1.023404
9543.000000;1.022995
9542.000000;1.022969
9541.000000;1.023115
9540.000000;1.023012
9539.000000;1.022493
9538.000000;1.021947
9537.000000;1.021790
9536.000000;1.021842
9535.000000;1.021630
9534.000000;1.021075
9533.000000;1.020426
9532.000000;1.019743
9531.000000;1.018993
9530.000000;1.018460
9529.000000;1.018466
9528.000000;1.018763
9527.000000;1.018746
9526.000000;1.018246
9525.000000;1.017639
9524.000000;1.017199
9523.000000;1.016824
9522.000000;1.016416
9521.000000;1.016072
9520.000000;1.015829
9519.000000;1.015569
9518.000000;1.015207
9517.000000;1.014711
9516.000000;1.014002
9515.000000;1.013090
9514.000000;1.012208
9513.000000;1.011540
9512.000000;1.010979
9511.000000;1.010412
9510.000000;1.010034
9509.000000;1.010032
9508.000000;1.010237
9507.000000;1.010416
9506.000000;1.010664
9505.000000;1.011087
9504.000000;1.011346
9503.000000;1.011002
9502.000000;1.010124
9501.000000;1.009116
9500.000000;1.008120
9499.000000;1.007095
9498.000000;1.006265
9497.000000;1.005942
9496.000000;1.005986
9495.000000;1.005953
9494.000000;1.005681
9493.000000;1.005305
9492.000000;1.004794
9491.000000;1.004013
9490.000000;1.003149
9489.000000;1.002561
9488.000000;1.002249
9487.000000;1.001927
9486.000000;1.001568
9485.000000;1.001415
9484.000000;1.001497
9483.000000;1.001593
9482.000000;1.001617
9481.000000;1.001597
9480.000000;1.001323
9479.000000;1.000518
9478.000000;0.999382
9477.000000;0.998480
9476.000000;0.998055
9475.000000;0.997808
9474.000000;0.997379
9473.000000;0.996685
9472.000000;0.995803
9471.000000;0.994909
9470.000000;0.994349
9469.000000;0.994358
9468.000000;0.994692
9467.000000;0.994823
9466.000000;0.994554
9465.000000;0.994150
9464.000000;0.993882
9463.000000;0.993733
9462.000000;0.993519
9461.000000;0.993039
9460.000000;0.992210
9459.000000;0.991314
9458.000000;0.990920
9457.000000;0.991233
9456.000000;0.991713
9455.000000;0.991680
9454.000000;0.991110
9453.000000;0.990436
9452.000000;0.989824
9451.000000;0.989152
9450.000000;0.988536
9449.000000;0.988241
9448.000000;0.988142
9447.000000;0.987812
9446.000000;0.987177
9445.000000;0.986575
9444.000000;0.986124
9443.000000;0.985534
9442.000000;0.984660
9441.000000;0.983817
9440.000000;0.983373
9439.000000;0.983351
9438.000000;0.983518
9437.000000;0.983605
9436.000000;0.983434
9435.000000;0.983076
9434.000000;0.982858
9433.000000;0.982904
9432.000000;0.982747
9431.000000;0.981790
9430.000000;0.980144
9429.000000;0.978650
9428.000000;0.978024
9427.000000;0.978251
9426.000000;0.978771
9425.000000;0.978958
9424.000000;0.978490
9423.000000;0.977588
9422.000000;0.976901
9421.000000;0.976867
9420.000000;0.977190
9419.000000;0.977188
9418.000000;0.976592
9417.000000;0.975728
9416.000000;0.975026
9415.000000;0.974690
9414.000000;0.974757
9413.000000;0.975073
9412.000000;0.975198
9411.000000;0.974729
9410.000000;0.973765
9409.000000;0.972767
9408.000000;0.971997
9407.000000;0.971394
9406.000000;0.970947
9405.000000;0.970806
9404.000000;0.970953
9403.000000;0.971111
9402.000000;0.971061
9401.000000;0.970829
9400.000000;0.970509
9399.000000;0.970153
9398.000000;0.969855
9397.000000;0.969705
9396.000000;0.969633
9395.000000;0.969488
9394.000000;0.969243
9393.000000;0.968941
9392.000000;0.968480
9391.000000;0.967732
9390.000000;0.966855
9389.000000;0.966259
9388.000000;0.966171
9387.000000;0.966415
9386.000000;0.966595
9385.000000;0.966408
9384.000000;0.965805
9383.000000;0.964990
9382.000000;0.964251
9381.000000;0.963687
9380.000000;0.963170
9379.000000;0.962624
9378.000000;0.962176
9377.000000;0.961943
9376.000000;0.961872
9375.000000;0.961892
9374.000000;0.962012
9373.000000;0.962096
9372.000000;0.961814
9371.000000;0.961012
9370.000000;0.959952
9369.000000;0.958976
9368.000000;0.958175
9367.000000;0.957563
9366.000000;0.957280
9365.000000;0.957369
9364.000000;0.957579
9363.000000;0.957680
9362.000000;0.957737
9361.000000;0.957842
9360.000000;0.957795
9359.000000;0.957359
9358.000000;0.956607
9357.000000;0.955762
9356.000000;0.954922
9355.000000;0.954197
9354.000000;0.953815
9353.000000;0.953802
9352.000000;0.953806
9351.000000;0.953533
9350.000000;0.953113
9349.000000;0.952753
9348.000000;0.952359
9347.000000;0.951838
9346.000000;0.951414
9345.000000;0.951244
9344.000000;0.951037
9343.000000;0.950530
9342.000000;0.950026
9341.000000;0.949929
9340.000000;0.950013
9339.000000;0.949723
9338.000000;0.949039
9337.000000;0.948464
9336.000000;0.948236
9335.000000;0.948146
9334.000000;0.948065
9333.000000;0.948128
9332.000000;0.948336
9331.000000;0.948479
9330.000000;0.948492
9329.000000;0.948453
9328.000000;0.948157
9327.000000;0.947179
9326.000000;0.945517
9325.000000;0.943841
9324.000000;0.942925
9323.000000;0.943003
9322.000000;0.943691
9321.000000;0.944326
9320.000000;0.944392
9319.000000;0.943865
9318.000000;0.943176
9317.000000;0.942706
9316.000000;0.942363
9315.000000;0.941822
9314.000000;0.941097
9313.000000;0.940604
9312.000000;0.940704
9311.000000;0.941314
9310.000000;0.941965
9309.000000;0.942127
9308.000000;0.941599
9307.000000;0.940668
9306.000000;0.939818
9305.000000;0.939233
9304.000000;0.938772
9303.000000;0.938387
9302.000000;0.938218
9301.000000;0.938171
9300.000000;0.937875
9299.000000;0.937275
9298.000000;0.936829
9297.000000;0.936803
9296.000000;0.936790
9295.000000;0.936336
9294.000000;0.935667
9293.000000;0.935310
9292.000000;0.935302
9291.000000;0.935250
9290.000000;0.934953
9289.000000;0.934468
9288.000000;0.933781
9287.000000;0.932901
9286.000000;0.932143
9285.000000;0.931825
9284.000000;0.931775
9283.000000;0.931552
9282.000000;0.931055
9281.000000;0.930535
9280.000000;0.930132
9279.000000;0.929825
9278.000000;0.929723
9277.000000;0.929963
9276.000000;0.930359
9275.000000;0.930558
9274.000000;0.930498
9273.000000;0.930377
9272.000000;0.930249
9271.000000;0.930009
9270.000000;0.929719
9269.000000;0.929549
9268.000000;0.929423
9267.000000;0.929079
9266.000000;0.928451
9265.000000;0.927737
9264.000000;0.927128
9263.000000;0.926710
9262.000000;0.926515
9261.000000;0.926399
9260.000000;0.926021
9259.000000;0.925240
9258.000000;0.924428
9257.000000;0.924076
9256.000000;0.924212
9255.000000;0.924498
9254.000000;0.924734
9253.000000;0.924943
9252.000000;0.925083
9251.000000;0.925030
9250.000000;0.924749
9249.000000;0.924249
9248.000000;0.923490
9247.000000;0.922581
9246.000000;0.921854
9245.000000;0.921459
9244.000000;0.921124
9243.000000;0.920619
9242.000000;0.920182
9241.000000;0.920090
9240.000000;0.920138
9239.000000;0.919992
9238.000000;0.919825
9237.000000;0.920013
9236.000000;0.920366
9235.000000;0.920268
9234.000000;0.919576
9233.000000;0.918793
9232.000000;0.918295
9231.000000;0.917893
9230.000000;0.917290
9229.000000;0.916573
9228.000000;0.916065
9227.000000;0.915955
9226.000000;0.916163
9225.000000;0.916403
9224.000000;0.916374
9223.000000;0.916065
9222.000000;0.915801
9221.000000;0.915787
9220.000000;0.915742
9219.000000;0.915265
9218.000000;0.914387
9217.000000;0.913495
9216.000000;0.912825
9215.000000;0.912370
9214.000000;0.912142
9213.000000;0.912160
9212.000000;0.912254
9211.000000;0.912212
9210.000000;0.912059
9209.000000;0.911902
9208.000000;0.911622
9207.000000;0.911064
9206.000000;0.910443
9205.000000;0.910175
9204.000000;0.910341
9203.000000;0.910628
9202.000000;0.910744
9201.000000;0.910594
9200.000000;0.910153
9199.000000;0.909519
9198.000000;0.909035
9197.000000;0.908980
9196.000000;0.909154
9195.000000;0.909059
9194.000000;0.908506
9193.000000;0.907758
9192.000000;0.907123
9191.000000;0.906687
9190.000000;0.906420
9189.000000;0.906245
9188.000000;0.905968
9187.000000;0.905420
9186.000000;0.904700
9185.000000;0.904110
9184.000000;0.903855
9183.000000;0.903904
9182.000000;0.904044
9181.000000;0.903960
9180.000000;0.903471
9179.000000;0.902839
9178.000000;0.902610
9177.000000;0.902939
9176.000000;0.903336
9175.000000;0.903307
9174.000000;0.902975
9173.000000;0.902730
9172.000000;0.902562
9171.000000;0.902194
9170.000000;0.901652
9169.000000;0.901231
9168.000000;0.900992
9167.000000;0.900728
9166.000000;0.900383
9165.000000;0.900131
9164.000000;0.900079
9163.000000;0.900199
9162.000000;0.900445
9161.000000;0.900651
9160.000000;0.900479
9159.000000;0.899835
9158.000000;0.899153
9157.000000;0.898881
9156.000000;0.898812
9155.000000;0.898387
9154.000000;0.897538
9153.000000;0.896763
9152.000000;0.896418
9151.000000;0.896369
9150.000000;0.896354
9149.000000;0.896271
9148.000000;0.896053
9147.000000;0.895683
9146.000000;0.895371
9145.000000;0.895393
9144.000000;0.895682
9143.000000;0.895881
9142.000000;0.895822
9141.000000;0.895659
9140.000000;0.895497
9139.000000;0.895219
9138.000000;0.894741
9137.000000;0.894182
9136.000000;0.893718
9135.000000;0.893458
9134.000000;0.893439
9133.000000;0.893536
9132.000000;0.893438
9131.000000;0.892912
9130.000000;0.892064
9129.000000;0.891152
9128.000000;0.890281
9127.000000;0.889540
9126.000000;0.889198
9125.000000;0.889402
9124.000000;0.889788
9123.000000;0.889796
9122.000000;0.889344
9121.000000;0.888832
9120.000000;0.888520
9119.000000;0.888296
9118.000000;0.888070
9117.000000;0.887964
9116.000000;0.888034
9115.000000;0.888128
9114.000000;0.888166
9113.000000;0.888255
9112.000000;0.888399
9111.000000;0.888306
9110.000000;0.887693
9109.000000;0.886667
9108.000000;0.885710
9107.000000;0.885289
9106.000000;0.885466
9105.000000;0.885813
9104.000000;0.885780
9103.000000;0.885266
9102.000000;0.884736
9101.000000;0.884641
9100.000000;0.884882
9099.000000;0.885003
9098.000000;0.884751
9097.000000;0.884268
9096.000000;0.883822
9095.000000;0.883585
9094.000000;0.883574
9093.000000;0.883632
9092.000000;0.883533
9091.000000;0.883273
9090.000000;0.883100
9089.000000;0.883100
9088.000000;0.882971
9087.000000;0.882450
9086.000000;0.881778
9085.000000;0.881412
9084.000000;0.881437
9083.000000;0.881565
9082.000000;0.881605
9081.000000;0.881584
9080.000000;0.881469
9079.000000;0.881139
9078.000000;0.880640
9077.000000;0.880200
9076.000000;0.879940
9075.000000;0.879786
9074.000000;0.879629
9073.000000;0.879380
9072.000000;0.878928
9071.000000;0.878271
9070.000000;0.877665
9069.000000;0.877415
9068.000000;0.877538
9067.000000;0.877801
9066.000000;0.878004
9065.000000;0.878082
9064.000000;0.878015
9063.000000;0.877832
9062.000000;0.877648
9061.000000;0.877513
9060.000000;0.877295
9059.000000;0.876864
9058.000000;0.876302
9057.000000;0.875781
9056.000000;0.875355
9055.000000;0.875004
9054.000000;0.874741
9053.000000;0.874524
