Criado como novo conjunto de dados;"e2410_daniel_v2.spp","100087.3 Secs"
cm-1;Abs
10000.000000;0.130502
9999.000000;0.130821
9998.000000;0.131141
9997.000000;0.131460
9996.000000;0.131802
9995.000000;0.132254
9994.000000;0.132869
9993.000000;0.133656
9992.000000;0.134534
9991.000000;0.135326
9990.000000;0.135905
9989.000000;0.136318
9988.000000;0.136753
9987.000000;0.137359
9986.000000;0.138143
9985.000000;0.139005
9984.000000;0.139845
9983.000000;0.140631
9982.000000;0.141381
9981.000000;0.142124
9980.000000;0.142884
9979.000000;0.143659
9978.000000;0.144391
9977.000000;0.144982
9976.000000;0.145404
9975.000000;0.145762
9974.000000;0.146215
9973.000000;0.146819
9972.000000;0.147498
9971.000000;0.148159
9970.000000;0.148785
9969.000000;0.149395
9968.000000;0.149992
9967.000000;0.150584
9966.000000;0.151180
9965.000000;0.151759
9964.000000;0.152299
9963.000000;0.152875
9962.000000;0.153650
9961.000000;0.154671
9960.000000;0.155755
9959.000000;0.156654
9958.000000;0.157311
9957.000000;0.157876
9956.000000;0.158498
9955.000000;0.159171
9954.000000;0.159780
9953.000000;0.160225
9952.000000;0.160521
9951.000000;0.160813
9950.000000;0.161287
9949.000000;0.162012
9948.000000;0.162886
9947.000000;0.163768
9946.000000;0.164607
9945.000000;0.165424
9944.000000;0.166234
9943.000000;0.167061
9942.000000;0.167959
9941.000000;0.168922
9940.000000;0.169801
9939.000000;0.170425
9938.000000;0.170811
9937.000000;0.171173
9936.000000;0.171713
9935.000000;0.172459
9934.000000;0.173304
9933.000000;0.174122
9932.000000;0.174848
9931.000000;0.175535
9930.000000;0.176318
9929.000000;0.177260
9928.000000;0.178234
9927.000000;0.179032
9926.000000;0.179602
9925.000000;0.180073
9924.000000;0.180570
9923.000000;0.181109
9922.000000;0.181688
9921.000000;0.182348
9920.000000;0.183104
9919.000000;0.183900
9918.000000;0.184725
9917.000000;0.185667
9916.000000;0.186772
9915.000000;0.187891
9914.000000;0.188757
9913.000000;0.189230
9912.000000;0.189437
9911.000000;0.189680
9910.000000;0.190202
9909.000000;0.191008
9908.000000;0.191869
9907.000000;0.192550
9906.000000;0.193034
9905.000000;0.193501
9904.000000;0.194104
9903.000000;0.194819
9902.000000;0.195508
9901.000000;0.196074
9900.000000;0.196550
9899.000000;0.197113
9898.000000;0.198000
9897.000000;0.199291
9896.000000;0.200725
9895.000000;0.201844
9894.000000;0.202437
9893.000000;0.202787
9892.000000;0.203403
9891.000000;0.204538
9890.000000;0.205991
9889.000000;0.207328
9888.000000;0.208238
9887.000000;0.208747
9886.000000;0.209170
9885.000000;0.209825
9884.000000;0.210753
9883.000000;0.211709
9882.000000;0.212459
9881.000000;0.213010
9880.000000;0.213524
9879.000000;0.214106
9878.000000;0.214794
9877.000000;0.215645
9876.000000;0.216672
9875.000000;0.217729
9874.000000;0.218613
9873.000000;0.219310
9872.000000;0.219998
9871.000000;0.220785
9870.000000;0.221564
9869.000000;0.222215
9868.000000;0.222829
9867.000000;0.223631
9866.000000;0.224682
9865.000000;0.225765
9864.000000;0.226589
9863.000000;0.227072
9862.000000;0.227414
9861.000000;0.227896
9860.000000;0.228640
9859.000000;0.229571
9858.000000;0.230570
9857.000000;0.231579
9856.000000;0.232560
9855.000000;0.233455
9854.000000;0.234281
9853.000000;0.235189
9852.000000;0.236286
9851.000000;0.237438
9850.000000;0.238366
9849.000000;0.238965
9848.000000;0.239416
9847.000000;0.239937
9846.000000;0.240552
9845.000000;0.241173
9844.000000;0.241799
9843.000000;0.242553
9842.000000;0.243556
9841.000000;0.244815
9840.000000;0.246201
9839.000000;0.247490
9838.000000;0.248503
9837.000000;0.249257
9836.000000;0.249932
9835.000000;0.250645
9834.000000;0.251327
9833.000000;0.251895
9832.000000;0.252439
9831.000000;0.253124
9830.000000;0.253950
9829.000000;0.254741
9828.000000;0.255389
9827.000000;0.255981
9826.000000;0.256674
9825.000000;0.257539
9824.000000;0.258561
9823.000000;0.259686
9822.000000;0.260799
9821.000000;0.261740
9820.000000;0.262434
9819.000000;0.262991
9818.000000;0.263595
9817.000000;0.264325
9816.000000;0.265147
9815.000000;0.266063
9814.000000;0.267146
9813.000000;0.268376
9812.000000;0.269540
9811.000000;0.270412
9810.000000;0.271032
9809.000000;0.271692
9808.000000;0.272598
9807.000000;0.273657
9806.000000;0.274661
9805.000000;0.275585
9804.000000;0.276559
9803.000000;0.277569
9802.000000;0.278401
9801.000000;0.278952
9800.000000;0.279446
9799.000000;0.280200
9798.000000;0.281246
9797.000000;0.282328
9796.000000;0.283232
9795.000000;0.283969
9794.000000;0.284659
9793.000000;0.285395
9792.000000;0.286273
9791.000000;0.287404
9790.000000;0.288777
9789.000000;0.290175
9788.000000;0.291348
9787.000000;0.292257
9786.000000;0.293090
9785.000000;0.294025
9784.000000;0.295042
9783.000000;0.296000
9782.000000;0.296830
9781.000000;0.297612
9780.000000;0.298473
9779.000000;0.299437
9778.000000;0.300399
9777.000000;0.301220
9776.000000;0.301827
9775.000000;0.302251
9774.000000;0.302613
9773.000000;0.303082
9772.000000;0.303766
9771.000000;0.304632
9770.000000;0.305573
9769.000000;0.306594
9768.000000;0.307827
9767.000000;0.309293
9766.000000;0.310727
9765.000000;0.311810
9764.000000;0.312530
9763.000000;0.313177
9762.000000;0.313938
9761.000000;0.314710
9760.000000;0.315383
9759.000000;0.316112
9758.000000;0.317122
9757.000000;0.318326
9756.000000;0.319379
9755.000000;0.320097
9754.000000;0.320643
9753.000000;0.321264
9752.000000;0.322015
9751.000000;0.322829
9750.000000;0.323712
9749.000000;0.324701
9748.000000;0.325713
9747.000000;0.326609
9746.000000;0.327418
9745.000000;0.328351
9744.000000;0.329555
9743.000000;0.330912
9742.000000;0.332158
9741.000000;0.333158
9740.000000;0.333984
9739.000000;0.334779
9738.000000;0.335612
9737.000000;0.336478
9736.000000;0.337387
9735.000000;0.338401
9734.000000;0.339569
9733.000000;0.340862
9732.000000;0.342185
9731.000000;0.343458
9730.000000;0.344676
9729.000000;0.345864
9728.000000;0.346985
9727.000000;0.347922
9726.000000;0.348592
9725.000000;0.349047
9724.000000;0.349453
9723.000000;0.349978
9722.000000;0.350722
9721.000000;0.351695
9720.000000;0.352808
9719.000000;0.353869
9718.000000;0.354708
9717.000000;0.355342
9716.000000;0.355976
9715.000000;0.356768
9714.000000;0.357685
9713.000000;0.358644
9712.000000;0.359714
9711.000000;0.361011
9710.000000;0.362424
9709.000000;0.363628
9708.000000;0.364444
9707.000000;0.365050
9706.000000;0.365718
9705.000000;0.366488
9704.000000;0.367236
9703.000000;0.367970
9702.000000;0.368837
9701.000000;0.369807
9700.000000;0.370593
9699.000000;0.371027
9698.000000;0.371409
9697.000000;0.372285
9696.000000;0.373877
9695.000000;0.375817
9694.000000;0.377479
9693.000000;0.378494
9692.000000;0.378954
9691.000000;0.379217
9690.000000;0.379616
9689.000000;0.380342
9688.000000;0.381461
9687.000000;0.382898
9686.000000;0.384374
9685.000000;0.385502
9684.000000;0.386090
9683.000000;0.386378
9682.000000;0.386842
9681.000000;0.387755
9680.000000;0.389026
9679.000000;0.390463
9678.000000;0.392021
9677.000000;0.393690
9676.000000;0.395306
9675.000000;0.396711
9674.000000;0.398010
9673.000000;0.399401
9672.000000;0.400757
9671.000000;0.401674
9670.000000;0.402000
9669.000000;0.402060
9668.000000;0.402231
9667.000000;0.402523
9666.000000;0.402811
9665.000000;0.403231
9664.000000;0.404054
9663.000000;0.405254
9662.000000;0.406492
9661.000000;0.407531
9660.000000;0.408445
9659.000000;0.409416
9658.000000;0.410519
9657.000000;0.411725
9656.000000;0.412918
9655.000000;0.413854
9654.000000;0.414362
9653.000000;0.414645
9652.000000;0.415176
9651.000000;0.416178
9650.000000;0.417395
9649.000000;0.418470
9648.000000;0.419366
9647.000000;0.420264
9646.000000;0.421239
9645.000000;0.422252
9644.000000;0.423350
9643.000000;0.424590
9642.000000;0.425804
9641.000000;0.426652
9640.000000;0.427001
9639.000000;0.427130
9638.000000;0.427501
9637.000000;0.428383
9636.000000;0.429675
9635.000000;0.431002
9634.000000;0.432007
9633.000000;0.432660
9632.000000;0.433290
9631.000000;0.434240
9630.000000;0.435505
9629.000000;0.436768
9628.000000;0.437771
9627.000000;0.438547
9626.000000;0.439268
9625.000000;0.440015
9624.000000;0.440746
9623.000000;0.441450
9622.000000;0.442204
9621.000000;0.443092
9620.000000;0.444113
9619.000000;0.445199
9618.000000;0.446307
9617.000000;0.447419
9616.000000;0.448452
9615.000000;0.449291
9614.000000;0.449998
9613.000000;0.450882
9612.000000;0.452136
9611.000000;0.453431
9610.000000;0.454138
9609.000000;0.454130
9608.000000;0.454128
9607.000000;0.454975
9606.000000;0.456647
9605.000000;0.458209
9604.000000;0.458804
9603.000000;0.458510
9602.000000;0.458183
9601.000000;0.458581
9600.000000;0.459728
9599.000000;0.461010
9598.000000;0.461829
9597.000000;0.462159
9596.000000;0.462482
9595.000000;0.463211
9594.000000;0.464293
9593.000000;0.465420
9592.000000;0.466425
9591.000000;0.467302
9590.000000;0.468006
9589.000000;0.468531
9588.000000;0.469156
9587.000000;0.470275
9586.000000;0.471887
9585.000000;0.473482
9584.000000;0.474573
9583.000000;0.475165
9582.000000;0.475597
9581.000000;0.476123
9580.000000;0.476859
9579.000000;0.477944
9578.000000;0.479470
9577.000000;0.481211
9576.000000;0.482627
9575.000000;0.483250
9574.000000;0.483081
9573.000000;0.482604
9572.000000;0.482440
9571.000000;0.482886
9570.000000;0.483694
9569.000000;0.484355
9568.000000;0.484671
9567.000000;0.484942
9566.000000;0.485510
9565.000000;0.486286
9564.000000;0.486931
9563.000000;0.487394
9562.000000;0.487976
9561.000000;0.488836
9560.000000;0.489723
9559.000000;0.490325
9558.000000;0.490662
9557.000000;0.490958
9556.000000;0.491290
9555.000000;0.491583
9554.000000;0.491868
9553.000000;0.492306
9552.000000;0.492980
9551.000000;0.493810
9550.000000;0.494698
9549.000000;0.495571
9548.000000;0.496293
9547.000000;0.496718
9546.000000;0.496902
9545.000000;0.497114
9544.000000;0.497570
9543.000000;0.498253
9542.000000;0.499035
9541.000000;0.499833
9540.000000;0.500585
9539.000000;0.501240
9538.000000;0.501881
9537.000000;0.502671
9536.000000;0.503571
9535.000000;0.504284
9534.000000;0.504657
9533.000000;0.504966
9532.000000;0.505568
9531.000000;0.506422
9530.000000;0.507192
9529.000000;0.507701
9528.000000;0.508021
9527.000000;0.508239
9526.000000;0.508475
9525.000000;0.509019
9524.000000;0.509979
9523.000000;0.510799
9522.000000;0.510642
9521.000000;0.509470
9520.000000;0.508299
9519.000000;0.508114
9518.000000;0.508888
9517.000000;0.509927
9516.000000;0.510819
9515.000000;0.511646
9514.000000;0.512484
9513.000000;0.513208
9512.000000;0.513789
9511.000000;0.514358
9510.000000;0.514903
9509.000000;0.515166
9508.000000;0.514975
9507.000000;0.514499
9506.000000;0.514112
9505.000000;0.514112
9504.000000;0.514510
9503.000000;0.515012
9502.000000;0.515261
9501.000000;0.515272
9500.000000;0.515464
9499.000000;0.516051
9498.000000;0.516583
9497.000000;0.516429
9496.000000;0.515674
9495.000000;0.515132
9494.000000;0.515401
9493.000000;0.516271
9492.000000;0.517155
9491.000000;0.517771
9490.000000;0.518173
9489.000000;0.518385
9488.000000;0.518354
9487.000000;0.518180
9486.000000;0.518144
9485.000000;0.518435
9484.000000;0.518956
9483.000000;0.519420
9482.000000;0.519586
9481.000000;0.519455
9480.000000;0.519241
9479.000000;0.519142
9478.000000;0.519163
9477.000000;0.519213
9476.000000;0.519262
9475.000000;0.519248
9474.000000;0.518950
9473.000000;0.518236
9472.000000;0.517483
9471.000000;0.517428
9470.000000;0.518457
9469.000000;0.520175
9468.000000;0.521781
9467.000000;0.522742
9466.000000;0.523055
9465.000000;0.523047
9464.000000;0.523085
9463.000000;0.523312
9462.000000;0.523466
9461.000000;0.523112
9460.000000;0.522227
9459.000000;0.521408
9458.000000;0.521249
9457.000000;0.521635
9456.000000;0.521882
9455.000000;0.521552
9454.000000;0.520894
9453.000000;0.520484
9452.000000;0.520635
9451.000000;0.521172
9450.000000;0.521590
9449.000000;0.521425
9448.000000;0.520678
9447.000000;0.519904
9446.000000;0.519685
9445.000000;0.519952
9444.000000;0.520026
9443.000000;0.519417
9442.000000;0.518411
9441.000000;0.517725
9440.000000;0.517723
9439.000000;0.518136
9438.000000;0.518447
9437.000000;0.518369
9436.000000;0.517951
9435.000000;0.517426
9434.000000;0.517063
9433.000000;0.517069
9432.000000;0.517456
9431.000000;0.517961
9430.000000;0.518146
9429.000000;0.517695
9428.000000;0.516697
9427.000000;0.515652
9426.000000;0.515113
9425.000000;0.515241
9424.000000;0.515650
9423.000000;0.515708
9422.000000;0.515049
9421.000000;0.513860
9420.000000;0.512703
9419.000000;0.512051
9418.000000;0.511983
9417.000000;0.512257
9416.000000;0.512593
9415.000000;0.512813
9414.000000;0.512782
9413.000000;0.512391
9412.000000;0.511714
9411.000000;0.511075
9410.000000;0.510765
9409.000000;0.510707
9408.000000;0.510521
9407.000000;0.509958
9406.000000;0.509142
9405.000000;0.508383
9404.000000;0.507887
9403.000000;0.507720
9402.000000;0.507879
9401.000000;0.508217
9400.000000;0.508357
9399.000000;0.507912
9398.000000;0.506876
9397.000000;0.505682
9396.000000;0.504803
9395.000000;0.504351
9394.000000;0.504052
9393.000000;0.503531
9392.000000;0.502615
9391.000000;0.501486
9390.000000;0.500606
9389.000000;0.500364
9388.000000;0.500654
9387.000000;0.500857
9386.000000;0.500392
9385.000000;0.499292
9384.000000;0.498152
9383.000000;0.497523
9382.000000;0.497486
9381.000000;0.497780
9380.000000;0.498118
9379.000000;0.498255
9378.000000;0.497922
9377.000000;0.496942
9376.000000;0.495436
9375.000000;0.493804
9374.000000;0.492445
9373.000000;0.491550
9372.000000;0.491102
9371.000000;0.490961
9370.000000;0.490937
9369.000000;0.490883
9368.000000;0.490780
9367.000000;0.490649
9366.000000;0.490398
9365.000000;0.489870
9364.000000;0.489113
9363.000000;0.488434
9362.000000;0.488069
9361.000000;0.487882
9360.000000;0.487572
9359.000000;0.487092
9358.000000;0.486673
9357.000000;0.486420
9356.000000;0.486126
9355.000000;0.485590
9354.000000;0.484927
9353.000000;0.484376
9352.000000;0.483904
9351.000000;0.483230
9350.000000;0.482255
9349.000000;0.481251
9348.000000;0.480530
9347.000000;0.480047
9346.000000;0.479458
9345.000000;0.478535
9344.000000;0.477423
9343.000000;0.476493
9342.000000;0.476003
9341.000000;0.475907
9340.000000;0.475938
9339.000000;0.475839
9338.000000;0.475487
9337.000000;0.474864
9336.000000;0.474019
9335.000000;0.473117
9334.000000;0.472440
9333.000000;0.472186
9332.000000;0.472192
9331.000000;0.471985
9330.000000;0.471238
9329.000000;0.470104
9328.000000;0.469021
9327.000000;0.468229
9326.000000;0.467604
9325.000000;0.466945
9324.000000;0.466272
9323.000000;0.465781
9322.000000;0.465592
9321.000000;0.465640
9320.000000;0.465751
9319.000000;0.465701
9318.000000;0.465195
9317.000000;0.463981
9316.000000;0.462128
9315.000000;0.460146
9314.000000;0.458673
9313.000000;0.457939
9312.000000;0.457578
9311.000000;0.457027
9310.000000;0.456069
9309.000000;0.454974
9308.000000;0.454158
9307.000000;0.453794
9306.000000;0.453720
9305.000000;0.453615
9304.000000;0.453253
9303.000000;0.452642
9302.000000;0.451949
9301.000000;0.451273
9300.000000;0.450503
9299.000000;0.449509
9298.000000;0.448402
9297.000000;0.447495
9296.000000;0.446969
9295.000000;0.446707
9294.000000;0.446472
9293.000000;0.446134
9292.000000;0.445650
9291.000000;0.444987
9290.000000;0.444186
9289.000000;0.443379
9288.000000;0.442611
9287.000000;0.441755
9286.000000;0.440757
9285.000000;0.439826
9284.000000;0.439168
9283.000000;0.438643
9282.000000;0.437943
9281.000000;0.437060
9280.000000;0.436264
9279.000000;0.435605
9278.000000;0.434773
9277.000000;0.433612
9276.000000;0.432470
9275.000000;0.431777
9274.000000;0.431470
9273.000000;0.431134
9272.000000;0.430614
9271.000000;0.430196
9270.000000;0.430148
9269.000000;0.430315
9268.000000;0.430237
9267.000000;0.429593
9266.000000;0.428455
9265.000000;0.427185
9264.000000;0.426105
9263.000000;0.425236
9262.000000;0.424359
9261.000000;0.423350
9260.000000;0.422366
9259.000000;0.421643
9258.000000;0.421216
9257.000000;0.420939
9256.000000;0.420681
9255.000000;0.420349
9254.000000;0.419806
9253.000000;0.418993
9252.000000;0.418085
9251.000000;0.417323
9250.000000;0.416674
9249.000000;0.415903
9248.000000;0.415011
9247.000000;0.414344
9246.000000;0.414137
9245.000000;0.414169
9244.000000;0.414045
9243.000000;0.413648
9242.000000;0.413127
9241.000000;0.412561
9240.000000;0.411853
9239.000000;0.410926
9238.000000;0.409818
9237.000000;0.408599
9236.000000;0.407353
9235.000000;0.406217
9234.000000;0.405294
9233.000000;0.404522
9232.000000;0.403775
9231.000000;0.403064
9230.000000;0.402507
9229.000000;0.402071
9228.000000;0.401551
9227.000000;0.400849
9226.000000;0.400135
9225.000000;0.399642
9224.000000;0.399410
9223.000000;0.399298
9222.000000;0.399140
9221.000000;0.398825
9220.000000;0.398308
9219.000000;0.397623
9218.000000;0.396836
9217.000000;0.395919
9216.000000;0.394779
9215.000000;0.393463
9214.000000;0.392255
9213.000000;0.391425
9212.000000;0.390955
9211.000000;0.390583
9210.000000;0.390095
9209.000000;0.389463
9208.000000;0.388730
9207.000000;0.387913
9206.000000;0.387067
9205.000000;0.386335
9204.000000;0.385859
9203.000000;0.385639
9202.000000;0.385538
9201.000000;0.385390
9200.000000;0.385057
9199.000000;0.384418
9198.000000;0.383388
9197.000000;0.382040
9196.000000;0.380680
9195.000000;0.379699
9194.000000;0.379242
9193.000000;0.379059
9192.000000;0.378761
9191.000000;0.378214
9190.000000;0.377600
9189.000000;0.377090
9188.000000;0.376606
9187.000000;0.376016
9186.000000;0.375425
9185.000000;0.375081
9184.000000;0.374985
9183.000000;0.374757
9182.000000;0.373977
9181.000000;0.372653
9180.000000;0.371256
9179.000000;0.370310
9178.000000;0.369940
9177.000000;0.369835
9176.000000;0.369598
9175.000000;0.369091
9174.000000;0.368381
9173.000000;0.367486
9172.000000;0.366361
9171.000000;0.365161
9170.000000;0.364301
9169.000000;0.364072
9168.000000;0.364291
9167.000000;0.364480
9166.000000;0.364333
9165.000000;0.363881
9164.000000;0.363260
9163.000000;0.362534
9162.000000;0.361731
9161.000000;0.360887
9160.000000;0.359973
9159.000000;0.358933
9158.000000;0.357830
9157.000000;0.356813
9156.000000;0.355906
9155.000000;0.354993
9154.000000;0.354103
9153.000000;0.353536
9152.000000;0.353525
9151.000000;0.353853
9150.000000;0.353977
9149.000000;0.353539
9148.000000;0.352677
9147.000000;0.351840
9146.000000;0.351387
9145.000000;0.351307
9144.000000;0.351230
9143.000000;0.350752
9142.000000;0.349824
9141.000000;0.348791
9140.000000;0.347989
9139.000000;0.347381
9138.000000;0.346694
9137.000000;0.345846
9136.000000;0.345036
9135.000000;0.344434
9134.000000;0.343992
9133.000000;0.343618
9132.000000;0.343351
9131.000000;0.343243
9130.000000;0.343150
9129.000000;0.342797
9128.000000;0.342052
9127.000000;0.341069
9126.000000;0.340190
9125.000000;0.339704
9124.000000;0.339624
9123.000000;0.339622
9122.000000;0.339269
9121.000000;0.338422
9120.000000;0.337343
9119.000000;0.336392
9118.000000;0.335692
9117.000000;0.335157
9116.000000;0.334731
9115.000000;0.334402
9114.000000;0.334055
9113.000000;0.333499
9112.000000;0.332727
9111.000000;0.331974
9110.000000;0.331440
9109.000000;0.331033
9108.000000;0.330497
9107.000000;0.329735
9106.000000;0.328923
9105.000000;0.328333
9104.000000;0.328090
9103.000000;0.328042
9102.000000;0.327813
9101.000000;0.327067
9100.000000;0.325816
9099.000000;0.324451
9098.000000;0.323403
9097.000000;0.322794
9096.000000;0.322471
9095.000000;0.322283
9094.000000;0.322196
9093.000000;0.322146
9092.000000;0.321979
9091.000000;0.321613
9090.000000;0.321148
9089.000000;0.320704
9088.000000;0.320219
9087.000000;0.319535
9086.000000;0.318654
9085.000000;0.317815
9084.000000;0.317274
9083.000000;0.317045
9082.000000;0.316896
9081.000000;0.316571
9080.000000;0.316025
9079.000000;0.315429
9078.000000;0.314942
9077.000000;0.314499
9076.000000;0.313884
9075.000000;0.313009
9074.000000;0.312063
9073.000000;0.311345
9072.000000;0.310988
9071.000000;0.310907
9070.000000;0.310935
9069.000000;0.310921
9068.000000;0.310739
9067.000000;0.310317
9066.000000;0.309716
9065.000000;0.309086
9064.000000;0.308490
9063.000000;0.307839
9062.000000;0.307050
9061.000000;0.306206
9060.000000;0.305496
9059.000000;0.305009
9058.000000;0.304700
9057.000000;0.304537
9056.000000;0.304544
9055.000000;0.304656
9054.000000;0.304627
9053.000000;0.304236
