Criado como novo conjunto de dados;"e2410_daniel_v2.spp","107827.5 Secs"
cm-1;Abs
10000.000000;0.146933
9999.000000;0.147614
9998.000000;0.148283
9997.000000;0.148960
9996.000000;0.149553
9995.000000;0.149993
9994.000000;0.150371
9993.000000;0.150869
9992.000000;0.151578
9991.000000;0.152415
9990.000000;0.153207
9989.000000;0.153844
9988.000000;0.154361
9987.000000;0.154910
9986.000000;0.155634
9985.000000;0.156515
9984.000000;0.157351
9983.000000;0.157932
9982.000000;0.158268
9981.000000;0.158603
9980.000000;0.159190
9979.000000;0.160081
9978.000000;0.161147
9977.000000;0.162236
9976.000000;0.163257
9975.000000;0.164145
9974.000000;0.164854
9973.000000;0.165407
9972.000000;0.165894
9971.000000;0.166392
9970.000000;0.166925
9969.000000;0.167502
9968.000000;0.168130
9967.000000;0.168747
9966.000000;0.169232
9965.000000;0.169584
9964.000000;0.170034
9963.000000;0.170846
9962.000000;0.172004
9961.000000;0.173199
9960.000000;0.174158
9959.000000;0.174887
9958.000000;0.175557
9957.000000;0.176259
9956.000000;0.176955
9955.000000;0.177585
9954.000000;0.178124
9953.000000;0.178559
9952.000000;0.178917
9951.000000;0.179312
9950.000000;0.179879
9949.000000;0.180634
9948.000000;0.181468
9947.000000;0.182284
9946.000000;0.183079
9945.000000;0.183870
9944.000000;0.184651
9943.000000;0.185429
9942.000000;0.186262
9941.000000;0.187177
9940.000000;0.188082
9939.000000;0.188847
9938.000000;0.189447
9937.000000;0.189988
9936.000000;0.190580
9935.000000;0.191222
9934.000000;0.191851
9933.000000;0.192457
9932.000000;0.193140
9931.000000;0.194003
9930.000000;0.194995
9929.000000;0.195912
9928.000000;0.196597
9927.000000;0.197132
9926.000000;0.197762
9925.000000;0.198598
9924.000000;0.199479
9923.000000;0.200180
9922.000000;0.200690
9921.000000;0.201202
9920.000000;0.201857
9919.000000;0.202615
9918.000000;0.203392
9917.000000;0.204213
9916.000000;0.205195
9915.000000;0.206404
9914.000000;0.207771
9913.000000;0.209078
9912.000000;0.210041
9911.000000;0.210500
9910.000000;0.210615
9909.000000;0.210793
9908.000000;0.211305
9907.000000;0.212036
9906.000000;0.212686
9905.000000;0.213193
9904.000000;0.213825
9903.000000;0.214819
9902.000000;0.216067
9901.000000;0.217212
9900.000000;0.218014
9899.000000;0.218547
9898.000000;0.219081
9897.000000;0.219821
9896.000000;0.220766
9895.000000;0.221768
9894.000000;0.222709
9893.000000;0.223586
9892.000000;0.224419
9891.000000;0.225142
9890.000000;0.225697
9889.000000;0.226206
9888.000000;0.226924
9887.000000;0.227929
9886.000000;0.228985
9885.000000;0.229822
9884.000000;0.230476
9883.000000;0.231245
9882.000000;0.232307
9881.000000;0.233520
9880.000000;0.234614
9879.000000;0.235470
9878.000000;0.236167
9877.000000;0.236829
9876.000000;0.237507
9875.000000;0.238181
9874.000000;0.238839
9873.000000;0.239533
9872.000000;0.240341
9871.000000;0.241285
9870.000000;0.242296
9869.000000;0.243286
9868.000000;0.244226
9867.000000;0.245096
9866.000000;0.245824
9865.000000;0.246363
9864.000000;0.246803
9863.000000;0.247312
9862.000000;0.247965
9861.000000;0.248703
9860.000000;0.249456
9859.000000;0.250205
9858.000000;0.250905
9857.000000;0.251512
9856.000000;0.252139
9855.000000;0.253029
9854.000000;0.254245
9853.000000;0.255501
9852.000000;0.256462
9851.000000;0.257154
9850.000000;0.257903
9849.000000;0.258901
9848.000000;0.260026
9847.000000;0.261114
9846.000000;0.262165
9845.000000;0.263205
9844.000000;0.264121
9843.000000;0.264817
9842.000000;0.265434
9841.000000;0.266215
9840.000000;0.267195
9839.000000;0.268177
9838.000000;0.268993
9837.000000;0.269652
9836.000000;0.270236
9835.000000;0.270808
9834.000000;0.271458
9833.000000;0.272281
9832.000000;0.273249
9831.000000;0.274229
9830.000000;0.275185
9829.000000;0.276217
9828.000000;0.277343
9827.000000;0.278367
9826.000000;0.279146
9825.000000;0.279849
9824.000000;0.280773
9823.000000;0.281916
9822.000000;0.282941
9821.000000;0.283577
9820.000000;0.283899
9819.000000;0.284186
9818.000000;0.284641
9817.000000;0.285345
9816.000000;0.286333
9815.000000;0.287580
9814.000000;0.288940
9813.000000;0.290217
9812.000000;0.291290
9811.000000;0.292166
9810.000000;0.292961
9809.000000;0.293839
9808.000000;0.294901
9807.000000;0.296040
9806.000000;0.296998
9805.000000;0.297649
9804.000000;0.298215
9803.000000;0.299078
9802.000000;0.300368
9801.000000;0.301812
9800.000000;0.303035
9799.000000;0.303960
9798.000000;0.304829
9797.000000;0.305839
9796.000000;0.306857
9795.000000;0.307568
9794.000000;0.307901
9793.000000;0.308186
9792.000000;0.308823
9791.000000;0.309889
9790.000000;0.311139
9789.000000;0.312313
9788.000000;0.313319
9787.000000;0.314144
9786.000000;0.314794
9785.000000;0.315355
9784.000000;0.315992
9783.000000;0.316796
9782.000000;0.317740
9781.000000;0.318799
9780.000000;0.320009
9779.000000;0.321321
9778.000000;0.322530
9777.000000;0.323474
9776.000000;0.324225
9775.000000;0.324980
9774.000000;0.325826
9773.000000;0.326712
9772.000000;0.327614
9771.000000;0.328582
9770.000000;0.329638
9769.000000;0.330724
9768.000000;0.331767
9767.000000;0.332742
9766.000000;0.333683
9765.000000;0.334650
9764.000000;0.335670
9763.000000;0.336684
9762.000000;0.337574
9761.000000;0.338286
9760.000000;0.338898
9759.000000;0.339575
9758.000000;0.340475
9757.000000;0.341666
9756.000000;0.343014
9755.000000;0.344179
9754.000000;0.344869
9753.000000;0.345180
9752.000000;0.345541
9751.000000;0.346258
9750.000000;0.347261
9749.000000;0.348345
9748.000000;0.349463
9747.000000;0.350623
9746.000000;0.351710
9745.000000;0.352642
9744.000000;0.353582
9743.000000;0.354732
9742.000000;0.355997
9741.000000;0.357092
9740.000000;0.357954
9739.000000;0.358780
9738.000000;0.359672
9737.000000;0.360515
9736.000000;0.361287
9735.000000;0.362216
9734.000000;0.363502
9733.000000;0.365012
9732.000000;0.366393
9731.000000;0.367389
9730.000000;0.368012
9729.000000;0.368510
9728.000000;0.369212
9727.000000;0.370289
9726.000000;0.371584
9725.000000;0.372779
9724.000000;0.373759
9723.000000;0.374708
9722.000000;0.375789
9721.000000;0.376903
9720.000000;0.377866
9719.000000;0.378719
9718.000000;0.379702
9717.000000;0.380951
9716.000000;0.382302
9715.000000;0.383420
9714.000000;0.384109
9713.000000;0.384535
9712.000000;0.385142
9711.000000;0.386271
9710.000000;0.387835
9709.000000;0.389388
9708.000000;0.390549
9707.000000;0.391297
9706.000000;0.391869
9705.000000;0.392493
9704.000000;0.393275
9703.000000;0.394242
9702.000000;0.395372
9701.000000;0.396583
9700.000000;0.397760
9699.000000;0.398806
9698.000000;0.399677
9697.000000;0.400419
9696.000000;0.401175
9695.000000;0.402109
9694.000000;0.403248
9693.000000;0.404405
9692.000000;0.405306
9691.000000;0.405844
9690.000000;0.406246
9689.000000;0.406946
9688.000000;0.408191
9687.000000;0.409744
9686.000000;0.411086
9685.000000;0.411959
9684.000000;0.412608
9683.000000;0.413410
9682.000000;0.414430
9681.000000;0.415494
9680.000000;0.416554
9679.000000;0.417758
9678.000000;0.419188
9677.000000;0.420730
9676.000000;0.422225
9675.000000;0.423562
9674.000000;0.424627
9673.000000;0.425328
9672.000000;0.425708
9671.000000;0.425909
9670.000000;0.426003
9669.000000;0.426009
9668.000000;0.426081
9667.000000;0.426522
9666.000000;0.427542
9665.000000;0.429094
9664.000000;0.430953
9663.000000;0.432832
9662.000000;0.434457
9661.000000;0.435677
9660.000000;0.436576
9659.000000;0.437340
9658.000000;0.438034
9657.000000;0.438625
9656.000000;0.439212
9655.000000;0.440014
9654.000000;0.441111
9653.000000;0.442368
9652.000000;0.443634
9651.000000;0.444817
9650.000000;0.445769
9649.000000;0.446369
9648.000000;0.446819
9647.000000;0.447553
9646.000000;0.448697
9645.000000;0.449853
9644.000000;0.450623
9643.000000;0.451172
9642.000000;0.452005
9641.000000;0.453316
9640.000000;0.454794
9639.000000;0.456037
9638.000000;0.456908
9637.000000;0.457445
9636.000000;0.457663
9635.000000;0.457603
9634.000000;0.457544
9633.000000;0.457976
9632.000000;0.459217
9631.000000;0.461002
9630.000000;0.462596
9629.000000;0.463474
9628.000000;0.463851
9627.000000;0.464346
9626.000000;0.465213
9625.000000;0.466168
9624.000000;0.466972
9623.000000;0.467816
9622.000000;0.468975
9621.000000;0.470350
9620.000000;0.471615
9619.000000;0.472657
9618.000000;0.473617
9617.000000;0.474596
9616.000000;0.475548
9615.000000;0.476409
9614.000000;0.477189
9613.000000;0.477940
9612.000000;0.478738
9611.000000;0.479601
9610.000000;0.480352
9609.000000;0.480709
9608.000000;0.480657
9607.000000;0.480634
9606.000000;0.481191
9605.000000;0.482502
9604.000000;0.484312
9603.000000;0.486223
9602.000000;0.487882
9601.000000;0.489028
9600.000000;0.489618
9599.000000;0.489884
9598.000000;0.490127
9597.000000;0.490466
9596.000000;0.490902
9595.000000;0.491491
9594.000000;0.492280
9593.000000;0.493165
9592.000000;0.494042
9591.000000;0.495029
9590.000000;0.496291
9589.000000;0.497704
9588.000000;0.498894
9587.000000;0.499639
9586.000000;0.500027
9585.000000;0.500271
9584.000000;0.500618
9583.000000;0.501377
9582.000000;0.502710
9581.000000;0.504300
9580.000000;0.505515
9579.000000;0.506052
9578.000000;0.506222
9577.000000;0.506446
9576.000000;0.506735
9575.000000;0.506862
9574.000000;0.506867
9573.000000;0.507131
9572.000000;0.507950
9571.000000;0.509224
9570.000000;0.510522
9569.000000;0.511371
9568.000000;0.511568
9567.000000;0.511366
9566.000000;0.511302
9565.000000;0.511725
9564.000000;0.512524
9563.000000;0.513413
9562.000000;0.514329
9561.000000;0.515374
9560.000000;0.516442
9559.000000;0.517211
9558.000000;0.517585
9557.000000;0.517906
9556.000000;0.518554
9555.000000;0.519488
9554.000000;0.520360
9553.000000;0.520963
9552.000000;0.521395
9551.000000;0.521812
9550.000000;0.522259
9549.000000;0.522779
9548.000000;0.523480
9547.000000;0.524369
9546.000000;0.525215
9545.000000;0.525760
9544.000000;0.526058
9543.000000;0.526478
9542.000000;0.527330
9541.000000;0.528536
9540.000000;0.529685
9539.000000;0.530378
9538.000000;0.530517
9537.000000;0.530311
9536.000000;0.530020
9535.000000;0.529716
9534.000000;0.529313
9533.000000;0.528884
9532.000000;0.528836
9531.000000;0.529622
9530.000000;0.531199
9529.000000;0.532858
9528.000000;0.533732
9527.000000;0.533501
9526.000000;0.532573
9525.000000;0.531622
9524.000000;0.531068
9523.000000;0.530957
9522.000000;0.531163
9521.000000;0.531581
9520.000000;0.532158
9519.000000;0.532853
9518.000000;0.533600
9517.000000;0.534309
9516.000000;0.534941
9515.000000;0.535588
9514.000000;0.536382
9513.000000;0.537234
9512.000000;0.537751
9511.000000;0.537601
9510.000000;0.536965
9509.000000;0.536481
9508.000000;0.536695
9507.000000;0.537651
9506.000000;0.538962
9505.000000;0.540083
9504.000000;0.540472
9503.000000;0.539853
9502.000000;0.538599
9501.000000;0.537676
9500.000000;0.537829
9499.000000;0.538846
9498.000000;0.539849
9497.000000;0.540269
9496.000000;0.540222
9495.000000;0.539984
9494.000000;0.539548
9493.000000;0.538922
9492.000000;0.538462
9491.000000;0.538559
9490.000000;0.539116
9489.000000;0.539621
9488.000000;0.539691
9487.000000;0.539376
9486.000000;0.539012
9485.000000;0.538964
9484.000000;0.539423
9483.000000;0.540278
9482.000000;0.541171
9481.000000;0.541785
9480.000000;0.542062
9479.000000;0.542138
9478.000000;0.542203
9477.000000;0.542464
9476.000000;0.542998
9475.000000;0.543465
9474.000000;0.543228
9473.000000;0.542038
9472.000000;0.540444
9471.000000;0.539281
9470.000000;0.538874
9469.000000;0.538972
9468.000000;0.539276
9467.000000;0.539667
9466.000000;0.539998
9465.000000;0.540048
9464.000000;0.539760
9463.000000;0.539297
9462.000000;0.538873
9461.000000;0.538724
9460.000000;0.539087
9459.000000;0.539880
9458.000000;0.540486
9457.000000;0.540283
9456.000000;0.539434
9455.000000;0.538738
9454.000000;0.538662
9453.000000;0.538909
9452.000000;0.539029
9451.000000;0.538978
9450.000000;0.538863
9449.000000;0.538581
9448.000000;0.538058
9447.000000;0.537544
9446.000000;0.537290
9445.000000;0.537124
9444.000000;0.536693
9443.000000;0.535989
9442.000000;0.535337
9441.000000;0.534956
9440.000000;0.534807
9439.000000;0.534765
9438.000000;0.534700
9437.000000;0.534444
9436.000000;0.533937
9435.000000;0.533350
9434.000000;0.532869
9433.000000;0.532401
9432.000000;0.531729
9431.000000;0.530909
9430.000000;0.530285
9429.000000;0.530094
9428.000000;0.530240
9427.000000;0.530470
9426.000000;0.530562
9425.000000;0.530352
9424.000000;0.529772
9423.000000;0.528943
9422.000000;0.528118
9421.000000;0.527456
9420.000000;0.526938
9419.000000;0.526522
9418.000000;0.526235
9417.000000;0.526066
9416.000000;0.525862
9415.000000;0.525455
9414.000000;0.524889
9413.000000;0.524428
9412.000000;0.524266
9411.000000;0.524238
9410.000000;0.523960
9409.000000;0.523319
9408.000000;0.522676
9407.000000;0.522410
9406.000000;0.522343
9405.000000;0.521910
9404.000000;0.520908
9403.000000;0.519754
9402.000000;0.518876
9401.000000;0.518194
9400.000000;0.517444
9399.000000;0.516694
9398.000000;0.516182
9397.000000;0.515837
9396.000000;0.515380
9395.000000;0.514848
9394.000000;0.514591
9393.000000;0.514718
9392.000000;0.514863
9391.000000;0.514620
9390.000000;0.513965
9389.000000;0.513141
9388.000000;0.512374
9387.000000;0.511803
9386.000000;0.511462
9385.000000;0.511129
9384.000000;0.510398
9383.000000;0.509145
9382.000000;0.507852
9381.000000;0.507231
9380.000000;0.507473
9379.000000;0.507982
9378.000000;0.507909
9377.000000;0.506937
9376.000000;0.505488
9375.000000;0.504200
9374.000000;0.503309
9373.000000;0.502650
9372.000000;0.502150
9371.000000;0.502051
9370.000000;0.502484
9369.000000;0.503063
9368.000000;0.503189
9367.000000;0.502726
9366.000000;0.502083
9365.000000;0.501578
9364.000000;0.501012
9363.000000;0.500019
9362.000000;0.498629
9361.000000;0.497287
9360.000000;0.496390
9359.000000;0.495933
9358.000000;0.495587
9357.000000;0.495011
9356.000000;0.494132
9355.000000;0.493157
9354.000000;0.492315
9353.000000;0.491608
9352.000000;0.490878
9351.000000;0.490069
9350.000000;0.489273
9349.000000;0.488510
9348.000000;0.487664
9347.000000;0.486717
9346.000000;0.485892
9345.000000;0.485413
9344.000000;0.485244
9343.000000;0.485166
9342.000000;0.485036
9341.000000;0.484797
9340.000000;0.484340
9339.000000;0.483541
9338.000000;0.482450
9337.000000;0.481300
9336.000000;0.480271
9335.000000;0.479325
9334.000000;0.478347
9333.000000;0.477374
9332.000000;0.476617
9331.000000;0.476235
9330.000000;0.476103
9329.000000;0.475829
9328.000000;0.475064
9327.000000;0.473809
9326.000000;0.472398
9325.000000;0.471196
9324.000000;0.470355
9323.000000;0.469803
9322.000000;0.469352
9321.000000;0.468829
9320.000000;0.468177
9319.000000;0.467484
9318.000000;0.466878
9317.000000;0.466358
9316.000000;0.465806
9315.000000;0.465137
9314.000000;0.464332
9313.000000;0.463341
9312.000000;0.462125
9311.000000;0.460866
9310.000000;0.459929
9309.000000;0.459469
9308.000000;0.459195
9307.000000;0.458685
9306.000000;0.457889
9305.000000;0.457121
9304.000000;0.456569
9303.000000;0.456018
9302.000000;0.455117
9301.000000;0.453774
9300.000000;0.452217
9299.000000;0.450782
9298.000000;0.449695
9297.000000;0.449024
9296.000000;0.448706
9295.000000;0.448595
9294.000000;0.448484
9293.000000;0.448167
9292.000000;0.447527
9291.000000;0.446619
9290.000000;0.445622
9289.000000;0.444708
9288.000000;0.443945
9287.000000;0.443309
9286.000000;0.442725
9285.000000;0.442116
9284.000000;0.441487
9283.000000;0.440985
9282.000000;0.440750
9281.000000;0.440660
9280.000000;0.440379
9279.000000;0.439754
9278.000000;0.439066
9277.000000;0.438688
9276.000000;0.438558
9275.000000;0.438177
9274.000000;0.437178
9273.000000;0.435718
9272.000000;0.434236
9271.000000;0.432965
9270.000000;0.431838
9269.000000;0.430785
9268.000000;0.429948
9267.000000;0.429485
9266.000000;0.429265
9265.000000;0.428902
9264.000000;0.428172
9263.000000;0.427269
9262.000000;0.426519
9261.000000;0.425873
9260.000000;0.424919
9259.000000;0.423455
9258.000000;0.421874
9257.000000;0.420800
9256.000000;0.420448
9255.000000;0.420468
9254.000000;0.420345
9253.000000;0.419818
9252.000000;0.418977
9251.000000;0.418134
9250.000000;0.417604
9249.000000;0.417420
9248.000000;0.417219
9247.000000;0.416517
9246.000000;0.415168
9245.000000;0.413489
9244.000000;0.411962
9243.000000;0.410929
9242.000000;0.410549
9241.000000;0.410817
9240.000000;0.411469
9239.000000;0.411986
9238.000000;0.411878
9237.000000;0.411028
9236.000000;0.409749
9235.000000;0.408506
9234.000000;0.407572
9233.000000;0.406867
9232.000000;0.406129
9231.000000;0.405253
9230.000000;0.404451
9229.000000;0.403955
9228.000000;0.403634
9227.000000;0.403047
9226.000000;0.401958
9225.000000;0.400634
9224.000000;0.399533
9223.000000;0.398815
9222.000000;0.398290
9221.000000;0.397739
9220.000000;0.397127
9219.000000;0.396515
9218.000000;0.395931
9217.000000;0.395379
9216.000000;0.394868
9215.000000;0.394368
9214.000000;0.393783
9213.000000;0.393005
9212.000000;0.391988
9211.000000;0.390758
9210.000000;0.389424
9209.000000;0.388203
9208.000000;0.387373
9207.000000;0.387080
9206.000000;0.387155
9205.000000;0.387175
9204.000000;0.386817
9203.000000;0.386140
9202.000000;0.385439
9201.000000;0.384854
9200.000000;0.384232
9199.000000;0.383421
9198.000000;0.382540
9197.000000;0.381835
9196.000000;0.381345
9195.000000;0.380894
9194.000000;0.380384
9193.000000;0.379875
9192.000000;0.379343
9191.000000;0.378552
9190.000000;0.377347
9189.000000;0.375965
9188.000000;0.374876
9187.000000;0.374316
9186.000000;0.374118
9185.000000;0.373967
9184.000000;0.373728
9183.000000;0.373456
9182.000000;0.373164
9181.000000;0.372702
9180.000000;0.371918
9179.000000;0.370913
9178.000000;0.370026
9177.000000;0.369508
9176.000000;0.369263
9175.000000;0.368973
9174.000000;0.368446
9173.000000;0.367699
9172.000000;0.366751
9171.000000;0.365540
9170.000000;0.364138
9169.000000;0.362877
9168.000000;0.362062
9167.000000;0.361671
9166.000000;0.361453
9165.000000;0.361259
9164.000000;0.361097
9163.000000;0.360885
9162.000000;0.360395
9161.000000;0.359539
9160.000000;0.358550
9159.000000;0.357756
9158.000000;0.357232
9157.000000;0.356773
9156.000000;0.356159
9155.000000;0.355347
9154.000000;0.354426
9153.000000;0.353497
9152.000000;0.352628
9151.000000;0.351887
9150.000000;0.351332
9149.000000;0.350953
9148.000000;0.350664
9147.000000;0.350371
9146.000000;0.350071
9145.000000;0.349826
9144.000000;0.349605
9143.000000;0.349207
9142.000000;0.348426
9141.000000;0.347324
9140.000000;0.346246
9139.000000;0.345486
9138.000000;0.344991
9137.000000;0.344467
9136.000000;0.343756
9135.000000;0.343004
9134.000000;0.342427
9133.000000;0.342024
9132.000000;0.341592
9131.000000;0.340978
9130.000000;0.340209
9129.000000;0.339385
9128.000000;0.338555
9127.000000;0.337754
9126.000000;0.337061
9125.000000;0.336560
9124.000000;0.336255
9123.000000;0.336076
9122.000000;0.335914
9121.000000;0.335605
9120.000000;0.334968
9119.000000;0.333999
9118.000000;0.333023
9117.000000;0.332484
9116.000000;0.332470
9115.000000;0.332539
9114.000000;0.332121
9113.000000;0.331094
9112.000000;0.329873
9111.000000;0.328967
9110.000000;0.328533
9109.000000;0.328365
9108.000000;0.328184
9107.000000;0.327852
9106.000000;0.327389
9105.000000;0.326892
9104.000000;0.326438
9103.000000;0.326005
9102.000000;0.325448
9101.000000;0.324618
9100.000000;0.323543
9099.000000;0.322444
9098.000000;0.321552
9097.000000;0.320930
9096.000000;0.320488
9095.000000;0.320119
9094.000000;0.319739
9093.000000;0.319238
9092.000000;0.318519
9091.000000;0.317647
9090.000000;0.316868
9089.000000;0.316402
9088.000000;0.316234
9087.000000;0.316138
9086.000000;0.315882
9085.000000;0.315385
9084.000000;0.314732
9083.000000;0.314111
9082.000000;0.313687
9081.000000;0.313452
9080.000000;0.313190
9079.000000;0.312671
9078.000000;0.311925
9077.000000;0.311250
9076.000000;0.310921
9075.000000;0.310914
9074.000000;0.310898
9073.000000;0.310478
9072.000000;0.309445
9071.000000;0.307930
9070.000000;0.306362
9069.000000;0.305233
9068.000000;0.304781
9067.000000;0.304822
9066.000000;0.304917
9065.000000;0.304741
9064.000000;0.304307
9063.000000;0.303840
9062.000000;0.303463
9061.000000;0.303062
9060.000000;0.302460
9059.000000;0.301673
9058.000000;0.300935
9057.000000;0.300462
9056.000000;0.300261
9055.000000;0.300188
9054.000000;0.300123
9053.000000;0.300024
