Criado como novo conjunto de dados;"e2410_daniel_v2.spp","48064.2 Secs"
cm-1;Abs
10000.000000;1.047941
9999.000000;1.047738
9998.000000;1.047702
9997.000000;1.047867
9996.000000;1.048130
9995.000000;1.048224
9994.000000;1.047798
9993.000000;1.046726
9992.000000;1.045328
9991.000000;1.044269
9990.000000;1.043982
9989.000000;1.044291
9988.000000;1.044655
9987.000000;1.044681
9986.000000;1.044287
9985.000000;1.043541
9984.000000;1.042613
9983.000000;1.041779
9982.000000;1.041204
9981.000000;1.040704
9980.000000;1.039930
9979.000000;1.038829
9978.000000;1.037817
9977.000000;1.037406
9976.000000;1.037655
9975.000000;1.037987
9974.000000;1.037610
9973.000000;1.036259
9972.000000;1.034510
9971.000000;1.033270
9970.000000;1.032955
9969.000000;1.033255
9968.000000;1.033582
9967.000000;1.033556
9966.000000;1.033148
9965.000000;1.032599
9964.000000;1.032238
9963.000000;1.032138
9962.000000;1.031917
9961.000000;1.031143
9960.000000;1.029922
9959.000000;1.028817
9958.000000;1.028166
9957.000000;1.027811
9956.000000;1.027530
9955.000000;1.027353
9954.000000;1.027280
9953.000000;1.027033
9952.000000;1.026340
9951.000000;1.025283
9950.000000;1.024167
9949.000000;1.023177
9948.000000;1.022333
9947.000000;1.021632
9946.000000;1.021105
9945.000000;1.020794
9944.000000;1.020699
9943.000000;1.020692
9942.000000;1.020569
9941.000000;1.020308
9940.000000;1.020104
9939.000000;1.019931
9938.000000;1.019302
9937.000000;1.017880
9936.000000;1.016182
9935.000000;1.015165
9934.000000;1.015135
9933.000000;1.015541
9932.000000;1.015800
9931.000000;1.015783
9930.000000;1.015438
9929.000000;1.014627
9928.000000;1.013566
9927.000000;1.012809
9926.000000;1.012447
9925.000000;1.011854
9924.000000;1.010637
9923.000000;1.009391
9922.000000;1.009018
9921.000000;1.009567
9920.000000;1.010195
9919.000000;1.010092
9918.000000;1.009140
9917.000000;1.007827
9916.000000;1.006824
9915.000000;1.006530
9914.000000;1.006757
9913.000000;1.006927
9912.000000;1.006671
9911.000000;1.006071
9910.000000;1.005274
9909.000000;1.004247
9908.000000;1.003106
9907.000000;1.002318
9906.000000;1.002221
9905.000000;1.002582
9904.000000;1.002860
9903.000000;1.002718
9902.000000;1.002056
9901.000000;1.000871
9900.000000;0.999384
9899.000000;0.998108
9898.000000;0.997453
9897.000000;0.997385
9896.000000;0.997635
9895.000000;0.998019
9894.000000;0.998362
9893.000000;0.998385
9892.000000;0.997946
9891.000000;0.997203
9890.000000;0.996300
9889.000000;0.995141
9888.000000;0.993724
9887.000000;0.992454
9886.000000;0.991749
9885.000000;0.991490
9884.000000;0.991218
9883.000000;0.990738
9882.000000;0.990250
9881.000000;0.989938
9880.000000;0.989754
9879.000000;0.989561
9878.000000;0.989239
9877.000000;0.988701
9876.000000;0.987991
9875.000000;0.987361
9874.000000;0.987039
9873.000000;0.986965
9872.000000;0.986889
9871.000000;0.986685
9870.000000;0.986396
9869.000000;0.986032
9868.000000;0.985508
9867.000000;0.984792
9866.000000;0.984016
9865.000000;0.983425
9864.000000;0.983219
9863.000000;0.983342
9862.000000;0.983413
9861.000000;0.983018
9860.000000;0.982136
9859.000000;0.981141
9858.000000;0.980360
9857.000000;0.979770
9856.000000;0.979157
9855.000000;0.978385
9854.000000;0.977435
9853.000000;0.976384
9852.000000;0.975481
9851.000000;0.975037
9850.000000;0.975107
9849.000000;0.975341
9848.000000;0.975275
9847.000000;0.974728
9846.000000;0.973904
9845.000000;0.973217
9844.000000;0.972978
9843.000000;0.973086
9842.000000;0.973032
9841.000000;0.972379
9840.000000;0.971215
9839.000000;0.969956
9838.000000;0.968823
9837.000000;0.967812
9836.000000;0.967083
9835.000000;0.966924
9834.000000;0.967227
9833.000000;0.967406
9832.000000;0.967023
9831.000000;0.966219
9830.000000;0.965373
9829.000000;0.964631
9828.000000;0.963945
9827.000000;0.963311
9826.000000;0.962755
9825.000000;0.962272
9824.000000;0.961886
9823.000000;0.961621
9822.000000;0.961340
9821.000000;0.960850
9820.000000;0.960228
9819.000000;0.959787
9818.000000;0.959641
9817.000000;0.959573
9816.000000;0.959428
9815.000000;0.959308
9814.000000;0.959221
9813.000000;0.958858
9812.000000;0.957968
9811.000000;0.956764
9810.000000;0.955743
9809.000000;0.955258
9808.000000;0.955336
9807.000000;0.955690
9806.000000;0.955816
9805.000000;0.955378
9804.000000;0.954612
9803.000000;0.954077
9802.000000;0.953909
9801.000000;0.953623
9800.000000;0.952827
9799.000000;0.951759
9798.000000;0.950887
9797.000000;0.950300
9796.000000;0.949784
9795.000000;0.949239
9794.000000;0.948704
9793.000000;0.948123
9792.000000;0.947399
9791.000000;0.946595
9790.000000;0.945854
9789.000000;0.945229
9788.000000;0.944718
9787.000000;0.944317
9786.000000;0.943923
9785.000000;0.943369
9784.000000;0.942704
9783.000000;0.942254
9782.000000;0.942227
9781.000000;0.942407
9780.000000;0.942420
9779.000000;0.942157
9778.000000;0.941796
9777.000000;0.941536
9776.000000;0.941415
9775.000000;0.941283
9774.000000;0.940888
9773.000000;0.940143
9772.000000;0.939325
9771.000000;0.938755
9770.000000;0.938299
9769.000000;0.937508
9768.000000;0.936350
9767.000000;0.935362
9766.000000;0.934910
9765.000000;0.934694
9764.000000;0.934283
9763.000000;0.933776
9762.000000;0.933502
9761.000000;0.933346
9760.000000;0.932860
9759.000000;0.931968
9758.000000;0.931116
9757.000000;0.930696
9756.000000;0.930625
9755.000000;0.930543
9754.000000;0.930222
9753.000000;0.929724
9752.000000;0.929284
9751.000000;0.929054
9750.000000;0.928918
9749.000000;0.928620
9748.000000;0.928114
9747.000000;0.927642
9746.000000;0.927355
9745.000000;0.927059
9744.000000;0.926468
9743.000000;0.925549
9742.000000;0.924478
9741.000000;0.923413
9740.000000;0.922535
9739.000000;0.922087
9738.000000;0.922104
9737.000000;0.922171
9736.000000;0.921744
9735.000000;0.920743
9734.000000;0.919646
9733.000000;0.918958
9732.000000;0.918737
9731.000000;0.918611
9730.000000;0.918183
9729.000000;0.917423
9728.000000;0.916742
9727.000000;0.916610
9726.000000;0.917018
9725.000000;0.917393
9724.000000;0.917162
9723.000000;0.916328
9722.000000;0.915376
9721.000000;0.914681
9720.000000;0.914178
9719.000000;0.913632
9718.000000;0.913053
9717.000000;0.912699
9716.000000;0.912708
9715.000000;0.912848
9714.000000;0.912743
9713.000000;0.912297
9712.000000;0.911746
9711.000000;0.911278
9710.000000;0.910794
9709.000000;0.910144
9708.000000;0.909404
9707.000000;0.908731
9706.000000;0.908111
9705.000000;0.907473
9704.000000;0.906917
9703.000000;0.906573
9702.000000;0.906308
9701.000000;0.905879
9700.000000;0.905306
9699.000000;0.904804
9698.000000;0.904399
9697.000000;0.903960
9696.000000;0.903569
9695.000000;0.903477
9694.000000;0.903624
9693.000000;0.903554
9692.000000;0.902941
9691.000000;0.901939
9690.000000;0.900918
9689.000000;0.900137
9688.000000;0.899754
9687.000000;0.899800
9686.000000;0.899973
9685.000000;0.899794
9684.000000;0.899168
9683.000000;0.898555
9682.000000;0.898398
9681.000000;0.898578
9680.000000;0.898622
9679.000000;0.898222
9678.000000;0.897381
9677.000000;0.896258
9676.000000;0.895096
9675.000000;0.894165
9674.000000;0.893554
9673.000000;0.893125
9672.000000;0.892755
9671.000000;0.892494
9670.000000;0.892348
9669.000000;0.892110
9668.000000;0.891602
9667.000000;0.890954
9666.000000;0.890441
9665.000000;0.890146
9664.000000;0.889913
9663.000000;0.889605
9662.000000;0.889253
9661.000000;0.888982
9660.000000;0.888840
9659.000000;0.888691
9658.000000;0.888287
9657.000000;0.887542
9656.000000;0.886690
9655.000000;0.886030
9654.000000;0.885579
9653.000000;0.885130
9652.000000;0.884618
9651.000000;0.884140
9650.000000;0.883662
9649.000000;0.883007
9648.000000;0.882224
9647.000000;0.881654
9646.000000;0.881474
9645.000000;0.881451
9644.000000;0.881307
9643.000000;0.881087
9642.000000;0.880970
9641.000000;0.880910
9640.000000;0.880691
9639.000000;0.880198
9638.000000;0.879460
9637.000000;0.878548
9636.000000;0.877603
9635.000000;0.876855
9634.000000;0.876430
9633.000000;0.876215
9632.000000;0.875999
9631.000000;0.875674
9630.000000;0.875216
9629.000000;0.874593
9628.000000;0.873843
9627.000000;0.873153
9626.000000;0.872732
9625.000000;0.872610
9624.000000;0.872624
9623.000000;0.872543
9622.000000;0.872207
9621.000000;0.871664
9620.000000;0.871179
9619.000000;0.870998
9618.000000;0.871005
9617.000000;0.870764
9616.000000;0.869957
9615.000000;0.868728
9614.000000;0.867510
9613.000000;0.866632
9612.000000;0.866124
9611.000000;0.865834
9610.000000;0.865644
9609.000000;0.865594
9608.000000;0.865763
9607.000000;0.866023
9606.000000;0.866009
9605.000000;0.865496
9604.000000;0.864720
9603.000000;0.864152
9602.000000;0.863999
9601.000000;0.864043
9600.000000;0.863924
9599.000000;0.863424
9598.000000;0.862574
9597.000000;0.861664
9596.000000;0.861050
9595.000000;0.860751
9594.000000;0.860332
9593.000000;0.859484
9592.000000;0.858585
9591.000000;0.858285
9590.000000;0.858592
9589.000000;0.858825
9588.000000;0.858518
9587.000000;0.857973
9586.000000;0.857712
9585.000000;0.857755
9584.000000;0.857706
9583.000000;0.857281
9582.000000;0.856525
9581.000000;0.855651
9580.000000;0.854889
9579.000000;0.854368
9578.000000;0.853992
9577.000000;0.853539
9576.000000;0.852986
9575.000000;0.852562
9574.000000;0.852384
9573.000000;0.852194
9572.000000;0.851654
9571.000000;0.850775
9570.000000;0.849935
9569.000000;0.849525
9568.000000;0.849647
9567.000000;0.850071
9566.000000;0.850381
9565.000000;0.850239
9564.000000;0.849598
9563.000000;0.848669
9562.000000;0.847727
9561.000000;0.847016
9560.000000;0.846723
9559.000000;0.846860
9558.000000;0.847145
9557.000000;0.847198
9556.000000;0.846866
9555.000000;0.846249
9554.000000;0.845459
9553.000000;0.844564
9552.000000;0.843736
9551.000000;0.843224
9550.000000;0.843104
9549.000000;0.843187
9548.000000;0.843188
9547.000000;0.842898
9546.000000;0.842257
9545.000000;0.841455
9544.000000;0.840862
9543.000000;0.840640
9542.000000;0.840461
9541.000000;0.839859
9540.000000;0.838851
9539.000000;0.837943
9538.000000;0.837516
9537.000000;0.837464
9536.000000;0.837458
9535.000000;0.837290
9534.000000;0.836914
9533.000000;0.836394
9532.000000;0.835913
9531.000000;0.835619
9530.000000;0.835415
9529.000000;0.835055
9528.000000;0.834485
9527.000000;0.833896
9526.000000;0.833471
9525.000000;0.833262
9524.000000;0.833257
9523.000000;0.833303
9522.000000;0.833006
9521.000000;0.832073
9520.000000;0.830798
9519.000000;0.829885
9518.000000;0.829681
9517.000000;0.829818
9516.000000;0.829693
9515.000000;0.829073
9514.000000;0.828177
9513.000000;0.827393
9512.000000;0.827019
9511.000000;0.827042
9510.000000;0.827107
9509.000000;0.826880
9508.000000;0.826447
9507.000000;0.826146
9506.000000;0.826051
9505.000000;0.825926
9504.000000;0.825656
9503.000000;0.825357
9502.000000;0.825022
9501.000000;0.824456
9500.000000;0.823691
9499.000000;0.823074
9498.000000;0.822777
9497.000000;0.822589
9496.000000;0.822336
9495.000000;0.822158
9494.000000;0.822104
9493.000000;0.821828
9492.000000;0.821017
9491.000000;0.819924
9490.000000;0.819134
9489.000000;0.818936
9488.000000;0.819146
9487.000000;0.819411
9486.000000;0.819463
9485.000000;0.819181
9484.000000;0.818634
9483.000000;0.818056
9482.000000;0.817623
9481.000000;0.817286
9480.000000;0.816873
9479.000000;0.816291
9478.000000;0.815544
9477.000000;0.814695
9476.000000;0.813870
9475.000000;0.813201
9474.000000;0.812694
9473.000000;0.812277
9472.000000;0.812008
9471.000000;0.812033
9470.000000;0.812290
9469.000000;0.812430
9468.000000;0.812167
9467.000000;0.811596
9466.000000;0.811074
9465.000000;0.810850
9464.000000;0.810872
9463.000000;0.810848
9462.000000;0.810457
9461.000000;0.809641
9460.000000;0.808707
9459.000000;0.808039
9458.000000;0.807735
9457.000000;0.807633
9456.000000;0.807593
9455.000000;0.807544
9454.000000;0.807323
9453.000000;0.806764
9452.000000;0.805965
9451.000000;0.805223
9450.000000;0.804679
9449.000000;0.804237
9448.000000;0.803827
9447.000000;0.803484
9446.000000;0.803149
9445.000000;0.802692
9444.000000;0.802189
9443.000000;0.801898
9442.000000;0.801857
9441.000000;0.801776
9440.000000;0.801415
9439.000000;0.800850
9438.000000;0.800276
9437.000000;0.799801
9436.000000;0.799503
9435.000000;0.799445
9434.000000;0.799493
9433.000000;0.799373
9432.000000;0.799012
9431.000000;0.798608
9430.000000;0.798279
9429.000000;0.797880
9428.000000;0.797273
9427.000000;0.796550
9426.000000;0.795878
9425.000000;0.795351
9424.000000;0.795063
9423.000000;0.795087
9422.000000;0.795268
9421.000000;0.795284
9420.000000;0.795020
9419.000000;0.794685
9418.000000;0.794438
9417.000000;0.794156
9416.000000;0.793663
9415.000000;0.792976
9414.000000;0.792212
9413.000000;0.791486
9412.000000;0.790977
9411.000000;0.790827
9410.000000;0.790875
9409.000000;0.790731
9408.000000;0.790248
9407.000000;0.789694
9406.000000;0.789318
9405.000000;0.789057
9404.000000;0.788786
9403.000000;0.788569
9402.000000;0.788453
9401.000000;0.788278
9400.000000;0.787910
9399.000000;0.787477
9398.000000;0.787180
9397.000000;0.787013
9396.000000;0.786818
9395.000000;0.786433
9394.000000;0.785729
9393.000000;0.784746
9392.000000;0.783893
9391.000000;0.783697
9390.000000;0.784195
9389.000000;0.784841
9388.000000;0.785149
9387.000000;0.785108
9386.000000;0.784813
9385.000000;0.784133
9384.000000;0.783105
9383.000000;0.782253
9382.000000;0.782048
9381.000000;0.782236
9380.000000;0.782143
9379.000000;0.781540
9378.000000;0.780800
9377.000000;0.780294
9376.000000;0.780013
9375.000000;0.779742
9374.000000;0.779278
9373.000000;0.778491
9372.000000;0.777476
9371.000000;0.776630
9370.000000;0.776290
9369.000000;0.776294
9368.000000;0.776158
9367.000000;0.775700
9366.000000;0.775193
9365.000000;0.774896
9364.000000;0.774737
9363.000000;0.774579
9362.000000;0.774487
9361.000000;0.774541
9360.000000;0.774574
9359.000000;0.774318
9358.000000;0.773749
9357.000000;0.773117
9356.000000;0.772622
9355.000000;0.772213
9354.000000;0.771743
9353.000000;0.771262
9352.000000;0.771030
9351.000000;0.771215
9350.000000;0.771619
9349.000000;0.771804
9348.000000;0.771478
9347.000000;0.770745
9346.000000;0.769960
9345.000000;0.769444
9344.000000;0.769315
9343.000000;0.769457
9342.000000;0.769586
9341.000000;0.769428
9340.000000;0.768931
9339.000000;0.768267
9338.000000;0.767632
9337.000000;0.767105
9336.000000;0.766694
9335.000000;0.766425
9334.000000;0.766282
9333.000000;0.766162
9332.000000;0.765957
9331.000000;0.765637
9330.000000;0.765220
9329.000000;0.764706
9328.000000;0.764102
9327.000000;0.763485
9326.000000;0.763002
9325.000000;0.762796
9324.000000;0.762873
9323.000000;0.763009
9322.000000;0.762861
9321.000000;0.762278
9320.000000;0.761477
9319.000000;0.760845
9318.000000;0.760607
9317.000000;0.760729
9316.000000;0.761033
9315.000000;0.761252
9314.000000;0.761103
9313.000000;0.760525
9312.000000;0.759833
9311.000000;0.759410
9310.000000;0.759251
9309.000000;0.758989
9308.000000;0.758382
9307.000000;0.757589
9306.000000;0.756915
9305.000000;0.756506
9304.000000;0.756327
9303.000000;0.756277
9302.000000;0.756220
9301.000000;0.756035
9300.000000;0.755721
9299.000000;0.755366
9298.000000;0.755024
9297.000000;0.754709
9296.000000;0.754477
9295.000000;0.754354
9294.000000;0.754211
9293.000000;0.753902
9292.000000;0.753523
9291.000000;0.753331
9290.000000;0.753383
9289.000000;0.753446
9288.000000;0.753279
9287.000000;0.752831
9286.000000;0.752170
9285.000000;0.751430
9284.000000;0.750860
9283.000000;0.750669
9282.000000;0.750784
9281.000000;0.750946
9280.000000;0.751064
9279.000000;0.751208
9278.000000;0.751261
9277.000000;0.750935
9276.000000;0.750235
9275.000000;0.749562
9274.000000;0.749139
9273.000000;0.748690
9272.000000;0.747919
9271.000000;0.747045
9270.000000;0.746495
9269.000000;0.746256
9268.000000;0.745911
9267.000000;0.745279
9266.000000;0.744681
9265.000000;0.744509
9264.000000;0.744748
9263.000000;0.745021
9262.000000;0.744973
9261.000000;0.744560
9260.000000;0.744033
9259.000000;0.743686
9258.000000;0.743603
9257.000000;0.743625
9256.000000;0.743586
9255.000000;0.743523
9254.000000;0.743602
9253.000000;0.743859
9252.000000;0.744065
9251.000000;0.743890
9250.000000;0.743227
9249.000000;0.742351
9248.000000;0.741704
9247.000000;0.741448
9246.000000;0.741326
9245.000000;0.741025
9244.000000;0.740586
9243.000000;0.740278
9242.000000;0.740132
9241.000000;0.739861
9240.000000;0.739283
9239.000000;0.738609
9238.000000;0.738202
9237.000000;0.738148
9236.000000;0.738188
9235.000000;0.737984
9234.000000;0.737430
9233.000000;0.736758
9232.000000;0.736367
9231.000000;0.736455
9230.000000;0.736808
9229.000000;0.737039
9228.000000;0.736980
9227.000000;0.736738
9226.000000;0.736426
9225.000000;0.736029
9224.000000;0.735530
9223.000000;0.734983
9222.000000;0.734401
9221.000000;0.733758
9220.000000;0.733138
9219.000000;0.732696
9218.000000;0.732432
9217.000000;0.732156
9216.000000;0.731790
9215.000000;0.731511
9214.000000;0.731510
9213.000000;0.731708
9212.000000;0.731837
9211.000000;0.731717
9210.000000;0.731382
9209.000000;0.730985
9208.000000;0.730649
9207.000000;0.730382
9206.000000;0.730128
9205.000000;0.729891
9204.000000;0.729760
9203.000000;0.729723
9202.000000;0.729572
9201.000000;0.729133
9200.000000;0.728549
9199.000000;0.728147
9198.000000;0.728054
9197.000000;0.728099
9196.000000;0.728065
9195.000000;0.727859
9194.000000;0.727463
9193.000000;0.726946
9192.000000;0.726507
9191.000000;0.726310
9190.000000;0.726216
9189.000000;0.725908
9188.000000;0.725310
9187.000000;0.724695
9186.000000;0.724345
9185.000000;0.724308
9184.000000;0.724511
9183.000000;0.724859
9182.000000;0.725147
9181.000000;0.725098
9180.000000;0.724652
9179.000000;0.724035
9178.000000;0.723462
9177.000000;0.722929
9176.000000;0.722406
9175.000000;0.722013
9174.000000;0.721860
9173.000000;0.721843
9172.000000;0.721744
9171.000000;0.721453
9170.000000;0.720996
9169.000000;0.720469
9168.000000;0.720026
9167.000000;0.719816
9166.000000;0.719800
9165.000000;0.719739
9164.000000;0.719452
9163.000000;0.719025
9162.000000;0.718685
9161.000000;0.718557
9160.000000;0.718613
9159.000000;0.718762
9158.000000;0.718884
9157.000000;0.718857
9156.000000;0.718640
9155.000000;0.718296
9154.000000;0.717899
9153.000000;0.717471
9152.000000;0.717035
9151.000000;0.716667
9150.000000;0.716443
9149.000000;0.716386
9148.000000;0.716432
9147.000000;0.716421
9146.000000;0.716162
9145.000000;0.715642
9144.000000;0.715130
9143.000000;0.714927
9142.000000;0.715047
9141.000000;0.715251
9140.000000;0.715370
9139.000000;0.715411
9138.000000;0.715356
9137.000000;0.715083
9136.000000;0.714550
9135.000000;0.713910
9134.000000;0.713343
9133.000000;0.712894
9132.000000;0.712521
9131.000000;0.712213
9130.000000;0.711988
9129.000000;0.711856
9128.000000;0.711799
9127.000000;0.711717
9126.000000;0.711439
9125.000000;0.710911
9124.000000;0.710323
9123.000000;0.709925
9122.000000;0.709746
9121.000000;0.709650
9120.000000;0.709610
9119.000000;0.709713
9118.000000;0.709891
9117.000000;0.709908
9116.000000;0.709682
9115.000000;0.709433
9114.000000;0.709401
9113.000000;0.709545
9112.000000;0.709603
9111.000000;0.709355
9110.000000;0.708801
9109.000000;0.708169
9108.000000;0.707769
9107.000000;0.707702
9106.000000;0.707729
9105.000000;0.707536
9104.000000;0.707114
9103.000000;0.706713
9102.000000;0.706462
9101.000000;0.706240
9100.000000;0.705949
9099.000000;0.705675
9098.000000;0.705515
9097.000000;0.705403
9096.000000;0.705222
9095.000000;0.704939
9094.000000;0.704581
9093.000000;0.704201
9092.000000;0.703892
9091.000000;0.703738
9090.000000;0.703710
9089.000000;0.703707
9088.000000;0.703685
9087.000000;0.703610
9086.000000;0.703365
9085.000000;0.702907
9084.000000;0.702481
9083.000000;0.702406
9082.000000;0.702612
9081.000000;0.702653
9080.000000;0.702266
9079.000000;0.701680
9078.000000;0.701269
9077.000000;0.701101
9076.000000;0.700991
9075.000000;0.700812
9074.000000;0.700582
9073.000000;0.700338
9072.000000;0.700067
9071.000000;0.699761
9070.000000;0.699447
9069.000000;0.699190
9068.000000;0.699028
9067.000000;0.698854
9066.000000;0.698436
9065.000000;0.697690
9064.000000;0.696885
9063.000000;0.696402
9062.000000;0.696299
9061.000000;0.696325
9060.000000;0.696302
9059.000000;0.696292
9058.000000;0.696339
9057.000000;0.696333
9056.000000;0.696200
9055.000000;0.696024
9054.000000;0.695863
9053.000000;0.695631
