Criado como novo conjunto de dados;"e2410_daniel_v2.spp","78306.1 Secs"
cm-1;Abs
10000.000000;1.133467
9999.000000;1.133109
9998.000000;1.132600
9997.000000;1.132110
9996.000000;1.131803
9995.000000;1.131545
9994.000000;1.131191
9993.000000;1.130697
9992.000000;1.130038
9991.000000;1.129238
9990.000000;1.128588
9989.000000;1.128421
9988.000000;1.128634
9987.000000;1.128731
9986.000000;1.128415
9985.000000;1.127825
9984.000000;1.127152
9983.000000;1.126399
9982.000000;1.125616
9981.000000;1.124988
9980.000000;1.124510
9979.000000;1.123879
9978.000000;1.122931
9977.000000;1.121905
9976.000000;1.121089
9975.000000;1.120413
9974.000000;1.119630
9973.000000;1.118750
9972.000000;1.118120
9971.000000;1.118092
9970.000000;1.118653
9969.000000;1.119278
9968.000000;1.119237
9967.000000;1.118204
9966.000000;1.116587
9965.000000;1.115111
9964.000000;1.114181
9963.000000;1.113760
9962.000000;1.113700
9961.000000;1.113817
9960.000000;1.113742
9959.000000;1.113092
9958.000000;1.111896
9957.000000;1.110616
9956.000000;1.109665
9955.000000;1.109084
9954.000000;1.108694
9953.000000;1.108327
9952.000000;1.107892
9951.000000;1.107381
9950.000000;1.106841
9949.000000;1.106250
9948.000000;1.105552
9947.000000;1.104906
9946.000000;1.104667
9945.000000;1.104898
9944.000000;1.105148
9943.000000;1.104975
9942.000000;1.104464
9941.000000;1.103904
9940.000000;1.103265
9939.000000;1.102432
9938.000000;1.101666
9937.000000;1.101281
9936.000000;1.101019
9935.000000;1.100338
9934.000000;1.099245
9933.000000;1.098259
9932.000000;1.097618
9931.000000;1.097128
9930.000000;1.096784
9929.000000;1.096831
9928.000000;1.097085
9927.000000;1.096840
9926.000000;1.095763
9925.000000;1.094402
9924.000000;1.093541
9923.000000;1.093428
9922.000000;1.093788
9921.000000;1.094184
9920.000000;1.094134
9919.000000;1.093261
9918.000000;1.091639
9917.000000;1.089824
9916.000000;1.088403
9915.000000;1.087638
9914.000000;1.087473
9913.000000;1.087598
9912.000000;1.087538
9911.000000;1.087072
9910.000000;1.086531
9909.000000;1.086341
9908.000000;1.086361
9907.000000;1.086094
9906.000000;1.085480
9905.000000;1.084928
9904.000000;1.084561
9903.000000;1.084007
9902.000000;1.083062
9901.000000;1.082005
9900.000000;1.081114
9899.000000;1.080339
9898.000000;1.079621
9897.000000;1.079028
9896.000000;1.078457
9895.000000;1.077690
9894.000000;1.076882
9893.000000;1.076469
9892.000000;1.076414
9891.000000;1.076158
9890.000000;1.075559
9889.000000;1.075237
9888.000000;1.075583
9887.000000;1.076021
9886.000000;1.075794
9885.000000;1.075030
9884.000000;1.074387
9883.000000;1.073980
9882.000000;1.073356
9881.000000;1.072392
9880.000000;1.071542
9879.000000;1.071146
9878.000000;1.070961
9877.000000;1.070518
9876.000000;1.069671
9875.000000;1.068640
9874.000000;1.067686
9873.000000;1.066870
9872.000000;1.066107
9871.000000;1.065401
9870.000000;1.064927
9869.000000;1.064753
9868.000000;1.064582
9867.000000;1.064016
9866.000000;1.063120
9865.000000;1.062426
9864.000000;1.062321
9863.000000;1.062644
9862.000000;1.062978
9861.000000;1.063034
9860.000000;1.062653
9859.000000;1.061760
9858.000000;1.060530
9857.000000;1.059389
9856.000000;1.058638
9855.000000;1.058235
9854.000000;1.058041
9853.000000;1.058016
9852.000000;1.058002
9851.000000;1.057605
9850.000000;1.056637
9849.000000;1.055500
9848.000000;1.054802
9847.000000;1.054615
9846.000000;1.054372
9845.000000;1.053531
9844.000000;1.052162
9843.000000;1.050819
9842.000000;1.049988
9841.000000;1.049772
9840.000000;1.050001
9839.000000;1.050434
9838.000000;1.050782
9837.000000;1.050662
9836.000000;1.049793
9835.000000;1.048331
9834.000000;1.046830
9833.000000;1.045787
9832.000000;1.045324
9831.000000;1.045322
9830.000000;1.045620
9829.000000;1.045922
9828.000000;1.045783
9827.000000;1.044992
9826.000000;1.043820
9825.000000;1.042708
9824.000000;1.041841
9823.000000;1.041189
9822.000000;1.040711
9821.000000;1.040259
9820.000000;1.039548
9819.000000;1.038579
9818.000000;1.037848
9817.000000;1.037739
9816.000000;1.037894
9815.000000;1.037658
9814.000000;1.037005
9813.000000;1.036489
9812.000000;1.036327
9811.000000;1.036109
9810.000000;1.035484
9809.000000;1.034620
9808.000000;1.033828
9807.000000;1.033217
9806.000000;1.032849
9805.000000;1.032810
9804.000000;1.032898
9803.000000;1.032631
9802.000000;1.031828
9801.000000;1.030914
9800.000000;1.030401
9799.000000;1.030271
9798.000000;1.030088
9797.000000;1.029529
9796.000000;1.028647
9795.000000;1.027733
9794.000000;1.027066
9793.000000;1.026724
9792.000000;1.026541
9791.000000;1.026298
9790.000000;1.025953
9789.000000;1.025584
9788.000000;1.025167
9787.000000;1.024627
9786.000000;1.024054
9785.000000;1.023634
9784.000000;1.023382
9783.000000;1.023146
9782.000000;1.022828
9781.000000;1.022394
9780.000000;1.021720
9779.000000;1.020744
9778.000000;1.019702
9777.000000;1.018934
9776.000000;1.018468
9775.000000;1.018068
9774.000000;1.017665
9773.000000;1.017407
9772.000000;1.017309
9771.000000;1.017185
9770.000000;1.016970
9769.000000;1.016786
9768.000000;1.016633
9767.000000;1.016293
9766.000000;1.015624
9765.000000;1.014703
9764.000000;1.013645
9763.000000;1.012545
9762.000000;1.011641
9761.000000;1.011211
9760.000000;1.011187
9759.000000;1.011071
9758.000000;1.010413
9757.000000;1.009258
9756.000000;1.008092
9755.000000;1.007451
9754.000000;1.007521
9753.000000;1.007972
9752.000000;1.008203
9751.000000;1.007853
9750.000000;1.007005
9749.000000;1.005838
9748.000000;1.004391
9747.000000;1.002887
9746.000000;1.001933
9745.000000;1.001922
9744.000000;1.002426
9743.000000;1.002664
9742.000000;1.002436
9741.000000;1.002157
9740.000000;1.002036
9739.000000;1.001812
9738.000000;1.001282
9737.000000;1.000562
9736.000000;0.999692
9735.000000;0.998496
9734.000000;0.997026
9733.000000;0.995753
9732.000000;0.995122
9731.000000;0.995194
9730.000000;0.995780
9729.000000;0.996602
9728.000000;0.997219
9727.000000;0.997150
9726.000000;0.996285
9725.000000;0.994955
9724.000000;0.993555
9723.000000;0.992333
9722.000000;0.991516
9721.000000;0.991287
9720.000000;0.991505
9719.000000;0.991731
9718.000000;0.991627
9717.000000;0.991166
9716.000000;0.990445
9715.000000;0.989579
9714.000000;0.988750
9713.000000;0.988088
9712.000000;0.987474
9711.000000;0.986741
9710.000000;0.985998
9709.000000;0.985466
9708.000000;0.985097
9707.000000;0.984746
9706.000000;0.984581
9705.000000;0.984843
9704.000000;0.985210
9703.000000;0.984985
9702.000000;0.984030
9701.000000;0.982998
9700.000000;0.982475
9699.000000;0.982356
9698.000000;0.982256
9697.000000;0.982042
9696.000000;0.981728
9695.000000;0.981254
9694.000000;0.980702
9693.000000;0.980411
9692.000000;0.980569
9691.000000;0.980874
9690.000000;0.980836
9689.000000;0.980236
9688.000000;0.979167
9687.000000;0.977867
9686.000000;0.976677
9685.000000;0.975905
9684.000000;0.975540
9683.000000;0.975256
9682.000000;0.974807
9681.000000;0.974232
9680.000000;0.973617
9679.000000;0.972933
9678.000000;0.972212
9677.000000;0.971595
9676.000000;0.971064
9675.000000;0.970363
9674.000000;0.969329
9673.000000;0.968087
9672.000000;0.966856
9671.000000;0.965808
9670.000000;0.965212
9669.000000;0.965370
9668.000000;0.966217
9667.000000;0.967180
9666.000000;0.967633
9665.000000;0.967373
9664.000000;0.966595
9663.000000;0.965612
9662.000000;0.964722
9661.000000;0.964126
9660.000000;0.963806
9659.000000;0.963563
9658.000000;0.963219
9657.000000;0.962688
9656.000000;0.961916
9655.000000;0.960973
9654.000000;0.960162
9653.000000;0.959786
9652.000000;0.959820
9651.000000;0.959996
9650.000000;0.960155
9649.000000;0.960252
9648.000000;0.960114
9647.000000;0.959572
9646.000000;0.958796
9645.000000;0.958116
9644.000000;0.957520
9643.000000;0.956747
9642.000000;0.955850
9641.000000;0.955230
9640.000000;0.955018
9639.000000;0.954898
9638.000000;0.954650
9637.000000;0.954425
9636.000000;0.954328
9635.000000;0.954157
9634.000000;0.953744
9633.000000;0.953194
9632.000000;0.952601
9631.000000;0.951900
9630.000000;0.951184
9629.000000;0.950719
9628.000000;0.950446
9627.000000;0.949899
9626.000000;0.948926
9625.000000;0.948074
9624.000000;0.947880
9623.000000;0.948102
9622.000000;0.948041
9621.000000;0.947402
9620.000000;0.946444
9619.000000;0.945480
9618.000000;0.944634
9617.000000;0.943982
9616.000000;0.943546
9615.000000;0.943172
9614.000000;0.942689
9613.000000;0.942163
9612.000000;0.941772
9611.000000;0.941510
9610.000000;0.941222
9609.000000;0.940858
9608.000000;0.940484
9607.000000;0.940106
9606.000000;0.939675
9605.000000;0.939234
9604.000000;0.938865
9603.000000;0.938543
9602.000000;0.938162
9601.000000;0.937688
9600.000000;0.937138
9599.000000;0.936483
9598.000000;0.935712
9597.000000;0.934983
9596.000000;0.934544
9595.000000;0.934450
9594.000000;0.934429
9593.000000;0.934091
9592.000000;0.933329
9591.000000;0.932491
9590.000000;0.932046
9589.000000;0.932022
9588.000000;0.931915
9587.000000;0.931311
9586.000000;0.930439
9585.000000;0.929859
9584.000000;0.929674
9583.000000;0.929417
9582.000000;0.928737
9581.000000;0.927856
9580.000000;0.927203
9579.000000;0.926889
9578.000000;0.926742
9577.000000;0.926639
9576.000000;0.926572
9575.000000;0.926509
9574.000000;0.926400
9573.000000;0.926232
9572.000000;0.925967
9571.000000;0.925502
9570.000000;0.924840
9569.000000;0.924208
9568.000000;0.923846
9567.000000;0.923718
9566.000000;0.923524
9565.000000;0.922974
9564.000000;0.922018
9563.000000;0.920876
9562.000000;0.919916
9561.000000;0.919408
9560.000000;0.919306
9559.000000;0.919288
9558.000000;0.919054
9557.000000;0.918579
9556.000000;0.918062
9555.000000;0.917672
9554.000000;0.917354
9553.000000;0.916859
9552.000000;0.916017
9551.000000;0.914984
9550.000000;0.914150
9549.000000;0.913726
9548.000000;0.913526
9547.000000;0.913254
9546.000000;0.912897
9545.000000;0.912659
9544.000000;0.912578
9543.000000;0.912426
9542.000000;0.911992
9541.000000;0.911299
9540.000000;0.910522
9539.000000;0.909841
9538.000000;0.909377
9537.000000;0.909127
9536.000000;0.908957
9535.000000;0.908758
9534.000000;0.908564
9533.000000;0.908424
9532.000000;0.908244
9531.000000;0.907896
9530.000000;0.907427
9529.000000;0.906980
9528.000000;0.906583
9527.000000;0.906167
9526.000000;0.905722
9525.000000;0.905263
9524.000000;0.904686
9523.000000;0.903874
9522.000000;0.902927
9521.000000;0.902102
9520.000000;0.901587
9519.000000;0.901444
9518.000000;0.901650
9517.000000;0.901942
9516.000000;0.901771
9515.000000;0.900753
9514.000000;0.899219
9513.000000;0.898005
9512.000000;0.897627
9511.000000;0.897868
9510.000000;0.898189
9509.000000;0.898278
9508.000000;0.898124
9507.000000;0.897790
9506.000000;0.897315
9505.000000;0.896740
9504.000000;0.896124
9503.000000;0.895542
9502.000000;0.895103
9501.000000;0.894869
9500.000000;0.894745
9499.000000;0.894523
9498.000000;0.894056
9497.000000;0.893347
9496.000000;0.892537
9495.000000;0.891840
9494.000000;0.891422
9493.000000;0.891240
9492.000000;0.891103
9491.000000;0.890918
9490.000000;0.890739
9489.000000;0.890518
9488.000000;0.890066
9487.000000;0.889422
9486.000000;0.888976
9485.000000;0.888956
9484.000000;0.889001
9483.000000;0.888600
9482.000000;0.887800
9481.000000;0.887120
9480.000000;0.886837
9479.000000;0.886723
9478.000000;0.886449
9477.000000;0.885886
9476.000000;0.885012
9475.000000;0.883897
9474.000000;0.882882
9473.000000;0.882450
9472.000000;0.882740
9471.000000;0.883354
9470.000000;0.883704
9469.000000;0.883472
9468.000000;0.882752
9467.000000;0.881908
9466.000000;0.881285
9465.000000;0.880886
9464.000000;0.880369
9463.000000;0.879486
9462.000000;0.878432
9461.000000;0.877616
9460.000000;0.877224
9459.000000;0.877223
9458.000000;0.877623
9457.000000;0.878365
9456.000000;0.879057
9455.000000;0.879206
9454.000000;0.878752
9453.000000;0.878052
9452.000000;0.877331
9451.000000;0.876496
9450.000000;0.875522
9449.000000;0.874642
9448.000000;0.874064
9447.000000;0.873768
9446.000000;0.873679
9445.000000;0.873759
9444.000000;0.873811
9443.000000;0.873499
9442.000000;0.872747
9441.000000;0.871906
9440.000000;0.871383
9439.000000;0.871229
9438.000000;0.871181
9437.000000;0.870953
9436.000000;0.870399
9435.000000;0.869539
9434.000000;0.868568
9433.000000;0.867758
9432.000000;0.867295
9431.000000;0.867233
9430.000000;0.867507
9429.000000;0.867854
9428.000000;0.867817
9427.000000;0.867081
9426.000000;0.865847
9425.000000;0.864664
9424.000000;0.863873
9423.000000;0.863358
9422.000000;0.862871
9421.000000;0.862383
9420.000000;0.862045
9419.000000;0.861938
9418.000000;0.861970
9417.000000;0.861976
9416.000000;0.861873
9415.000000;0.861717
9414.000000;0.861576
9413.000000;0.861391
9412.000000;0.861068
9411.000000;0.860701
9410.000000;0.860480
9409.000000;0.860322
9408.000000;0.859864
9407.000000;0.858999
9406.000000;0.858130
9405.000000;0.857655
9404.000000;0.857436
9403.000000;0.857085
9402.000000;0.856556
9401.000000;0.856093
9400.000000;0.855729
9399.000000;0.855257
9398.000000;0.854620
9397.000000;0.853991
9396.000000;0.853492
9395.000000;0.853121
9394.000000;0.852931
9393.000000;0.852979
9392.000000;0.853120
9391.000000;0.853123
9390.000000;0.852957
9389.000000;0.852704
9388.000000;0.852288
9387.000000;0.851605
9386.000000;0.850827
9385.000000;0.850229
9384.000000;0.849789
9383.000000;0.849299
9382.000000;0.848787
9381.000000;0.848449
9380.000000;0.848227
9379.000000;0.847904
9378.000000;0.847599
9377.000000;0.847677
9376.000000;0.848073
9375.000000;0.848160
9374.000000;0.847505
9373.000000;0.846414
9372.000000;0.845542
9371.000000;0.845239
9370.000000;0.845422
9369.000000;0.845752
9368.000000;0.845736
9367.000000;0.844969
9366.000000;0.843541
9365.000000;0.842076
9364.000000;0.841201
9363.000000;0.841038
9362.000000;0.841253
9361.000000;0.841412
9360.000000;0.841273
9359.000000;0.840894
9358.000000;0.840545
9357.000000;0.840388
9356.000000;0.840263
9355.000000;0.839958
9354.000000;0.839619
9353.000000;0.839575
9352.000000;0.839789
9351.000000;0.839801
9350.000000;0.839309
9349.000000;0.838502
9348.000000;0.837706
9347.000000;0.836997
9346.000000;0.836322
9345.000000;0.835763
9344.000000;0.835473
9343.000000;0.835477
9342.000000;0.835644
9341.000000;0.835746
9340.000000;0.835537
9339.000000;0.834961
9338.000000;0.834297
9337.000000;0.833885
9336.000000;0.833683
9335.000000;0.833338
9334.000000;0.832749
9333.000000;0.832275
9332.000000;0.832246
9331.000000;0.832504
9330.000000;0.832600
9329.000000;0.832281
9328.000000;0.831649
9327.000000;0.830952
9326.000000;0.830372
9325.000000;0.829951
9324.000000;0.829610
9323.000000;0.829278
9322.000000;0.828984
9321.000000;0.828756
9320.000000;0.828480
9319.000000;0.828026
9318.000000;0.827482
9317.000000;0.827056
9316.000000;0.826758
9315.000000;0.826392
9314.000000;0.825901
9313.000000;0.825487
9312.000000;0.825307
9311.000000;0.825220
9310.000000;0.824972
9309.000000;0.824513
9308.000000;0.824050
9307.000000;0.823837
9306.000000;0.823935
9305.000000;0.824095
9304.000000;0.823900
9303.000000;0.823167
9302.000000;0.822176
9301.000000;0.821403
9300.000000;0.821062
9299.000000;0.821004
9298.000000;0.820987
9297.000000;0.820857
9296.000000;0.820549
9295.000000;0.820134
9294.000000;0.819834
9293.000000;0.819798
9292.000000;0.819865
9291.000000;0.819724
9290.000000;0.819284
9289.000000;0.818729
9288.000000;0.818257
9287.000000;0.817947
9286.000000;0.817795
9285.000000;0.817651
9284.000000;0.817229
9283.000000;0.816435
9282.000000;0.815647
9281.000000;0.815365
9280.000000;0.815588
9279.000000;0.815804
9278.000000;0.815593
9277.000000;0.814989
9276.000000;0.814233
9275.000000;0.813481
9274.000000;0.812827
9273.000000;0.812347
9272.000000;0.812042
9271.000000;0.811884
9270.000000;0.811921
9269.000000;0.812109
9268.000000;0.812107
9267.000000;0.811558
9266.000000;0.810621
9265.000000;0.809910
9264.000000;0.809816
9263.000000;0.810119
9262.000000;0.810346
9261.000000;0.810264
9260.000000;0.809954
9259.000000;0.809607
9258.000000;0.809380
9257.000000;0.809277
9256.000000;0.809108
9255.000000;0.808690
9254.000000;0.808118
9253.000000;0.807619
9252.000000;0.807198
9251.000000;0.806675
9250.000000;0.806074
9249.000000;0.805655
9248.000000;0.805481
9247.000000;0.805264
9246.000000;0.804780
9245.000000;0.804175
9244.000000;0.803698
9243.000000;0.803357
9242.000000;0.803021
9241.000000;0.802669
9240.000000;0.802371
9239.000000;0.802153
9238.000000;0.802028
9237.000000;0.802048
9236.000000;0.802211
9235.000000;0.802400
9234.000000;0.802491
9233.000000;0.802424
9232.000000;0.802161
9231.000000;0.801703
9230.000000;0.801182
9229.000000;0.800744
9228.000000;0.800323
9227.000000;0.799707
9226.000000;0.798889
9225.000000;0.798167
9224.000000;0.797784
9223.000000;0.797667
9222.000000;0.797595
9221.000000;0.797456
9220.000000;0.797216
9219.000000;0.796811
9218.000000;0.796219
9217.000000;0.795582
9216.000000;0.795107
9215.000000;0.794906
9214.000000;0.794961
9213.000000;0.795168
9212.000000;0.795379
9211.000000;0.795459
9210.000000;0.795364
9209.000000;0.795114
9208.000000;0.794715
9207.000000;0.794194
9206.000000;0.793665
9205.000000;0.793242
9204.000000;0.792876
9203.000000;0.792415
9202.000000;0.791800
9201.000000;0.791125
9200.000000;0.790511
9199.000000;0.790052
9198.000000;0.789823
9197.000000;0.789780
9196.000000;0.789710
9195.000000;0.789438
9194.000000;0.789078
9193.000000;0.788897
9192.000000;0.788946
9191.000000;0.789010
9190.000000;0.788920
9189.000000;0.788745
9188.000000;0.788639
9187.000000;0.788664
9186.000000;0.788764
9185.000000;0.788793
9184.000000;0.788586
9183.000000;0.788141
9182.000000;0.787699
9181.000000;0.787484
9180.000000;0.787398
9179.000000;0.787168
9178.000000;0.786744
9177.000000;0.786349
9176.000000;0.786142
9175.000000;0.786048
9174.000000;0.785930
9173.000000;0.785689
9172.000000;0.785194
9171.000000;0.784351
9170.000000;0.783333
9169.000000;0.782527
9168.000000;0.782184
9167.000000;0.782237
9166.000000;0.782450
9165.000000;0.782567
9164.000000;0.782350
9163.000000;0.781730
9162.000000;0.781002
9161.000000;0.780632
9160.000000;0.780761
9159.000000;0.781047
9158.000000;0.781087
9157.000000;0.780827
9156.000000;0.780458
9155.000000;0.780088
9154.000000;0.779669
9153.000000;0.779166
9152.000000;0.778665
9151.000000;0.778331
9150.000000;0.778262
9149.000000;0.778341
9148.000000;0.778273
9147.000000;0.777863
9146.000000;0.777236
9145.000000;0.776659
9144.000000;0.776193
9143.000000;0.775705
9142.000000;0.775202
9141.000000;0.774921
9140.000000;0.775019
9139.000000;0.775307
9138.000000;0.775395
9137.000000;0.775045
9136.000000;0.774345
9135.000000;0.773631
9134.000000;0.773233
9133.000000;0.773213
9132.000000;0.773354
9131.000000;0.773461
9130.000000;0.773583
9129.000000;0.773842
9128.000000;0.774131
9127.000000;0.774161
9126.000000;0.773795
9125.000000;0.773156
9124.000000;0.772461
9123.000000;0.771904
9122.000000;0.771651
9121.000000;0.771739
9120.000000;0.771947
9119.000000;0.771948
9118.000000;0.771587
9117.000000;0.770920
9116.000000;0.770025
9115.000000;0.768994
9114.000000;0.768063
9113.000000;0.767533
9112.000000;0.767489
9111.000000;0.767747
9110.000000;0.768074
9109.000000;0.768332
9108.000000;0.768420
9107.000000;0.768264
9106.000000;0.767914
9105.000000;0.767525
9104.000000;0.767188
9103.000000;0.766879
9102.000000;0.766568
9101.000000;0.766263
9100.000000;0.765967
9099.000000;0.765696
9098.000000;0.765511
9097.000000;0.765426
9096.000000;0.765334
9095.000000;0.765129
9094.000000;0.764853
9093.000000;0.764610
9092.000000;0.764402
9091.000000;0.764193
9090.000000;0.764034
9089.000000;0.763973
9088.000000;0.763931
9087.000000;0.763835
9086.000000;0.763742
9085.000000;0.763664
9084.000000;0.763413
9083.000000;0.762877
9082.000000;0.762298
9081.000000;0.761993
9080.000000;0.761865
9079.000000;0.761521
9078.000000;0.760851
9077.000000;0.760175
9076.000000;0.759801
9075.000000;0.759702
9074.000000;0.759708
9073.000000;0.759734
9072.000000;0.759750
9071.000000;0.759698
9070.000000;0.759523
9069.000000;0.759176
9068.000000;0.758622
9067.000000;0.757991
9066.000000;0.757623
9065.000000;0.757708
9064.000000;0.757976
9063.000000;0.757974
9062.000000;0.757645
9061.000000;0.757332
9060.000000;0.757258
9059.000000;0.757295
9058.000000;0.757262
9057.000000;0.757131
9056.000000;0.756879
9055.000000;0.756435
9054.000000;0.755882
9053.000000;0.755460
