Criado como novo conjunto de dados;"e2410_daniel_v2.spp","66245.8 Secs"
cm-1;Abs
10000.000000;1.275617
9999.000000;1.274688
9998.000000;1.274160
9997.000000;1.273971
9996.000000;1.273878
9995.000000;1.273594
9994.000000;1.273081
9993.000000;1.272571
9992.000000;1.272174
9991.000000;1.271706
9990.000000;1.271046
9989.000000;1.270416
9988.000000;1.270091
9987.000000;1.270044
9986.000000;1.269980
9985.000000;1.269594
9984.000000;1.268742
9983.000000;1.267561
9982.000000;1.266445
9981.000000;1.265666
9980.000000;1.265024
9979.000000;1.264161
9978.000000;1.263171
9977.000000;1.262507
9976.000000;1.262282
9975.000000;1.262152
9974.000000;1.261944
9973.000000;1.261847
9972.000000;1.261803
9971.000000;1.261269
9970.000000;1.259922
9969.000000;1.258217
9968.000000;1.256927
9967.000000;1.256439
9966.000000;1.256768
9965.000000;1.257785
9964.000000;1.259059
9963.000000;1.259806
9962.000000;1.259473
9961.000000;1.258304
9960.000000;1.257081
9959.000000;1.256496
9958.000000;1.256851
9957.000000;1.257965
9956.000000;1.259057
9955.000000;1.259097
9954.000000;1.257685
9953.000000;1.255434
9952.000000;1.253210
9951.000000;1.251260
9950.000000;1.249383
9949.000000;1.247631
9948.000000;1.246394
9947.000000;1.245889
9946.000000;1.245894
9945.000000;1.245952
9944.000000;1.245667
9943.000000;1.244943
9942.000000;1.244081
9941.000000;1.243540
9940.000000;1.243451
9939.000000;1.243523
9938.000000;1.243527
9937.000000;1.243639
9936.000000;1.244130
9935.000000;1.244913
9934.000000;1.245543
9933.000000;1.245536
9932.000000;1.244626
9931.000000;1.242959
9930.000000;1.241134
9929.000000;1.239758
9928.000000;1.238855
9927.000000;1.238010
9926.000000;1.237143
9925.000000;1.236690
9924.000000;1.236806
9923.000000;1.236860
9922.000000;1.236127
9921.000000;1.234664
9920.000000;1.233118
9919.000000;1.231986
9918.000000;1.231443
9917.000000;1.231579
9916.000000;1.232296
9915.000000;1.233066
9914.000000;1.233260
9913.000000;1.232737
9912.000000;1.231854
9911.000000;1.231013
9910.000000;1.230485
9909.000000;1.230494
9908.000000;1.231059
9907.000000;1.231736
9906.000000;1.231865
9905.000000;1.231146
9904.000000;1.229847
9903.000000;1.228489
9902.000000;1.227510
9901.000000;1.227099
9900.000000;1.227067
9899.000000;1.226872
9898.000000;1.226001
9897.000000;1.224415
9896.000000;1.222529
9895.000000;1.220853
9894.000000;1.219731
9893.000000;1.219293
9892.000000;1.219448
9891.000000;1.219872
9890.000000;1.220156
9889.000000;1.220074
9888.000000;1.219694
9887.000000;1.219258
9886.000000;1.218933
9885.000000;1.218621
9884.000000;1.218040
9883.000000;1.217104
9882.000000;1.216139
9881.000000;1.215537
9880.000000;1.215221
9879.000000;1.214754
9878.000000;1.214006
9877.000000;1.213351
9876.000000;1.213080
9875.000000;1.212915
9874.000000;1.212398
9873.000000;1.211517
9872.000000;1.210694
9871.000000;1.210230
9870.000000;1.210018
9869.000000;1.209787
9868.000000;1.209481
9867.000000;1.209319
9866.000000;1.209529
9865.000000;1.210008
9864.000000;1.210296
9863.000000;1.209978
9862.000000;1.209073
9861.000000;1.207919
9860.000000;1.206790
9859.000000;1.205835
9858.000000;1.205251
9857.000000;1.205154
9856.000000;1.205256
9855.000000;1.205019
9854.000000;1.204260
9853.000000;1.203320
9852.000000;1.202526
9851.000000;1.201791
9850.000000;1.200917
9849.000000;1.200032
9848.000000;1.199472
9847.000000;1.199357
9846.000000;1.199484
9845.000000;1.199559
9844.000000;1.199434
9843.000000;1.199143
9842.000000;1.198776
9841.000000;1.198286
9840.000000;1.197463
9839.000000;1.196215
9838.000000;1.194800
9837.000000;1.193640
9836.000000;1.192948
9835.000000;1.192670
9834.000000;1.192685
9833.000000;1.192795
9832.000000;1.192697
9831.000000;1.192271
9830.000000;1.191838
9829.000000;1.191758
9828.000000;1.191829
9827.000000;1.191453
9826.000000;1.190373
9825.000000;1.188906
9824.000000;1.187471
9823.000000;1.186338
9822.000000;1.185779
9821.000000;1.185957
9820.000000;1.186530
9819.000000;1.186834
9818.000000;1.186614
9817.000000;1.186191
9816.000000;1.185741
9815.000000;1.184958
9814.000000;1.183694
9813.000000;1.182451
9812.000000;1.181837
9811.000000;1.181838
9810.000000;1.181934
9809.000000;1.181750
9808.000000;1.181281
9807.000000;1.180676
9806.000000;1.180026
9805.000000;1.179303
9804.000000;1.178400
9803.000000;1.177333
9802.000000;1.176361
9801.000000;1.175702
9800.000000;1.175183
9799.000000;1.174549
9798.000000;1.174046
9797.000000;1.174210
9796.000000;1.174962
9795.000000;1.175441
9794.000000;1.174975
9793.000000;1.173796
9792.000000;1.172523
9791.000000;1.171430
9790.000000;1.170534
9789.000000;1.169999
9788.000000;1.169987
9787.000000;1.170299
9786.000000;1.170544
9785.000000;1.170541
9784.000000;1.170381
9783.000000;1.170191
9782.000000;1.170002
9781.000000;1.169695
9780.000000;1.169017
9779.000000;1.167898
9778.000000;1.166799
9777.000000;1.166357
9776.000000;1.166531
9775.000000;1.166502
9774.000000;1.165655
9773.000000;1.164319
9772.000000;1.163256
9771.000000;1.162785
9770.000000;1.162703
9769.000000;1.162733
9768.000000;1.162720
9767.000000;1.162579
9766.000000;1.162343
9765.000000;1.162101
9764.000000;1.161769
9763.000000;1.161175
9762.000000;1.160502
9761.000000;1.160227
9760.000000;1.160362
9759.000000;1.160216
9758.000000;1.159260
9757.000000;1.157869
9756.000000;1.156787
9755.000000;1.156219
9754.000000;1.155878
9753.000000;1.155558
9752.000000;1.155180
9751.000000;1.154537
9750.000000;1.153567
9749.000000;1.152715
9748.000000;1.152502
9747.000000;1.152771
9746.000000;1.152858
9745.000000;1.152467
9744.000000;1.151894
9743.000000;1.151403
9742.000000;1.150888
9741.000000;1.150257
9740.000000;1.149680
9739.000000;1.149239
9738.000000;1.148675
9737.000000;1.147723
9736.000000;1.146516
9735.000000;1.145489
9734.000000;1.144968
9733.000000;1.144936
9732.000000;1.145060
9731.000000;1.144913
9730.000000;1.144294
9729.000000;1.143411
9728.000000;1.142674
9727.000000;1.142303
9726.000000;1.142184
9725.000000;1.142065
9724.000000;1.141754
9723.000000;1.141176
9722.000000;1.140445
9721.000000;1.139886
9720.000000;1.139823
9719.000000;1.140192
9718.000000;1.140446
9717.000000;1.139998
9716.000000;1.138820
9715.000000;1.137526
9714.000000;1.136774
9713.000000;1.136598
9712.000000;1.136460
9711.000000;1.135970
9710.000000;1.135358
9709.000000;1.135096
9708.000000;1.135202
9707.000000;1.135209
9706.000000;1.134749
9705.000000;1.133915
9704.000000;1.133042
9703.000000;1.132406
9702.000000;1.132168
9701.000000;1.132344
9700.000000;1.132675
9699.000000;1.132740
9698.000000;1.132297
9697.000000;1.131411
9696.000000;1.130248
9695.000000;1.128953
9694.000000;1.127759
9693.000000;1.126942
9692.000000;1.126546
9691.000000;1.126358
9690.000000;1.126220
9689.000000;1.126140
9688.000000;1.126036
9687.000000;1.125632
9686.000000;1.124739
9685.000000;1.123463
9684.000000;1.122050
9683.000000;1.120764
9682.000000;1.119934
9681.000000;1.119814
9680.000000;1.120216
9679.000000;1.120524
9678.000000;1.120271
9677.000000;1.119560
9676.000000;1.118836
9675.000000;1.118428
9674.000000;1.118394
9673.000000;1.118510
9672.000000;1.118296
9671.000000;1.117345
9670.000000;1.115833
9669.000000;1.114487
9668.000000;1.113876
9667.000000;1.113920
9666.000000;1.114212
9665.000000;1.114554
9664.000000;1.114959
9663.000000;1.115358
9662.000000;1.115577
9661.000000;1.115481
9660.000000;1.114976
9659.000000;1.114023
9658.000000;1.112819
9657.000000;1.111749
9656.000000;1.110974
9655.000000;1.110239
9654.000000;1.109282
9653.000000;1.108248
9652.000000;1.107461
9651.000000;1.107005
9650.000000;1.106760
9649.000000;1.106709
9648.000000;1.106884
9647.000000;1.107108
9646.000000;1.107079
9645.000000;1.106728
9644.000000;1.106280
9643.000000;1.105944
9642.000000;1.105692
9641.000000;1.105354
9640.000000;1.104765
9639.000000;1.103828
9638.000000;1.102611
9637.000000;1.101389
9636.000000;1.100458
9635.000000;1.099874
9634.000000;1.099440
9633.000000;1.098978
9632.000000;1.098569
9631.000000;1.098468
9630.000000;1.098767
9629.000000;1.099197
9628.000000;1.099351
9627.000000;1.099091
9626.000000;1.098602
9625.000000;1.098013
9624.000000;1.097231
9623.000000;1.096279
9622.000000;1.095539
9621.000000;1.095304
9620.000000;1.095270
9619.000000;1.094861
9618.000000;1.094009
9617.000000;1.093220
9616.000000;1.092855
9615.000000;1.092761
9614.000000;1.092691
9613.000000;1.092664
9612.000000;1.092717
9611.000000;1.092636
9610.000000;1.092188
9609.000000;1.091418
9608.000000;1.090533
9607.000000;1.089667
9606.000000;1.088890
9605.000000;1.088250
9604.000000;1.087667
9603.000000;1.086959
9602.000000;1.086101
9601.000000;1.085280
9600.000000;1.084642
9599.000000;1.084195
9598.000000;1.083967
9597.000000;1.084001
9596.000000;1.084113
9595.000000;1.083955
9594.000000;1.083441
9593.000000;1.082828
9592.000000;1.082257
9591.000000;1.081563
9590.000000;1.080721
9589.000000;1.080154
9588.000000;1.080271
9587.000000;1.080891
9586.000000;1.081369
9585.000000;1.081175
9584.000000;1.080235
9583.000000;1.078908
9582.000000;1.077810
9581.000000;1.077433
9580.000000;1.077694
9579.000000;1.077998
9578.000000;1.077895
9577.000000;1.077494
9576.000000;1.077098
9575.000000;1.076678
9574.000000;1.075986
9573.000000;1.075003
9572.000000;1.074043
9571.000000;1.073446
9570.000000;1.073326
9569.000000;1.073495
9568.000000;1.073552
9567.000000;1.073195
9566.000000;1.072519
9565.000000;1.071843
9564.000000;1.071228
9563.000000;1.070457
9562.000000;1.069525
9561.000000;1.068781
9560.000000;1.068420
9559.000000;1.068225
9558.000000;1.068058
9557.000000;1.068215
9556.000000;1.068878
9555.000000;1.069515
9554.000000;1.069308
9553.000000;1.068089
9552.000000;1.066438
9551.000000;1.064979
9550.000000;1.063944
9549.000000;1.063336
9548.000000;1.063112
9547.000000;1.063131
9546.000000;1.063197
9545.000000;1.063240
9544.000000;1.063277
9543.000000;1.063242
9542.000000;1.063039
9541.000000;1.062761
9540.000000;1.062642
9539.000000;1.062778
9538.000000;1.062996
9537.000000;1.063000
9536.000000;1.062552
9535.000000;1.061608
9534.000000;1.060432
9533.000000;1.059476
9532.000000;1.058977
9531.000000;1.058706
9530.000000;1.058241
9529.000000;1.057489
9528.000000;1.056781
9527.000000;1.056507
9526.000000;1.056745
9525.000000;1.057182
9524.000000;1.057307
9523.000000;1.056749
9522.000000;1.055559
9521.000000;1.054166
9520.000000;1.053053
9519.000000;1.052527
9518.000000;1.052665
9517.000000;1.053202
9516.000000;1.053516
9515.000000;1.053085
9514.000000;1.052126
9513.000000;1.051449
9512.000000;1.051480
9511.000000;1.051741
9510.000000;1.051525
9509.000000;1.050777
9508.000000;1.049945
9507.000000;1.049242
9506.000000;1.048533
9505.000000;1.047835
9504.000000;1.047426
9503.000000;1.047377
9502.000000;1.047369
9501.000000;1.047085
9500.000000;1.046567
9499.000000;1.046060
9498.000000;1.045723
9497.000000;1.045557
9496.000000;1.045415
9495.000000;1.045015
9494.000000;1.044125
9493.000000;1.042872
9492.000000;1.041732
9491.000000;1.041116
9490.000000;1.041025
9489.000000;1.041114
9488.000000;1.041006
9487.000000;1.040498
9486.000000;1.039629
9485.000000;1.038649
9484.000000;1.037887
9483.000000;1.037549
9482.000000;1.037597
9481.000000;1.037797
9480.000000;1.037873
9479.000000;1.037651
9478.000000;1.037143
9477.000000;1.036521
9476.000000;1.036015
9475.000000;1.035804
9474.000000;1.035924
9473.000000;1.036186
9472.000000;1.036226
9471.000000;1.035785
9470.000000;1.034994
9469.000000;1.034233
9468.000000;1.033708
9467.000000;1.033304
9466.000000;1.032900
9465.000000;1.032603
9464.000000;1.032521
9463.000000;1.032467
9462.000000;1.032140
9461.000000;1.031511
9460.000000;1.030840
9459.000000;1.030348
9458.000000;1.030026
9457.000000;1.029754
9456.000000;1.029420
9455.000000;1.028940
9454.000000;1.028342
9453.000000;1.027863
9452.000000;1.027787
9451.000000;1.028091
9450.000000;1.028340
9449.000000;1.028053
9448.000000;1.027171
9447.000000;1.026103
9446.000000;1.025340
9445.000000;1.025060
9444.000000;1.025062
9443.000000;1.025039
9442.000000;1.024869
9441.000000;1.024675
9440.000000;1.024626
9439.000000;1.024718
9438.000000;1.024732
9437.000000;1.024426
9436.000000;1.023777
9435.000000;1.022998
9434.000000;1.022277
9433.000000;1.021569
9432.000000;1.020756
9431.000000;1.019952
9430.000000;1.019421
9429.000000;1.019161
9428.000000;1.018823
9427.000000;1.018240
9426.000000;1.017803
9425.000000;1.017975
9424.000000;1.018533
9423.000000;1.018656
9422.000000;1.017820
9421.000000;1.016374
9420.000000;1.015139
9419.000000;1.014659
9418.000000;1.014903
9417.000000;1.015428
9416.000000;1.015669
9415.000000;1.015262
9414.000000;1.014265
9413.000000;1.013055
9412.000000;1.011974
9411.000000;1.011149
9410.000000;1.010623
9409.000000;1.010445
9408.000000;1.010555
9407.000000;1.010746
9406.000000;1.010849
9405.000000;1.010824
9404.000000;1.010632
9403.000000;1.010185
9402.000000;1.009556
9401.000000;1.009055
9400.000000;1.008949
9399.000000;1.009137
9398.000000;1.009233
9397.000000;1.008934
9396.000000;1.008267
9395.000000;1.007527
9394.000000;1.007040
9393.000000;1.006911
9392.000000;1.006955
9391.000000;1.006891
9390.000000;1.006581
9389.000000;1.006035
9388.000000;1.005253
9387.000000;1.004250
9386.000000;1.003209
9385.000000;1.002449
9384.000000;1.002163
9383.000000;1.002303
9382.000000;1.002694
9381.000000;1.003102
9380.000000;1.003212
9379.000000;1.002794
9378.000000;1.002011
9377.000000;1.001336
9376.000000;1.001062
9375.000000;1.001007
9374.000000;1.000822
9373.000000;1.000415
9372.000000;0.999955
9371.000000;0.999596
9370.000000;0.999356
9369.000000;0.999175
9368.000000;0.998986
9367.000000;0.998758
9366.000000;0.998553
9365.000000;0.998464
9364.000000;0.998427
9363.000000;0.998183
9362.000000;0.997526
9361.000000;0.996558
9360.000000;0.995644
9359.000000;0.995120
9358.000000;0.995016
9357.000000;0.995008
9356.000000;0.994689
9355.000000;0.994002
9354.000000;0.993349
9353.000000;0.993109
9352.000000;0.993147
9351.000000;0.992991
9350.000000;0.992438
9349.000000;0.991718
9348.000000;0.991093
9347.000000;0.990605
9346.000000;0.990269
9345.000000;0.990162
9344.000000;0.990187
9343.000000;0.990036
9342.000000;0.989580
9341.000000;0.989100
9340.000000;0.988909
9339.000000;0.988943
9338.000000;0.988878
9337.000000;0.988497
9336.000000;0.987754
9335.000000;0.986682
9334.000000;0.985482
9333.000000;0.984570
9332.000000;0.984284
9331.000000;0.984563
9330.000000;0.985069
9329.000000;0.985499
9328.000000;0.985662
9327.000000;0.985420
9326.000000;0.984814
9325.000000;0.984171
9324.000000;0.983808
9323.000000;0.983670
9322.000000;0.983429
9321.000000;0.982933
9320.000000;0.982337
9319.000000;0.981829
9318.000000;0.981424
9317.000000;0.981062
9316.000000;0.980722
9315.000000;0.980373
9314.000000;0.979970
9313.000000;0.979545
9312.000000;0.979195
9311.000000;0.978936
9310.000000;0.978673
9309.000000;0.978365
9308.000000;0.978113
9307.000000;0.978024
9306.000000;0.978063
9305.000000;0.978127
9304.000000;0.978195
9303.000000;0.978319
9302.000000;0.978468
9301.000000;0.978490
9300.000000;0.978264
9299.000000;0.977871
9298.000000;0.977527
9297.000000;0.977336
9296.000000;0.977163
9295.000000;0.976805
9294.000000;0.976219
9293.000000;0.975552
9292.000000;0.974972
9291.000000;0.974570
9290.000000;0.974388
9289.000000;0.974420
9288.000000;0.974541
9287.000000;0.974540
9286.000000;0.974254
9285.000000;0.973661
9284.000000;0.972848
9283.000000;0.971994
9282.000000;0.971355
9281.000000;0.971127
9280.000000;0.971217
9279.000000;0.971220
9278.000000;0.970735
9277.000000;0.969698
9276.000000;0.968430
9275.000000;0.967376
9274.000000;0.966820
9273.000000;0.966744
9272.000000;0.966880
9271.000000;0.966919
9270.000000;0.966739
9269.000000;0.966464
9268.000000;0.966309
9267.000000;0.966368
9266.000000;0.966516
9265.000000;0.966490
9264.000000;0.966143
9263.000000;0.965630
9262.000000;0.965262
9261.000000;0.965111
9260.000000;0.964874
9259.000000;0.964265
9258.000000;0.963450
9257.000000;0.962907
9256.000000;0.962867
9255.000000;0.963075
9254.000000;0.963106
9253.000000;0.962770
9252.000000;0.962208
9251.000000;0.961699
9250.000000;0.961427
9249.000000;0.961325
9248.000000;0.961103
9247.000000;0.960549
9246.000000;0.959795
9245.000000;0.959193
9244.000000;0.958940
9243.000000;0.958952
9242.000000;0.959100
9241.000000;0.959387
9240.000000;0.959780
9239.000000;0.960057
9238.000000;0.959949
9237.000000;0.959406
9236.000000;0.958641
9235.000000;0.957950
9234.000000;0.957529
9233.000000;0.957384
9232.000000;0.957349
9231.000000;0.957229
9230.000000;0.956959
9229.000000;0.956589
9228.000000;0.956140
9227.000000;0.955590
9226.000000;0.955024
9225.000000;0.954642
9224.000000;0.954519
9223.000000;0.954472
9222.000000;0.954275
9221.000000;0.953952
9220.000000;0.953711
9219.000000;0.953601
9218.000000;0.953398
9217.000000;0.952876
9216.000000;0.952139
9215.000000;0.951557
9214.000000;0.951421
9213.000000;0.951701
9212.000000;0.952144
9211.000000;0.952492
9210.000000;0.952555
9209.000000;0.952201
9208.000000;0.951429
9207.000000;0.950450
9206.000000;0.949564
9205.000000;0.948946
9204.000000;0.948630
9203.000000;0.948652
9202.000000;0.949031
9201.000000;0.949557
9200.000000;0.949808
9199.000000;0.949499
9198.000000;0.948729
9197.000000;0.947821
9196.000000;0.947041
9195.000000;0.946528
9194.000000;0.946345
9193.000000;0.946413
9192.000000;0.946500
9191.000000;0.946421
9190.000000;0.946209
9189.000000;0.946017
9188.000000;0.945922
9187.000000;0.945900
9186.000000;0.945876
9185.000000;0.945722
9184.000000;0.945348
9183.000000;0.944886
9182.000000;0.944643
9181.000000;0.944731
9180.000000;0.944873
9179.000000;0.944712
9178.000000;0.944181
9177.000000;0.943461
9176.000000;0.942733
9175.000000;0.942122
9174.000000;0.941720
9173.000000;0.941461
9172.000000;0.941127
9171.000000;0.940661
9170.000000;0.940337
9169.000000;0.940400
9168.000000;0.940668
9167.000000;0.940771
9166.000000;0.940645
9165.000000;0.940518
9164.000000;0.940463
9163.000000;0.940250
9162.000000;0.939657
9161.000000;0.938755
9160.000000;0.937874
9159.000000;0.937397
9158.000000;0.937483
9157.000000;0.937846
9156.000000;0.937938
9155.000000;0.937539
9154.000000;0.936974
9153.000000;0.936565
9152.000000;0.936146
9151.000000;0.935442
9150.000000;0.934704
9149.000000;0.934477
9148.000000;0.934835
9147.000000;0.935269
9146.000000;0.935362
9145.000000;0.935172
9144.000000;0.934883
9143.000000;0.934497
9142.000000;0.934010
9141.000000;0.933566
9140.000000;0.933261
9139.000000;0.933023
9138.000000;0.932772
9137.000000;0.932510
9136.000000;0.932200
9135.000000;0.931794
9134.000000;0.931445
9133.000000;0.931434
9132.000000;0.931785
9131.000000;0.932171
9130.000000;0.932282
9129.000000;0.932112
9128.000000;0.931815
9127.000000;0.931477
9126.000000;0.931087
9125.000000;0.930567
9124.000000;0.929823
9123.000000;0.928918
9122.000000;0.928165
9121.000000;0.927825
9120.000000;0.927772
9119.000000;0.927708
9118.000000;0.927633
9117.000000;0.927776
9116.000000;0.928084
9115.000000;0.928180
9114.000000;0.927901
9113.000000;0.927487
9112.000000;0.927138
9111.000000;0.926756
9110.000000;0.926291
9109.000000;0.925947
9108.000000;0.925849
9107.000000;0.925804
9106.000000;0.925613
9105.000000;0.925375
9104.000000;0.925275
9103.000000;0.925316
9102.000000;0.925456
9101.000000;0.925757
9100.000000;0.926154
9099.000000;0.926286
9098.000000;0.925842
9097.000000;0.924928
9096.000000;0.923908
9095.000000;0.923038
9094.000000;0.922448
9093.000000;0.922256
9092.000000;0.922424
9091.000000;0.922626
9090.000000;0.922547
9089.000000;0.922254
9088.000000;0.922060
9087.000000;0.922100
9086.000000;0.922206
9085.000000;0.922145
9084.000000;0.921800
9083.000000;0.921188
9082.000000;0.920488
9081.000000;0.919997
9080.000000;0.919909
9079.000000;0.920126
9078.000000;0.920376
9077.000000;0.920470
9076.000000;0.920365
9075.000000;0.920073
9074.000000;0.919641
9073.000000;0.919173
9072.000000;0.918749
9071.000000;0.918363
9070.000000;0.918008
9069.000000;0.917730
9068.000000;0.917539
9067.000000;0.917365
9066.000000;0.917181
9065.000000;0.917082
9064.000000;0.917125
9063.000000;0.917200
9062.000000;0.917171
9061.000000;0.917051
9060.000000;0.916909
9059.000000;0.916681
9058.000000;0.916210
9057.000000;0.915485
9056.000000;0.914718
9055.000000;0.914174
9054.000000;0.913977
9053.000000;0.914040
