Criado como novo conjunto de dados;"e2410_daniel_v2.spp","36003.9 Secs"
cm-1;Abs
10000.000000;0.525936
9999.000000;0.525885
9998.000000;0.525834
9997.000000;0.525784
9996.000000;0.525730
9995.000000;0.525686
9994.000000;0.525607
9993.000000;0.525264
9992.000000;0.524551
9991.000000;0.523713
9990.000000;0.523065
9989.000000;0.522674
9988.000000;0.522416
9987.000000;0.522187
9986.000000;0.521881
9985.000000;0.521348
9984.000000;0.520572
9983.000000;0.519773
9982.000000;0.519126
9981.000000;0.518521
9980.000000;0.517806
9979.000000;0.517121
9978.000000;0.516734
9977.000000;0.516629
9976.000000;0.516501
9975.000000;0.516109
9974.000000;0.515456
9973.000000;0.514668
9972.000000;0.513912
9971.000000;0.513358
9970.000000;0.513008
9969.000000;0.512628
9968.000000;0.512042
9967.000000;0.511444
9966.000000;0.511191
9965.000000;0.511327
9964.000000;0.511500
9963.000000;0.511311
9962.000000;0.510606
9961.000000;0.509477
9960.000000;0.508198
9959.000000;0.507133
9958.000000;0.506486
9957.000000;0.506130
9956.000000;0.505791
9955.000000;0.505391
9954.000000;0.505038
9953.000000;0.504760
9952.000000;0.504425
9951.000000;0.503930
9950.000000;0.503324
9949.000000;0.502704
9948.000000;0.502119
9947.000000;0.501566
9946.000000;0.501011
9945.000000;0.500414
9944.000000;0.499807
9943.000000;0.499289
9942.000000;0.498902
9941.000000;0.498562
9940.000000;0.498160
9939.000000;0.497670
9938.000000;0.497098
9937.000000;0.496479
9936.000000;0.495931
9935.000000;0.495555
9934.000000;0.495214
9933.000000;0.494640
9932.000000;0.493859
9931.000000;0.493262
9930.000000;0.493083
9929.000000;0.493042
9928.000000;0.492728
9927.000000;0.492125
9926.000000;0.491505
9925.000000;0.490983
9924.000000;0.490465
9923.000000;0.489917
9922.000000;0.489384
9921.000000;0.488809
9920.000000;0.488107
9919.000000;0.487370
9918.000000;0.486786
9917.000000;0.486395
9916.000000;0.486092
9915.000000;0.485818
9914.000000;0.485535
9913.000000;0.485129
9912.000000;0.484536
9911.000000;0.483881
9910.000000;0.483307
9909.000000;0.482759
9908.000000;0.482157
9907.000000;0.481634
9906.000000;0.481334
9905.000000;0.481084
9904.000000;0.480559
9903.000000;0.479752
9902.000000;0.479004
9901.000000;0.478565
9900.000000;0.478355
9899.000000;0.478167
9898.000000;0.477895
9897.000000;0.477550
9896.000000;0.477213
9895.000000;0.476954
9894.000000;0.476670
9893.000000;0.476102
9892.000000;0.475171
9891.000000;0.474207
9890.000000;0.473616
9889.000000;0.473386
9888.000000;0.473163
9887.000000;0.472716
9886.000000;0.472110
9885.000000;0.471458
9884.000000;0.470790
9883.000000;0.470163
9882.000000;0.469652
9881.000000;0.469215
9880.000000;0.468744
9879.000000;0.468255
9878.000000;0.467834
9877.000000;0.467424
9876.000000;0.466905
9875.000000;0.466342
9874.000000;0.465935
9873.000000;0.465682
9872.000000;0.465335
9871.000000;0.464730
9870.000000;0.463962
9869.000000;0.463202
9868.000000;0.462527
9867.000000;0.461957
9866.000000;0.461501
9865.000000;0.461098
9864.000000;0.460673
9863.000000;0.460251
9862.000000;0.459901
9861.000000;0.459594
9860.000000;0.459242
9859.000000;0.458856
9858.000000;0.458494
9857.000000;0.458075
9856.000000;0.457442
9855.000000;0.456626
9854.000000;0.455876
9853.000000;0.455378
9852.000000;0.455076
9851.000000;0.454789
9850.000000;0.454386
9849.000000;0.453846
9848.000000;0.453267
9847.000000;0.452801
9846.000000;0.452488
9845.000000;0.452172
9844.000000;0.451684
9843.000000;0.451060
9842.000000;0.450461
9841.000000;0.449945
9840.000000;0.449468
9839.000000;0.449038
9838.000000;0.448683
9837.000000;0.448315
9836.000000;0.447816
9835.000000;0.447225
9834.000000;0.446667
9833.000000;0.446109
9832.000000;0.445394
9831.000000;0.444524
9830.000000;0.443708
9829.000000;0.443122
9828.000000;0.442755
9827.000000;0.442522
9826.000000;0.442361
9825.000000;0.442191
9824.000000;0.441914
9823.000000;0.441489
9822.000000;0.440923
9821.000000;0.440220
9820.000000;0.439451
9819.000000;0.438820
9818.000000;0.438500
9817.000000;0.438387
9816.000000;0.438169
9815.000000;0.437642
9814.000000;0.436861
9813.000000;0.436013
9812.000000;0.435295
9811.000000;0.434887
9810.000000;0.434837
9809.000000;0.434941
9808.000000;0.434861
9807.000000;0.434434
9806.000000;0.433762
9805.000000;0.433043
9804.000000;0.432409
9803.000000;0.431918
9802.000000;0.431566
9801.000000;0.431263
9800.000000;0.430913
9799.000000;0.430492
9798.000000;0.430006
9797.000000;0.429415
9796.000000;0.428716
9795.000000;0.428050
9794.000000;0.427602
9793.000000;0.427380
9792.000000;0.427203
9791.000000;0.426884
9790.000000;0.426362
9789.000000;0.425691
9788.000000;0.425015
9787.000000;0.424499
9786.000000;0.424172
9785.000000;0.423860
9784.000000;0.423375
9783.000000;0.422731
9782.000000;0.422081
9781.000000;0.421490
9780.000000;0.420917
9779.000000;0.420331
9778.000000;0.419754
9777.000000;0.419208
9776.000000;0.418738
9775.000000;0.418433
9774.000000;0.418284
9773.000000;0.418121
9772.000000;0.417787
9771.000000;0.417336
9770.000000;0.416909
9769.000000;0.416504
9768.000000;0.416026
9767.000000;0.415507
9766.000000;0.415088
9765.000000;0.414816
9764.000000;0.414597
9763.000000;0.414302
9762.000000;0.413835
9761.000000;0.413140
9760.000000;0.412319
9759.000000;0.411649
9758.000000;0.411313
9757.000000;0.411170
9756.000000;0.410942
9755.000000;0.410575
9754.000000;0.410207
9753.000000;0.409846
9752.000000;0.409301
9751.000000;0.408487
9750.000000;0.407583
9749.000000;0.406846
9748.000000;0.406393
9747.000000;0.406170
9746.000000;0.406020
9745.000000;0.405766
9744.000000;0.405346
9743.000000;0.404883
9742.000000;0.404513
9741.000000;0.404168
9740.000000;0.403684
9739.000000;0.403066
9738.000000;0.402501
9737.000000;0.402089
9736.000000;0.401719
9735.000000;0.401232
9734.000000;0.400582
9733.000000;0.399842
9732.000000;0.399155
9731.000000;0.398685
9730.000000;0.398473
9729.000000;0.398363
9728.000000;0.398142
9727.000000;0.397767
9726.000000;0.397323
9725.000000;0.396821
9724.000000;0.396195
9723.000000;0.395474
9722.000000;0.394802
9721.000000;0.394266
9720.000000;0.393820
9719.000000;0.393390
9718.000000;0.392942
9717.000000;0.392447
9716.000000;0.391894
9715.000000;0.391362
9714.000000;0.390947
9713.000000;0.390624
9712.000000;0.390276
9711.000000;0.389884
9710.000000;0.389562
9709.000000;0.389376
9708.000000;0.389219
9707.000000;0.388912
9706.000000;0.388352
9705.000000;0.387585
9704.000000;0.386785
9703.000000;0.386149
9702.000000;0.385741
9701.000000;0.385424
9700.000000;0.385020
9699.000000;0.384495
9698.000000;0.383934
9697.000000;0.383403
9696.000000;0.382917
9695.000000;0.382511
9694.000000;0.382208
9693.000000;0.381928
9692.000000;0.381556
9691.000000;0.381071
9690.000000;0.380539
9689.000000;0.380004
9688.000000;0.379480
9687.000000;0.379030
9686.000000;0.378712
9685.000000;0.378477
9684.000000;0.378197
9683.000000;0.377805
9682.000000;0.377320
9681.000000;0.376771
9680.000000;0.376185
9679.000000;0.375644
9678.000000;0.375228
9677.000000;0.374911
9676.000000;0.374572
9675.000000;0.374131
9674.000000;0.373624
9673.000000;0.373163
9672.000000;0.372846
9671.000000;0.372656
9670.000000;0.372417
9669.000000;0.371910
9668.000000;0.371118
9667.000000;0.370286
9666.000000;0.369667
9665.000000;0.369285
9664.000000;0.369003
9663.000000;0.368728
9662.000000;0.368433
9661.000000;0.368078
9660.000000;0.367654
9659.000000;0.367235
9658.000000;0.366870
9657.000000;0.366463
9656.000000;0.365926
9655.000000;0.365384
9654.000000;0.365081
9653.000000;0.365059
9652.000000;0.365058
9651.000000;0.364742
9650.000000;0.363991
9649.000000;0.362986
9648.000000;0.362094
9647.000000;0.361596
9646.000000;0.361435
9645.000000;0.361277
9644.000000;0.360891
9643.000000;0.360406
9642.000000;0.360076
9641.000000;0.359912
9640.000000;0.359693
9639.000000;0.359285
9638.000000;0.358767
9637.000000;0.358235
9636.000000;0.357671
9635.000000;0.357035
9634.000000;0.356389
9633.000000;0.355857
9632.000000;0.355536
9631.000000;0.355417
9630.000000;0.355362
9629.000000;0.355165
9628.000000;0.354727
9627.000000;0.354132
9626.000000;0.353523
9625.000000;0.352945
9624.000000;0.352383
9623.000000;0.351874
9622.000000;0.351487
9621.000000;0.351206
9620.000000;0.350950
9619.000000;0.350655
9618.000000;0.350267
9617.000000;0.349723
9616.000000;0.349040
9615.000000;0.348394
9614.000000;0.347988
9613.000000;0.347846
9612.000000;0.347801
9611.000000;0.347669
9610.000000;0.347351
9609.000000;0.346820
9608.000000;0.346115
9607.000000;0.345341
9606.000000;0.344617
9605.000000;0.344015
9604.000000;0.343558
9603.000000;0.343237
9602.000000;0.342982
9601.000000;0.342700
9600.000000;0.342392
9599.000000;0.342157
9598.000000;0.342016
9597.000000;0.341820
9596.000000;0.341419
9595.000000;0.340850
9594.000000;0.340278
9593.000000;0.339818
9592.000000;0.339492
9591.000000;0.339289
9590.000000;0.339145
9589.000000;0.338946
9588.000000;0.338620
9587.000000;0.338193
9586.000000;0.337687
9585.000000;0.337056
9584.000000;0.336299
9583.000000;0.335552
9582.000000;0.334972
9581.000000;0.334591
9580.000000;0.334354
9579.000000;0.334199
9578.000000;0.334036
9577.000000;0.333755
9576.000000;0.333349
9575.000000;0.332943
9574.000000;0.332604
9573.000000;0.332233
9572.000000;0.331745
9571.000000;0.331235
9570.000000;0.330812
9569.000000;0.330408
9568.000000;0.329895
9567.000000;0.329311
9566.000000;0.328796
9565.000000;0.328367
9564.000000;0.327910
9563.000000;0.327365
9562.000000;0.326770
9561.000000;0.326184
9560.000000;0.325686
9559.000000;0.325385
9558.000000;0.325304
9557.000000;0.325288
9556.000000;0.325164
9555.000000;0.324926
9554.000000;0.324658
9553.000000;0.324351
9552.000000;0.323931
9551.000000;0.323422
9550.000000;0.322916
9549.000000;0.322442
9548.000000;0.321970
9547.000000;0.321509
9546.000000;0.321082
9545.000000;0.320648
9544.000000;0.320181
9543.000000;0.319745
9542.000000;0.319386
9541.000000;0.319014
9540.000000;0.318560
9539.000000;0.318146
9538.000000;0.317934
9537.000000;0.317841
9536.000000;0.317610
9535.000000;0.317140
9534.000000;0.316588
9533.000000;0.316133
9532.000000;0.315797
9531.000000;0.315506
9530.000000;0.315188
9529.000000;0.314766
9528.000000;0.314188
9527.000000;0.313504
9526.000000;0.312857
9525.000000;0.312368
9524.000000;0.312063
9523.000000;0.311883
9522.000000;0.311706
9521.000000;0.311425
9520.000000;0.311065
9519.000000;0.310763
9518.000000;0.310569
9517.000000;0.310344
9516.000000;0.309946
9515.000000;0.309426
9514.000000;0.308934
9513.000000;0.308508
9512.000000;0.308097
9511.000000;0.307707
9510.000000;0.307380
9509.000000;0.307080
9508.000000;0.306745
9507.000000;0.306416
9506.000000;0.306175
9505.000000;0.305980
9504.000000;0.305687
9503.000000;0.305227
9502.000000;0.304649
9501.000000;0.304024
9500.000000;0.303407
9499.000000;0.302877
9498.000000;0.302484
9497.000000;0.302171
9496.000000;0.301834
9495.000000;0.301449
9494.000000;0.301062
9493.000000;0.300706
9492.000000;0.300397
9491.000000;0.300157
9490.000000;0.299961
9489.000000;0.299734
9488.000000;0.299466
9487.000000;0.299249
9486.000000;0.299106
9485.000000;0.298879
9484.000000;0.298441
9483.000000;0.297890
9482.000000;0.297405
9481.000000;0.296978
9480.000000;0.296472
9479.000000;0.295871
9478.000000;0.295300
9477.000000;0.294833
9476.000000;0.294443
9475.000000;0.294108
9474.000000;0.293824
9473.000000;0.293531
9472.000000;0.293175
9471.000000;0.292813
9470.000000;0.292528
9469.000000;0.292269
9468.000000;0.291916
9467.000000;0.291484
9466.000000;0.291092
9465.000000;0.290755
9464.000000;0.290377
9463.000000;0.289947
9462.000000;0.289580
9461.000000;0.289346
9460.000000;0.289176
9459.000000;0.288970
9458.000000;0.288686
9457.000000;0.288304
9456.000000;0.287828
9455.000000;0.287337
9454.000000;0.286922
9453.000000;0.286555
9452.000000;0.286125
9451.000000;0.285604
9450.000000;0.285095
9449.000000;0.284697
9448.000000;0.284417
9447.000000;0.284197
9446.000000;0.283977
9445.000000;0.283709
9444.000000;0.283394
9443.000000;0.283075
9442.000000;0.282759
9441.000000;0.282399
9440.000000;0.282016
9439.000000;0.281747
9438.000000;0.281669
9437.000000;0.281626
9436.000000;0.281392
9435.000000;0.280938
9434.000000;0.280408
9433.000000;0.279894
9432.000000;0.279386
9431.000000;0.278936
9430.000000;0.278656
9429.000000;0.278543
9428.000000;0.278441
9427.000000;0.278206
9426.000000;0.277813
9425.000000;0.277278
9424.000000;0.276619
9423.000000;0.275927
9422.000000;0.275366
9421.000000;0.275035
9420.000000;0.274893
9419.000000;0.274826
9418.000000;0.274717
9417.000000;0.274462
9416.000000;0.274027
9415.000000;0.273511
9414.000000;0.273050
9413.000000;0.272670
9412.000000;0.272298
9411.000000;0.271930
9410.000000;0.271653
9409.000000;0.271483
9408.000000;0.271295
9407.000000;0.270975
9406.000000;0.270576
9405.000000;0.270248
9404.000000;0.270059
9403.000000;0.269924
9402.000000;0.269714
9401.000000;0.269402
9400.000000;0.269082
9399.000000;0.268824
9398.000000;0.268552
9397.000000;0.268120
9396.000000;0.267510
9395.000000;0.266862
9394.000000;0.266291
9393.000000;0.265782
9392.000000;0.265304
9391.000000;0.264914
9390.000000;0.264657
9389.000000;0.264461
9388.000000;0.264240
9387.000000;0.264005
9386.000000;0.263774
9385.000000;0.263468
9384.000000;0.263030
9383.000000;0.262587
9382.000000;0.262323
9381.000000;0.262223
9380.000000;0.262083
9379.000000;0.261782
9378.000000;0.261418
9377.000000;0.261148
9376.000000;0.260997
9375.000000;0.260846
9374.000000;0.260555
9373.000000;0.260104
9372.000000;0.259621
9371.000000;0.259274
9370.000000;0.259072
9369.000000;0.258862
9368.000000;0.258533
9367.000000;0.258149
9366.000000;0.257803
9365.000000;0.257446
9364.000000;0.256996
9363.000000;0.256533
9362.000000;0.256212
9361.000000;0.256030
9360.000000;0.255828
9359.000000;0.255533
9358.000000;0.255258
9357.000000;0.255138
9356.000000;0.255153
9355.000000;0.255145
9354.000000;0.254930
9353.000000;0.254411
9352.000000;0.253663
9351.000000;0.252913
9350.000000;0.252362
9349.000000;0.252023
9348.000000;0.251771
9347.000000;0.251514
9346.000000;0.251256
9345.000000;0.251009
9344.000000;0.250745
9343.000000;0.250424
9342.000000;0.250014
9341.000000;0.249507
9340.000000;0.248987
9339.000000;0.248616
9338.000000;0.248472
9337.000000;0.248431
9336.000000;0.248288
9335.000000;0.247964
9334.000000;0.247531
9333.000000;0.247089
9332.000000;0.246705
9331.000000;0.246424
9330.000000;0.246225
9329.000000;0.245971
9328.000000;0.245542
9327.000000;0.245003
9326.000000;0.244561
9325.000000;0.244349
9324.000000;0.244296
9323.000000;0.244222
9322.000000;0.243982
9321.000000;0.243559
9320.000000;0.243094
9319.000000;0.242778
9318.000000;0.242662
9317.000000;0.242575
9316.000000;0.242315
9315.000000;0.241868
9314.000000;0.241393
9313.000000;0.241038
9312.000000;0.240850
9311.000000;0.240808
9310.000000;0.240829
9309.000000;0.240763
9308.000000;0.240506
9307.000000;0.240110
9306.000000;0.239694
9305.000000;0.239273
9304.000000;0.238765
9303.000000;0.238170
9302.000000;0.237639
9301.000000;0.237333
9300.000000;0.237263
9299.000000;0.237290
9298.000000;0.237233
9297.000000;0.236998
9296.000000;0.236635
9295.000000;0.236273
9294.000000;0.235968
9293.000000;0.235640
9292.000000;0.235208
9291.000000;0.234725
9290.000000;0.234318
9289.000000;0.234035
9288.000000;0.233819
9287.000000;0.233605
9286.000000;0.233368
9285.000000;0.233104
9284.000000;0.232814
9283.000000;0.232508
9282.000000;0.232187
9281.000000;0.231842
9280.000000;0.231497
9279.000000;0.231217
9278.000000;0.231037
9277.000000;0.230912
9276.000000;0.230774
9275.000000;0.230588
9274.000000;0.230318
9273.000000;0.229932
9272.000000;0.229475
9271.000000;0.229073
9270.000000;0.228795
9269.000000;0.228587
9268.000000;0.228388
9267.000000;0.228223
9266.000000;0.228123
9265.000000;0.228031
9264.000000;0.227865
9263.000000;0.227619
9262.000000;0.227317
9261.000000;0.226935
9260.000000;0.226461
9259.000000;0.225967
9258.000000;0.225533
9257.000000;0.225163
9256.000000;0.224828
9255.000000;0.224532
9254.000000;0.224263
9253.000000;0.223965
9252.000000;0.223640
9251.000000;0.223404
9250.000000;0.223317
9249.000000;0.223257
9248.000000;0.223074
9247.000000;0.222808
9246.000000;0.222623
9245.000000;0.222547
9244.000000;0.222425
9243.000000;0.222114
9242.000000;0.221633
9241.000000;0.221123
9240.000000;0.220727
9239.000000;0.220513
9238.000000;0.220406
9237.000000;0.220242
9236.000000;0.219941
9235.000000;0.219600
9234.000000;0.219353
9233.000000;0.219180
9232.000000;0.218961
9231.000000;0.218656
9230.000000;0.218335
9229.000000;0.218045
9228.000000;0.217772
9227.000000;0.217516
9226.000000;0.217312
9225.000000;0.217153
9224.000000;0.216970
9223.000000;0.216709
9222.000000;0.216396
9221.000000;0.216119
9220.000000;0.215962
9219.000000;0.215913
9218.000000;0.215833
9217.000000;0.215569
9216.000000;0.215146
9215.000000;0.214760
9214.000000;0.214545
9213.000000;0.214414
9212.000000;0.214209
9211.000000;0.213913
9210.000000;0.213625
9209.000000;0.213400
9208.000000;0.213201
9207.000000;0.212979
9206.000000;0.212707
9205.000000;0.212355
9204.000000;0.211924
9203.000000;0.211494
9202.000000;0.211163
9201.000000;0.210970
9200.000000;0.210892
9199.000000;0.210874
9198.000000;0.210826
9197.000000;0.210639
9196.000000;0.210284
9195.000000;0.209825
9194.000000;0.209328
9193.000000;0.208817
9192.000000;0.208355
9191.000000;0.208049
9190.000000;0.207905
9189.000000;0.207785
9188.000000;0.207596
9187.000000;0.207418
9186.000000;0.207356
9185.000000;0.207370
9184.000000;0.207350
9183.000000;0.207265
9182.000000;0.207111
9181.000000;0.206823
9180.000000;0.206376
9179.000000;0.205908
9178.000000;0.205582
9177.000000;0.205385
9176.000000;0.205176
9175.000000;0.204910
9174.000000;0.204650
9173.000000;0.204418
9172.000000;0.204153
9171.000000;0.203847
9170.000000;0.203580
9169.000000;0.203400
9168.000000;0.203267
9167.000000;0.203128
9166.000000;0.202953
9165.000000;0.202715
9164.000000;0.202397
9163.000000;0.202035
9162.000000;0.201694
9161.000000;0.201414
9160.000000;0.201205
9159.000000;0.201055
9158.000000;0.200907
9157.000000;0.200692
9156.000000;0.200439
9155.000000;0.200278
9154.000000;0.200250
9153.000000;0.200199
9152.000000;0.199948
9151.000000;0.199531
9150.000000;0.199145
9149.000000;0.198904
9148.000000;0.198749
9147.000000;0.198564
9146.000000;0.198280
9145.000000;0.197895
9144.000000;0.197472
9143.000000;0.197134
9142.000000;0.196951
9141.000000;0.196853
9140.000000;0.196711
9139.000000;0.196479
9138.000000;0.196203
9137.000000;0.195926
9136.000000;0.195655
9135.000000;0.195412
9134.000000;0.195224
9133.000000;0.195103
9132.000000;0.195058
9131.000000;0.195084
9130.000000;0.195108
9129.000000;0.194992
9128.000000;0.194688
9127.000000;0.194311
9126.000000;0.194002
9125.000000;0.193762
9124.000000;0.193518
9123.000000;0.193273
9122.000000;0.193105
9121.000000;0.193023
9120.000000;0.192922
9119.000000;0.192684
9118.000000;0.192292
9117.000000;0.191854
9116.000000;0.191548
9115.000000;0.191463
9114.000000;0.191474
9113.000000;0.191329
9112.000000;0.190928
9111.000000;0.190434
9110.000000;0.190077
9109.000000;0.189917
9108.000000;0.189865
9107.000000;0.189815
9106.000000;0.189679
9105.000000;0.189398
9104.000000;0.189011
9103.000000;0.188657
9102.000000;0.188413
9101.000000;0.188222
9100.000000;0.188023
9099.000000;0.187863
9098.000000;0.187761
9097.000000;0.187605
9096.000000;0.187312
9095.000000;0.186997
9094.000000;0.186819
9093.000000;0.186733
9092.000000;0.186553
9091.000000;0.186230
9090.000000;0.185911
9089.000000;0.185738
9088.000000;0.185706
9087.000000;0.185733
9086.000000;0.185743
9085.000000;0.185686
9084.000000;0.185545
9083.000000;0.185347
9082.000000;0.185084
9081.000000;0.184702
9080.000000;0.184212
9079.000000;0.183758
9078.000000;0.183486
9077.000000;0.183382
9076.000000;0.183329
9075.000000;0.183272
9074.000000;0.183221
9073.000000;0.183155
9072.000000;0.183027
9071.000000;0.182842
9070.000000;0.182620
9069.000000;0.182340
9068.000000;0.182005
9067.000000;0.181702
9066.000000;0.181504
9065.000000;0.181366
9064.000000;0.181214
9063.000000;0.181062
9062.000000;0.180943
9061.000000;0.180790
9060.000000;0.180514
9059.000000;0.180159
9058.000000;0.179842
9057.000000;0.179594
9056.000000;0.179375
9055.000000;0.179202
9054.000000;0.179122
9053.000000;0.179076
