Criado como novo conjunto de dados;"e2410_daniel_v2.spp","98827.2 Secs"
cm-1;Abs
10000.000000;0.130053
9999.000000;0.130408
9998.000000;0.130768
9997.000000;0.131117
9996.000000;0.131538
9995.000000;0.132111
9994.000000;0.132736
9993.000000;0.133252
9992.000000;0.133603
9991.000000;0.133928
9990.000000;0.134413
9989.000000;0.135096
9988.000000;0.135879
9987.000000;0.136688
9986.000000;0.137517
9985.000000;0.138351
9984.000000;0.139175
9983.000000;0.140034
9982.000000;0.140966
9981.000000;0.141857
9980.000000;0.142512
9979.000000;0.142929
9978.000000;0.143369
9977.000000;0.144056
9976.000000;0.144900
9975.000000;0.145619
9974.000000;0.146081
9973.000000;0.146416
9972.000000;0.146832
9971.000000;0.147424
9970.000000;0.148160
9969.000000;0.148944
9968.000000;0.149643
9967.000000;0.150158
9966.000000;0.150533
9965.000000;0.150959
9964.000000;0.151624
9963.000000;0.152535
9962.000000;0.153530
9961.000000;0.154422
9960.000000;0.155125
9959.000000;0.155671
9958.000000;0.156163
9957.000000;0.156726
9956.000000;0.157437
9955.000000;0.158270
9954.000000;0.159114
9953.000000;0.159880
9952.000000;0.160568
9951.000000;0.161235
9950.000000;0.161923
9949.000000;0.162649
9948.000000;0.163420
9947.000000;0.164195
9946.000000;0.164853
9945.000000;0.165286
9944.000000;0.165545
9943.000000;0.165826
9942.000000;0.166296
9941.000000;0.166992
9940.000000;0.167865
9939.000000;0.168842
9938.000000;0.169828
9937.000000;0.170738
9936.000000;0.171610
9935.000000;0.172591
9934.000000;0.173730
9933.000000;0.174820
9932.000000;0.175555
9931.000000;0.175841
9930.000000;0.175879
9929.000000;0.175959
9928.000000;0.176247
9927.000000;0.176774
9926.000000;0.177512
9925.000000;0.178423
9924.000000;0.179459
9923.000000;0.180553
9922.000000;0.181603
9921.000000;0.182483
9920.000000;0.183131
9919.000000;0.183639
9918.000000;0.184193
9917.000000;0.184892
9916.000000;0.185654
9915.000000;0.186320
9914.000000;0.186857
9913.000000;0.187401
9912.000000;0.188095
9911.000000;0.188905
9910.000000;0.189655
9909.000000;0.190248
9908.000000;0.190789
9907.000000;0.191425
9906.000000;0.192139
9905.000000;0.192814
9904.000000;0.193461
9903.000000;0.194248
9902.000000;0.195240
9901.000000;0.196280
9900.000000;0.197202
9899.000000;0.198009
9898.000000;0.198749
9897.000000;0.199350
9896.000000;0.199773
9895.000000;0.200233
9894.000000;0.201032
9893.000000;0.202161
9892.000000;0.203284
9891.000000;0.204158
9890.000000;0.204881
9889.000000;0.205657
9888.000000;0.206462
9887.000000;0.207124
9886.000000;0.207632
9885.000000;0.208205
9884.000000;0.209031
9883.000000;0.210050
9882.000000;0.211027
9881.000000;0.211788
9880.000000;0.212364
9879.000000;0.212924
9878.000000;0.213624
9877.000000;0.214525
9876.000000;0.215592
9875.000000;0.216709
9874.000000;0.217687
9873.000000;0.218371
9872.000000;0.218806
9871.000000;0.219243
9870.000000;0.219913
9869.000000;0.220827
9868.000000;0.221861
9867.000000;0.222960
9866.000000;0.224131
9865.000000;0.225272
9864.000000;0.226153
9863.000000;0.226650
9862.000000;0.226906
9861.000000;0.227204
9860.000000;0.227757
9859.000000;0.228634
9858.000000;0.229809
9857.000000;0.231166
9856.000000;0.232511
9855.000000;0.233633
9854.000000;0.234429
9853.000000;0.234951
9852.000000;0.235356
9851.000000;0.235802
9850.000000;0.236345
9849.000000;0.236936
9848.000000;0.237530
9847.000000;0.238155
9846.000000;0.238841
9845.000000;0.239533
9844.000000;0.240178
9843.000000;0.240878
9842.000000;0.241846
9841.000000;0.243164
9840.000000;0.244636
9839.000000;0.245919
9838.000000;0.246796
9837.000000;0.247314
9836.000000;0.247727
9835.000000;0.248303
9834.000000;0.249136
9833.000000;0.250108
9832.000000;0.251057
9831.000000;0.251951
9830.000000;0.252860
9829.000000;0.253797
9828.000000;0.254701
9827.000000;0.255554
9826.000000;0.256392
9825.000000;0.257165
9824.000000;0.257703
9823.000000;0.257917
9822.000000;0.257981
9821.000000;0.258244
9820.000000;0.258977
9819.000000;0.260204
9818.000000;0.261705
9817.000000;0.263152
9816.000000;0.264323
9815.000000;0.265261
9814.000000;0.266189
9813.000000;0.267259
9812.000000;0.268398
9811.000000;0.269424
9810.000000;0.270229
9809.000000;0.270820
9808.000000;0.271270
9807.000000;0.271691
9806.000000;0.272205
9805.000000;0.272858
9804.000000;0.273598
9803.000000;0.274384
9802.000000;0.275260
9801.000000;0.276280
9800.000000;0.277381
9799.000000;0.278423
9798.000000;0.279316
9797.000000;0.280064
9796.000000;0.280683
9795.000000;0.281167
9794.000000;0.281560
9793.000000;0.282014
9792.000000;0.282719
9791.000000;0.283770
9790.000000;0.285089
9789.000000;0.286482
9788.000000;0.287778
9787.000000;0.288920
9786.000000;0.289975
9785.000000;0.291063
9784.000000;0.292274
9783.000000;0.293579
9782.000000;0.294774
9781.000000;0.295580
9780.000000;0.295919
9779.000000;0.296088
9778.000000;0.296554
9777.000000;0.297524
9776.000000;0.298748
9775.000000;0.299780
9774.000000;0.300400
9773.000000;0.300772
9772.000000;0.301222
9771.000000;0.301935
9770.000000;0.302868
9769.000000;0.303921
9768.000000;0.305111
9767.000000;0.306510
9766.000000;0.308017
9765.000000;0.309318
9764.000000;0.310171
9763.000000;0.310675
9762.000000;0.311141
9761.000000;0.311783
9760.000000;0.312624
9759.000000;0.313635
9758.000000;0.314743
9757.000000;0.315732
9756.000000;0.316388
9755.000000;0.316826
9754.000000;0.317470
9753.000000;0.318562
9752.000000;0.319855
9751.000000;0.320947
9750.000000;0.321762
9749.000000;0.322524
9748.000000;0.323369
9747.000000;0.324236
9746.000000;0.325119
9745.000000;0.326169
9744.000000;0.327453
9743.000000;0.328800
9742.000000;0.329982
9741.000000;0.330965
9740.000000;0.331879
9739.000000;0.332821
9738.000000;0.333793
9737.000000;0.334792
9736.000000;0.335807
9735.000000;0.336723
9734.000000;0.337342
9733.000000;0.337598
9732.000000;0.337719
9731.000000;0.338064
9730.000000;0.338789
9729.000000;0.339763
9728.000000;0.340842
9727.000000;0.342093
9726.000000;0.343612
9725.000000;0.345209
9724.000000;0.346471
9723.000000;0.347206
9722.000000;0.347677
9721.000000;0.348295
9720.000000;0.349182
9719.000000;0.350132
9718.000000;0.350924
9717.000000;0.351603
9716.000000;0.352441
9715.000000;0.353667
9714.000000;0.355191
9713.000000;0.356617
9712.000000;0.357620
9711.000000;0.358312
9710.000000;0.359105
9709.000000;0.360163
9708.000000;0.361174
9707.000000;0.361772
9706.000000;0.362042
9705.000000;0.362412
9704.000000;0.363149
9703.000000;0.364156
9702.000000;0.365237
9701.000000;0.366352
9700.000000;0.367569
9699.000000;0.368930
9698.000000;0.370413
9697.000000;0.371909
9696.000000;0.373201
9695.000000;0.374099
9694.000000;0.374654
9693.000000;0.375166
9692.000000;0.375919
9691.000000;0.376975
9690.000000;0.378213
9689.000000;0.379456
9688.000000;0.380509
9687.000000;0.381220
9686.000000;0.381628
9685.000000;0.382031
9684.000000;0.382768
9683.000000;0.383911
9682.000000;0.385194
9681.000000;0.386275
9680.000000;0.387071
9679.000000;0.387844
9678.000000;0.388904
9677.000000;0.390230
9676.000000;0.391400
9675.000000;0.391990
9674.000000;0.392034
9673.000000;0.392033
9672.000000;0.392489
9671.000000;0.393508
9670.000000;0.394864
9669.000000;0.396299
9668.000000;0.397675
9667.000000;0.398910
9666.000000;0.399895
9665.000000;0.400570
9664.000000;0.401024
9663.000000;0.401491
9662.000000;0.402209
9661.000000;0.403257
9660.000000;0.404497
9659.000000;0.405664
9658.000000;0.406534
9657.000000;0.407048
9656.000000;0.407360
9655.000000;0.407795
9654.000000;0.408665
9653.000000;0.410001
9652.000000;0.411479
9651.000000;0.412710
9650.000000;0.413637
9649.000000;0.414550
9648.000000;0.415659
9647.000000;0.416786
9646.000000;0.417609
9645.000000;0.418124
9644.000000;0.418695
9643.000000;0.419621
9642.000000;0.420802
9641.000000;0.421890
9640.000000;0.422675
9639.000000;0.423209
9638.000000;0.423652
9637.000000;0.424126
9636.000000;0.424756
9635.000000;0.425709
9634.000000;0.427078
9633.000000;0.428728
9632.000000;0.430322
9631.000000;0.431509
9630.000000;0.432109
9629.000000;0.432205
9628.000000;0.432125
9627.000000;0.432277
9626.000000;0.432859
9625.000000;0.433735
9624.000000;0.434663
9623.000000;0.435619
9622.000000;0.436791
9621.000000;0.438235
9620.000000;0.439717
9619.000000;0.440961
9618.000000;0.441917
9617.000000;0.442663
9616.000000;0.443195
9615.000000;0.443482
9614.000000;0.443687
9613.000000;0.444127
9612.000000;0.445008
9611.000000;0.446283
9610.000000;0.447763
9609.000000;0.449218
9608.000000;0.450408
9607.000000;0.451192
9606.000000;0.451669
9605.000000;0.452093
9604.000000;0.452586
9603.000000;0.453062
9602.000000;0.453443
9601.000000;0.453795
9600.000000;0.454213
9599.000000;0.454746
9598.000000;0.455502
9597.000000;0.456632
9596.000000;0.458039
9595.000000;0.459274
9594.000000;0.459947
9593.000000;0.460203
9592.000000;0.460590
9591.000000;0.461471
9590.000000;0.462723
9589.000000;0.463969
9588.000000;0.464894
9587.000000;0.465327
9586.000000;0.465286
9585.000000;0.465084
9584.000000;0.465212
9583.000000;0.465916
9582.000000;0.466947
9581.000000;0.467849
9580.000000;0.468451
9579.000000;0.468922
9578.000000;0.469428
9577.000000;0.469955
9576.000000;0.470505
9575.000000;0.471234
9574.000000;0.472272
9573.000000;0.473504
9572.000000;0.474669
9571.000000;0.475624
9570.000000;0.476405
9569.000000;0.477071
9568.000000;0.477641
9567.000000;0.478145
9566.000000;0.478612
9565.000000;0.478963
9564.000000;0.479076
9563.000000;0.479026
9562.000000;0.479130
9561.000000;0.479628
9560.000000;0.480385
9559.000000;0.481026
9558.000000;0.481349
9557.000000;0.481506
9556.000000;0.481786
9555.000000;0.482355
9554.000000;0.483221
9553.000000;0.484322
9552.000000;0.485552
9551.000000;0.486749
9550.000000;0.487741
9549.000000;0.488440
9548.000000;0.488898
9547.000000;0.489297
9546.000000;0.489854
9545.000000;0.490651
9544.000000;0.491498
9543.000000;0.492053
9542.000000;0.492167
9541.000000;0.492125
9540.000000;0.492421
9539.000000;0.493262
9538.000000;0.494310
9537.000000;0.494984
9536.000000;0.495019
9535.000000;0.494730
9534.000000;0.494686
9533.000000;0.495179
9532.000000;0.496005
9531.000000;0.496750
9530.000000;0.497227
9529.000000;0.497592
9528.000000;0.498090
9527.000000;0.498770
9526.000000;0.499439
9525.000000;0.499834
9524.000000;0.499813
9523.000000;0.499455
9522.000000;0.499071
9521.000000;0.499033
9520.000000;0.499489
9519.000000;0.500220
9518.000000;0.500856
9517.000000;0.501226
9516.000000;0.501432
9515.000000;0.501596
9514.000000;0.501686
9513.000000;0.501713
9512.000000;0.501907
9511.000000;0.502462
9510.000000;0.503159
9509.000000;0.503509
9508.000000;0.503366
9507.000000;0.503149
9506.000000;0.503355
9505.000000;0.504065
9504.000000;0.505053
9503.000000;0.506142
9502.000000;0.507179
9501.000000;0.507865
9500.000000;0.507989
9499.000000;0.507800
9498.000000;0.507776
9497.000000;0.508022
9496.000000;0.508209
9495.000000;0.508173
9494.000000;0.508199
9493.000000;0.508560
9492.000000;0.509128
9491.000000;0.509637
9490.000000;0.510010
9489.000000;0.510193
9488.000000;0.510026
9487.000000;0.509660
9486.000000;0.509795
9485.000000;0.510979
9484.000000;0.512698
9483.000000;0.513690
9482.000000;0.513287
9481.000000;0.512071
9480.000000;0.511063
9479.000000;0.510661
9478.000000;0.510543
9477.000000;0.510292
9476.000000;0.509809
9475.000000;0.509235
9474.000000;0.508747
9473.000000;0.508433
9472.000000;0.508275
9471.000000;0.508239
9470.000000;0.508357
9469.000000;0.508597
9468.000000;0.508712
9467.000000;0.508467
9466.000000;0.508114
9465.000000;0.508326
9464.000000;0.509447
9463.000000;0.510907
9462.000000;0.511619
9461.000000;0.510976
9460.000000;0.509388
9459.000000;0.507897
9458.000000;0.507382
9457.000000;0.508027
9456.000000;0.509296
9455.000000;0.510347
9454.000000;0.510599
9453.000000;0.510028
9452.000000;0.509007
9451.000000;0.507956
9450.000000;0.507153
9449.000000;0.506737
9448.000000;0.506758
9447.000000;0.507196
9446.000000;0.507926
9445.000000;0.508665
9444.000000;0.509024
9443.000000;0.508773
9442.000000;0.508095
9441.000000;0.507447
9440.000000;0.507149
9439.000000;0.507144
9438.000000;0.507163
9437.000000;0.506997
9436.000000;0.506631
9435.000000;0.506232
9434.000000;0.506067
9433.000000;0.506293
9432.000000;0.506786
9431.000000;0.507243
9430.000000;0.507430
9429.000000;0.507218
9428.000000;0.506484
9427.000000;0.505273
9426.000000;0.504035
9425.000000;0.503382
9424.000000;0.503464
9423.000000;0.503803
9422.000000;0.503883
9421.000000;0.503670
9420.000000;0.503404
9419.000000;0.503157
9418.000000;0.502868
9417.000000;0.502632
9416.000000;0.502626
9415.000000;0.502754
9414.000000;0.502650
9413.000000;0.502062
9412.000000;0.501104
9411.000000;0.500090
9410.000000;0.499237
9409.000000;0.498499
9408.000000;0.497681
9407.000000;0.496789
9406.000000;0.496211
9405.000000;0.496313
9404.000000;0.496853
9403.000000;0.497090
9402.000000;0.496661
9401.000000;0.496021
9400.000000;0.495764
9399.000000;0.495824
9398.000000;0.495712
9397.000000;0.495281
9396.000000;0.494810
9395.000000;0.494403
9394.000000;0.493797
9393.000000;0.492832
9392.000000;0.491777
9391.000000;0.491040
9390.000000;0.490750
9389.000000;0.490671
9388.000000;0.490370
9387.000000;0.489551
9386.000000;0.488425
9385.000000;0.487655
9384.000000;0.487661
9383.000000;0.488040
9382.000000;0.488000
9381.000000;0.487343
9380.000000;0.486649
9379.000000;0.486426
9378.000000;0.486489
9377.000000;0.486337
9376.000000;0.485778
9375.000000;0.484976
9374.000000;0.484155
9373.000000;0.483501
9372.000000;0.483166
9371.000000;0.483138
9370.000000;0.483178
9369.000000;0.483043
9368.000000;0.482656
9367.000000;0.482004
9366.000000;0.481077
9365.000000;0.480047
9364.000000;0.479256
9363.000000;0.478844
9362.000000;0.478527
9361.000000;0.477942
9360.000000;0.477074
9359.000000;0.476195
9358.000000;0.475514
9357.000000;0.475081
9356.000000;0.474890
9355.000000;0.474852
9354.000000;0.474725
9353.000000;0.474262
9352.000000;0.473427
9351.000000;0.472370
9350.000000;0.471266
9349.000000;0.470293
9348.000000;0.469643
9347.000000;0.469400
9346.000000;0.469461
9345.000000;0.469682
9344.000000;0.469984
9343.000000;0.470171
9342.000000;0.469804
9341.000000;0.468568
9340.000000;0.466747
9339.000000;0.465080
9338.000000;0.464109
9337.000000;0.463800
9336.000000;0.463780
9335.000000;0.463718
9334.000000;0.463418
9333.000000;0.462750
9332.000000;0.461686
9331.000000;0.460389
9330.000000;0.459187
9329.000000;0.458419
9328.000000;0.458214
9327.000000;0.458342
9326.000000;0.458315
9325.000000;0.457768
9324.000000;0.456785
9323.000000;0.455778
9322.000000;0.455044
9321.000000;0.454526
9320.000000;0.453974
9319.000000;0.453228
9318.000000;0.452324
9317.000000;0.451418
9316.000000;0.450675
9315.000000;0.450178
9314.000000;0.449888
9313.000000;0.449692
9312.000000;0.449478
9311.000000;0.449127
9310.000000;0.448499
9309.000000;0.447540
9308.000000;0.446444
9307.000000;0.445584
9306.000000;0.445165
9305.000000;0.444967
9304.000000;0.444555
9303.000000;0.443773
9302.000000;0.442946
9301.000000;0.442485
9300.000000;0.442362
9299.000000;0.442062
9298.000000;0.441100
9297.000000;0.439491
9296.000000;0.437682
9295.000000;0.436149
9294.000000;0.435164
9293.000000;0.434785
9292.000000;0.434821
9291.000000;0.434828
9290.000000;0.434437
9289.000000;0.433751
9288.000000;0.433193
9287.000000;0.432874
9286.000000;0.432355
9285.000000;0.431245
9284.000000;0.429823
9283.000000;0.428761
9282.000000;0.428305
9281.000000;0.428058
9280.000000;0.427559
9279.000000;0.426808
9278.000000;0.426125
9277.000000;0.425719
9276.000000;0.425541
9275.000000;0.425391
9274.000000;0.425028
9273.000000;0.424283
9272.000000;0.423239
9271.000000;0.422246
9270.000000;0.421623
9269.000000;0.421356
9268.000000;0.421133
9267.000000;0.420652
9266.000000;0.419838
9265.000000;0.418832
9264.000000;0.417832
9263.000000;0.416938
9262.000000;0.416090
9261.000000;0.415170
9260.000000;0.414205
9259.000000;0.413405
9258.000000;0.412928
9257.000000;0.412658
9256.000000;0.412321
9255.000000;0.411811
9254.000000;0.411245
9253.000000;0.410678
9252.000000;0.409904
9251.000000;0.408669
9250.000000;0.407064
9249.000000;0.405576
9248.000000;0.404691
9247.000000;0.404476
9246.000000;0.404571
9245.000000;0.404538
9244.000000;0.404187
9243.000000;0.403581
9242.000000;0.402876
9241.000000;0.402199
9240.000000;0.401624
9239.000000;0.401157
9238.000000;0.400713
9237.000000;0.400190
9236.000000;0.399559
9235.000000;0.398825
9234.000000;0.397941
9233.000000;0.396867
9232.000000;0.395759
9231.000000;0.394983
9230.000000;0.394785
9229.000000;0.394970
9228.000000;0.395019
9227.000000;0.394571
9226.000000;0.393702
9225.000000;0.392725
9224.000000;0.391824
9223.000000;0.390990
9222.000000;0.390236
9221.000000;0.389689
9220.000000;0.389443
9219.000000;0.389381
9218.000000;0.389240
9217.000000;0.388796
9216.000000;0.387970
9215.000000;0.386823
9214.000000;0.385547
9213.000000;0.384438
9212.000000;0.383750
9211.000000;0.383507
9210.000000;0.383474
9209.000000;0.383344
9208.000000;0.382944
9207.000000;0.382296
9206.000000;0.381520
9205.000000;0.380697
9204.000000;0.379777
9203.000000;0.378604
9202.000000;0.377106
9201.000000;0.375473
9200.000000;0.374101
9199.000000;0.373320
9198.000000;0.373162
9197.000000;0.373357
9196.000000;0.373490
9195.000000;0.373207
9194.000000;0.372433
9193.000000;0.371459
9192.000000;0.370739
9191.000000;0.370490
9190.000000;0.370506
9189.000000;0.370434
9188.000000;0.370127
9187.000000;0.369645
9186.000000;0.368994
9185.000000;0.368088
9184.000000;0.366995
9183.000000;0.366024
9182.000000;0.365442
9181.000000;0.365146
9180.000000;0.364728
9179.000000;0.363882
9178.000000;0.362723
9177.000000;0.361692
9176.000000;0.361140
9175.000000;0.360951
9174.000000;0.360636
9173.000000;0.359856
9172.000000;0.358817
9171.000000;0.358014
9170.000000;0.357604
9169.000000;0.357204
9168.000000;0.356429
9167.000000;0.355438
9166.000000;0.354752
9165.000000;0.354591
9164.000000;0.354651
9163.000000;0.354541
9162.000000;0.354224
9161.000000;0.353857
9160.000000;0.353379
9159.000000;0.352541
9158.000000;0.351350
9157.000000;0.350254
9156.000000;0.349707
9155.000000;0.349652
9154.000000;0.349586
9153.000000;0.349136
9152.000000;0.348404
9151.000000;0.347726
9150.000000;0.347256
9149.000000;0.346899
9148.000000;0.346524
9147.000000;0.346038
9146.000000;0.345328
9145.000000;0.344355
9144.000000;0.343336
9143.000000;0.342626
9142.000000;0.342283
9141.000000;0.341941
9140.000000;0.341256
9139.000000;0.340368
9138.000000;0.339695
9137.000000;0.339366
9136.000000;0.339082
9135.000000;0.338592
9134.000000;0.338044
9133.000000;0.337751
9132.000000;0.337736
9131.000000;0.337680
9130.000000;0.337252
9129.000000;0.336402
9128.000000;0.335360
9127.000000;0.334448
9126.000000;0.333864
9125.000000;0.333543
9124.000000;0.333212
9123.000000;0.332648
9122.000000;0.331866
9121.000000;0.331056
9120.000000;0.330384
9119.000000;0.329924
9118.000000;0.329689
9117.000000;0.329629
9116.000000;0.329590
9115.000000;0.329405
9114.000000;0.329044
9113.000000;0.328583
9112.000000;0.328007
9111.000000;0.327152
9110.000000;0.325945
9109.000000;0.324624
9108.000000;0.323617
9107.000000;0.323186
9106.000000;0.323197
9105.000000;0.323235
9104.000000;0.322910
9103.000000;0.322118
9102.000000;0.321098
9101.000000;0.320234
9100.000000;0.319749
9099.000000;0.319551
9098.000000;0.319361
9097.000000;0.318989
9096.000000;0.318459
9095.000000;0.317889
9094.000000;0.317327
9093.000000;0.316741
9092.000000;0.316122
9091.000000;0.315533
9090.000000;0.315038
9089.000000;0.314623
9088.000000;0.314236
9087.000000;0.313857
9086.000000;0.313521
9085.000000;0.313247
9084.000000;0.313013
9083.000000;0.312792
9082.000000;0.312570
9081.000000;0.312314
9080.000000;0.311952
9079.000000;0.311438
9078.000000;0.310789
9077.000000;0.310040
9076.000000;0.309191
9075.000000;0.308282
9074.000000;0.307437
9073.000000;0.306750
9072.000000;0.306132
9071.000000;0.305408
9070.000000;0.304575
9069.000000;0.303886
9068.000000;0.303583
9067.000000;0.303614
9066.000000;0.303659
9065.000000;0.303413
9064.000000;0.302790
9063.000000;0.301925
9062.000000;0.301019
9061.000000;0.300179
9060.000000;0.299393
9059.000000;0.298661
9058.000000;0.298120
9057.000000;0.297932
9056.000000;0.298005
9055.000000;0.297977
9054.000000;0.297580
9053.000000;0.296907
