Criado como novo conjunto de dados;"e2410_daniel_v2.spp","64805.4 Secs"
cm-1;Abs
10000.000000;1.199280
9999.000000;1.197910
9998.000000;1.196790
9997.000000;1.196393
9996.000000;1.196480
9995.000000;1.196427
9994.000000;1.196217
9993.000000;1.196330
9992.000000;1.196876
9991.000000;1.197314
9990.000000;1.197065
9989.000000;1.195910
9988.000000;1.193997
9987.000000;1.191921
9986.000000;1.190572
9985.000000;1.190359
9984.000000;1.190670
9983.000000;1.190574
9982.000000;1.189888
9981.000000;1.189059
9980.000000;1.188272
9979.000000;1.187348
9978.000000;1.186367
9977.000000;1.185658
9976.000000;1.185214
9975.000000;1.184717
9974.000000;1.184187
9973.000000;1.184019
9972.000000;1.184290
9971.000000;1.184550
9970.000000;1.184391
9969.000000;1.183867
9968.000000;1.183260
9967.000000;1.182769
9966.000000;1.182450
9965.000000;1.182189
9964.000000;1.181792
9963.000000;1.181255
9962.000000;1.180782
9961.000000;1.180389
9960.000000;1.179839
9959.000000;1.179198
9958.000000;1.178995
9957.000000;1.179382
9956.000000;1.179606
9955.000000;1.178920
9954.000000;1.177674
9953.000000;1.176817
9952.000000;1.176639
9951.000000;1.176635
9950.000000;1.176333
9949.000000;1.175586
9948.000000;1.174272
9947.000000;1.172438
9946.000000;1.170658
9945.000000;1.169605
9944.000000;1.169345
9943.000000;1.169472
9942.000000;1.169728
9941.000000;1.169957
9940.000000;1.169747
9939.000000;1.168834
9938.000000;1.167695
9937.000000;1.167038
9936.000000;1.166870
9935.000000;1.166670
9934.000000;1.166286
9933.000000;1.165946
9932.000000;1.165578
9931.000000;1.164926
9930.000000;1.164267
9929.000000;1.164204
9928.000000;1.164694
9927.000000;1.165023
9926.000000;1.164760
9925.000000;1.164095
9924.000000;1.163213
9923.000000;1.162110
9922.000000;1.161090
9921.000000;1.160692
9920.000000;1.160917
9919.000000;1.161148
9918.000000;1.160996
9917.000000;1.160637
9916.000000;1.160155
9915.000000;1.159200
9914.000000;1.157599
9913.000000;1.155842
9912.000000;1.154628
9911.000000;1.154238
9910.000000;1.154408
9909.000000;1.154537
9908.000000;1.154045
9907.000000;1.152919
9906.000000;1.151854
9905.000000;1.151470
9904.000000;1.151516
9903.000000;1.151301
9902.000000;1.150694
9901.000000;1.150053
9900.000000;1.149288
9899.000000;1.147863
9898.000000;1.145874
9897.000000;1.144362
9896.000000;1.144226
9895.000000;1.145275
9894.000000;1.146572
9893.000000;1.147265
9892.000000;1.146938
9891.000000;1.145660
9890.000000;1.144032
9889.000000;1.142864
9888.000000;1.142551
9887.000000;1.142883
9886.000000;1.143440
9885.000000;1.143859
9884.000000;1.143751
9883.000000;1.142845
9882.000000;1.141391
9881.000000;1.140051
9880.000000;1.139269
9879.000000;1.138990
9878.000000;1.138973
9877.000000;1.139031
9876.000000;1.138937
9875.000000;1.138482
9874.000000;1.137723
9873.000000;1.136910
9872.000000;1.136110
9871.000000;1.135210
9870.000000;1.134250
9869.000000;1.133452
9868.000000;1.132936
9867.000000;1.132764
9866.000000;1.133173
9865.000000;1.134277
9864.000000;1.135504
9863.000000;1.135828
9862.000000;1.134796
9861.000000;1.133005
9860.000000;1.131431
9859.000000;1.130574
9858.000000;1.130317
9857.000000;1.130270
9856.000000;1.130071
9855.000000;1.129552
9854.000000;1.128739
9853.000000;1.127692
9852.000000;1.126472
9851.000000;1.125384
9850.000000;1.124953
9849.000000;1.125311
9848.000000;1.125751
9847.000000;1.125331
9846.000000;1.123911
9845.000000;1.122248
9844.000000;1.121149
9843.000000;1.120876
9842.000000;1.121240
9841.000000;1.121789
9840.000000;1.121919
9839.000000;1.121250
9838.000000;1.120012
9837.000000;1.118796
9836.000000;1.117942
9835.000000;1.117410
9834.000000;1.117113
9833.000000;1.116976
9832.000000;1.116756
9831.000000;1.116213
9830.000000;1.115493
9829.000000;1.114947
9828.000000;1.114601
9827.000000;1.114172
9826.000000;1.113584
9825.000000;1.113032
9824.000000;1.112515
9823.000000;1.111739
9822.000000;1.110623
9821.000000;1.109508
9820.000000;1.108754
9819.000000;1.108412
9818.000000;1.108382
9817.000000;1.108589
9816.000000;1.108882
9815.000000;1.109031
9814.000000;1.108923
9813.000000;1.108578
9812.000000;1.107940
9811.000000;1.106915
9810.000000;1.105668
9809.000000;1.104638
9808.000000;1.104129
9807.000000;1.104064
9806.000000;1.104189
9805.000000;1.104346
9804.000000;1.104438
9803.000000;1.104297
9802.000000;1.103705
9801.000000;1.102590
9800.000000;1.101242
9799.000000;1.100273
9798.000000;1.100141
9797.000000;1.100621
9796.000000;1.100936
9795.000000;1.100551
9794.000000;1.099606
9793.000000;1.098445
9792.000000;1.097107
9791.000000;1.095601
9790.000000;1.094333
9789.000000;1.093795
9788.000000;1.093945
9787.000000;1.094325
9786.000000;1.094683
9785.000000;1.095114
9784.000000;1.095597
9783.000000;1.095767
9782.000000;1.095244
9781.000000;1.094010
9780.000000;1.092449
9779.000000;1.091150
9778.000000;1.090527
9777.000000;1.090460
9776.000000;1.090408
9775.000000;1.090043
9774.000000;1.089591
9773.000000;1.089336
9772.000000;1.089090
9771.000000;1.088538
9770.000000;1.087838
9769.000000;1.087421
9768.000000;1.087262
9767.000000;1.086831
9766.000000;1.085806
9765.000000;1.084467
9764.000000;1.083330
9763.000000;1.082673
9762.000000;1.082486
9761.000000;1.082595
9760.000000;1.082721
9759.000000;1.082574
9758.000000;1.081997
9757.000000;1.081017
9756.000000;1.079883
9755.000000;1.079099
9754.000000;1.079186
9753.000000;1.080109
9752.000000;1.081073
9751.000000;1.081175
9750.000000;1.080278
9749.000000;1.079085
9748.000000;1.078393
9747.000000;1.078437
9746.000000;1.078823
9745.000000;1.078909
9744.000000;1.078299
9743.000000;1.077111
9742.000000;1.075746
9741.000000;1.074423
9740.000000;1.073119
9739.000000;1.071936
9738.000000;1.071148
9737.000000;1.070754
9736.000000;1.070307
9735.000000;1.069480
9734.000000;1.068576
9733.000000;1.068190
9732.000000;1.068488
9731.000000;1.069061
9730.000000;1.069320
9729.000000;1.068904
9728.000000;1.067844
9727.000000;1.066520
9726.000000;1.065365
9725.000000;1.064514
9724.000000;1.063872
9723.000000;1.063442
9722.000000;1.063337
9721.000000;1.063467
9720.000000;1.063589
9719.000000;1.063691
9718.000000;1.063880
9717.000000;1.063851
9716.000000;1.063072
9715.000000;1.061713
9714.000000;1.060739
9713.000000;1.060700
9712.000000;1.060980
9711.000000;1.060672
9710.000000;1.059733
9709.000000;1.058780
9708.000000;1.058168
9707.000000;1.057842
9706.000000;1.057765
9705.000000;1.057875
9704.000000;1.057815
9703.000000;1.057262
9702.000000;1.056397
9701.000000;1.055606
9700.000000;1.054906
9699.000000;1.054117
9698.000000;1.053386
9697.000000;1.053051
9696.000000;1.053107
9695.000000;1.053217
9694.000000;1.053156
9693.000000;1.052879
9692.000000;1.052293
9691.000000;1.051408
9690.000000;1.050558
9689.000000;1.050073
9688.000000;1.049818
9687.000000;1.049410
9686.000000;1.048795
9685.000000;1.048225
9684.000000;1.047764
9683.000000;1.047239
9682.000000;1.046634
9681.000000;1.046173
9680.000000;1.045977
9679.000000;1.045918
9678.000000;1.045832
9677.000000;1.045692
9676.000000;1.045580
9675.000000;1.045577
9674.000000;1.045589
9673.000000;1.045204
9672.000000;1.044007
9671.000000;1.042188
9670.000000;1.040560
9669.000000;1.039759
9668.000000;1.039683
9667.000000;1.039890
9666.000000;1.040209
9665.000000;1.040626
9664.000000;1.040911
9663.000000;1.040775
9662.000000;1.040259
9661.000000;1.039633
9660.000000;1.039041
9659.000000;1.038493
9658.000000;1.038010
9657.000000;1.037554
9656.000000;1.037033
9655.000000;1.036560
9654.000000;1.036411
9653.000000;1.036491
9652.000000;1.036195
9651.000000;1.035104
9650.000000;1.033530
9649.000000;1.032076
9648.000000;1.031032
9647.000000;1.030500
9646.000000;1.030661
9645.000000;1.031436
9644.000000;1.032185
9643.000000;1.032232
9642.000000;1.031536
9641.000000;1.030499
9640.000000;1.029395
9639.000000;1.028382
9638.000000;1.027731
9637.000000;1.027561
9636.000000;1.027544
9635.000000;1.027306
9634.000000;1.026893
9633.000000;1.026469
9632.000000;1.025869
9631.000000;1.024942
9630.000000;1.024054
9629.000000;1.023698
9628.000000;1.023765
9627.000000;1.023684
9626.000000;1.023207
9625.000000;1.022613
9624.000000;1.022209
9623.000000;1.022035
9622.000000;1.021989
9621.000000;1.021882
9620.000000;1.021504
9619.000000;1.020923
9618.000000;1.020557
9617.000000;1.020630
9616.000000;1.020785
9615.000000;1.020557
9614.000000;1.019976
9613.000000;1.019332
9612.000000;1.018650
9611.000000;1.017858
9610.000000;1.017177
9609.000000;1.016827
9608.000000;1.016566
9607.000000;1.016022
9606.000000;1.015314
9605.000000;1.014806
9604.000000;1.014389
9603.000000;1.013601
9602.000000;1.012393
9601.000000;1.011278
9600.000000;1.010703
9599.000000;1.010683
9598.000000;1.011017
9597.000000;1.011413
9596.000000;1.011442
9595.000000;1.010787
9594.000000;1.009604
9593.000000;1.008362
9592.000000;1.007354
9591.000000;1.006646
9590.000000;1.006332
9589.000000;1.006470
9588.000000;1.006838
9587.000000;1.007085
9586.000000;1.007081
9585.000000;1.006851
9584.000000;1.006325
9583.000000;1.005471
9582.000000;1.004544
9581.000000;1.003846
9580.000000;1.003371
9579.000000;1.002970
9578.000000;1.002673
9577.000000;1.002494
9576.000000;1.002162
9575.000000;1.001461
9574.000000;1.000665
9573.000000;1.000200
9572.000000;1.000029
9571.000000;0.999816
9570.000000;0.999529
9569.000000;0.999396
9568.000000;0.999385
9567.000000;0.999217
9566.000000;0.998847
9565.000000;0.998460
9564.000000;0.998038
9563.000000;0.997390
9562.000000;0.996602
9561.000000;0.995985
9560.000000;0.995561
9559.000000;0.995050
9558.000000;0.994420
9557.000000;0.994012
9556.000000;0.994027
9555.000000;0.994251
9554.000000;0.994384
9553.000000;0.994332
9552.000000;0.994096
9551.000000;0.993661
9550.000000;0.993102
9549.000000;0.992537
9548.000000;0.991933
9547.000000;0.991163
9546.000000;0.990302
9545.000000;0.989629
9544.000000;0.989285
9543.000000;0.989127
9542.000000;0.988945
9541.000000;0.988675
9540.000000;0.988346
9539.000000;0.987946
9538.000000;0.987391
9537.000000;0.986611
9536.000000;0.985705
9535.000000;0.984993
9534.000000;0.984758
9533.000000;0.984888
9532.000000;0.984983
9531.000000;0.984851
9530.000000;0.984637
9529.000000;0.984426
9528.000000;0.984052
9527.000000;0.983448
9526.000000;0.982822
9525.000000;0.982283
9524.000000;0.981668
9523.000000;0.980985
9522.000000;0.980608
9521.000000;0.980704
9520.000000;0.980807
9519.000000;0.980382
9518.000000;0.979521
9517.000000;0.978688
9516.000000;0.978040
9515.000000;0.977464
9514.000000;0.977051
9513.000000;0.977006
9512.000000;0.977188
9511.000000;0.977191
9510.000000;0.976836
9509.000000;0.976235
9508.000000;0.975497
9507.000000;0.974728
9506.000000;0.974166
9505.000000;0.973955
9504.000000;0.973860
9503.000000;0.973536
9502.000000;0.972981
9501.000000;0.972414
9500.000000;0.971885
9499.000000;0.971333
9498.000000;0.970880
9497.000000;0.970672
9496.000000;0.970542
9495.000000;0.970222
9494.000000;0.969790
9493.000000;0.969559
9492.000000;0.969604
9491.000000;0.969711
9490.000000;0.969713
9489.000000;0.969535
9488.000000;0.969035
9487.000000;0.968155
9486.000000;0.967177
9485.000000;0.966488
9484.000000;0.966119
9483.000000;0.965803
9482.000000;0.965413
9481.000000;0.965054
9480.000000;0.964788
9479.000000;0.964561
9478.000000;0.964374
9477.000000;0.964265
9476.000000;0.964199
9475.000000;0.964118
9474.000000;0.964014
9473.000000;0.963773
9472.000000;0.963179
9471.000000;0.962280
9470.000000;0.961523
9469.000000;0.961251
9468.000000;0.961276
9467.000000;0.961208
9466.000000;0.960941
9465.000000;0.960496
9464.000000;0.959681
9463.000000;0.958371
9462.000000;0.956947
9461.000000;0.955997
9460.000000;0.955685
9459.000000;0.955757
9458.000000;0.955999
9457.000000;0.956264
9456.000000;0.956210
9455.000000;0.955583
9454.000000;0.954740
9453.000000;0.954402
9452.000000;0.954789
9451.000000;0.955363
9450.000000;0.955505
9449.000000;0.955125
9448.000000;0.954505
9447.000000;0.953841
9446.000000;0.953131
9445.000000;0.952353
9444.000000;0.951605
9443.000000;0.951094
9442.000000;0.950938
9441.000000;0.950958
9440.000000;0.950816
9439.000000;0.950463
9438.000000;0.950237
9437.000000;0.950356
9436.000000;0.950555
9435.000000;0.950434
9434.000000;0.949962
9433.000000;0.949352
9432.000000;0.948648
9431.000000;0.947742
9430.000000;0.946678
9429.000000;0.945659
9428.000000;0.944852
9427.000000;0.944423
9426.000000;0.944583
9425.000000;0.945313
9424.000000;0.946131
9423.000000;0.946413
9422.000000;0.945909
9421.000000;0.944800
9420.000000;0.943417
9419.000000;0.942124
9418.000000;0.941269
9417.000000;0.940970
9416.000000;0.941014
9415.000000;0.941153
9414.000000;0.941345
9413.000000;0.941558
9412.000000;0.941587
9411.000000;0.941303
9410.000000;0.940868
9409.000000;0.940462
9408.000000;0.939996
9407.000000;0.939337
9406.000000;0.938581
9405.000000;0.937863
9404.000000;0.937179
9403.000000;0.936625
9402.000000;0.936516
9401.000000;0.936919
9400.000000;0.937327
9399.000000;0.937208
9398.000000;0.936658
9397.000000;0.936157
9396.000000;0.935884
9395.000000;0.935677
9394.000000;0.935446
9393.000000;0.935206
9392.000000;0.934846
9391.000000;0.934248
9390.000000;0.933554
9389.000000;0.932963
9388.000000;0.932402
9387.000000;0.931721
9386.000000;0.931063
9385.000000;0.930666
9384.000000;0.930447
9383.000000;0.930188
9382.000000;0.930000
9381.000000;0.930193
9380.000000;0.930757
9379.000000;0.931332
9378.000000;0.931628
9377.000000;0.931537
9376.000000;0.930966
9375.000000;0.929957
9374.000000;0.928890
9373.000000;0.928155
9372.000000;0.927663
9371.000000;0.927036
9370.000000;0.926246
9369.000000;0.925656
9368.000000;0.925455
9367.000000;0.925444
9366.000000;0.925417
9365.000000;0.925395
9364.000000;0.925382
9363.000000;0.925211
9362.000000;0.924758
9361.000000;0.924113
9360.000000;0.923446
9359.000000;0.922877
9358.000000;0.922494
9357.000000;0.922341
9356.000000;0.922354
9355.000000;0.922390
9354.000000;0.922297
9353.000000;0.921920
9352.000000;0.921181
9351.000000;0.920280
9350.000000;0.919635
9349.000000;0.919444
9348.000000;0.919462
9347.000000;0.919359
9346.000000;0.919070
9345.000000;0.918624
9344.000000;0.917908
9343.000000;0.916944
9342.000000;0.916164
9341.000000;0.915991
9340.000000;0.916222
9339.000000;0.916194
9338.000000;0.915550
9337.000000;0.914574
9336.000000;0.913778
9335.000000;0.913442
9334.000000;0.913527
9333.000000;0.913778
9332.000000;0.913906
9331.000000;0.913816
9330.000000;0.913667
9329.000000;0.913575
9328.000000;0.913384
9327.000000;0.912902
9326.000000;0.912236
9325.000000;0.911708
9324.000000;0.911503
9323.000000;0.911569
9322.000000;0.911723
9321.000000;0.911731
9320.000000;0.911424
9319.000000;0.910914
9318.000000;0.910562
9317.000000;0.910532
9316.000000;0.910547
9315.000000;0.910253
9314.000000;0.909658
9313.000000;0.909007
9312.000000;0.908422
9311.000000;0.907871
9310.000000;0.907334
9309.000000;0.906787
9308.000000;0.906194
9307.000000;0.905699
9306.000000;0.905615
9305.000000;0.905979
9304.000000;0.906333
9303.000000;0.906206
9302.000000;0.905674
9301.000000;0.905155
9300.000000;0.904803
9299.000000;0.904422
9298.000000;0.903865
9297.000000;0.903226
9296.000000;0.902698
9295.000000;0.902450
9294.000000;0.902541
9293.000000;0.902800
9292.000000;0.902913
9291.000000;0.902775
9290.000000;0.902587
9289.000000;0.902452
9288.000000;0.902118
9287.000000;0.901364
9286.000000;0.900405
9285.000000;0.899655
9284.000000;0.899267
9283.000000;0.899172
9282.000000;0.899357
9281.000000;0.899785
9280.000000;0.900156
9279.000000;0.900068
9278.000000;0.899411
9277.000000;0.898432
9276.000000;0.897521
9275.000000;0.897049
9274.000000;0.897201
9273.000000;0.897725
9272.000000;0.898035
9271.000000;0.897799
9270.000000;0.897258
9269.000000;0.896796
9268.000000;0.896452
9267.000000;0.896108
9266.000000;0.895866
9265.000000;0.895874
9264.000000;0.895972
9263.000000;0.895863
9262.000000;0.895549
9261.000000;0.895258
9260.000000;0.895047
9259.000000;0.894764
9258.000000;0.894337
9257.000000;0.893823
9256.000000;0.893241
9255.000000;0.892625
9254.000000;0.892152
9253.000000;0.891987
9252.000000;0.892008
9251.000000;0.891891
9250.000000;0.891427
9249.000000;0.890652
9248.000000;0.889790
9247.000000;0.889160
9246.000000;0.888980
9245.000000;0.889082
9244.000000;0.889014
9243.000000;0.888580
9242.000000;0.888105
9241.000000;0.887961
9240.000000;0.888042
9239.000000;0.887899
9238.000000;0.887272
9237.000000;0.886273
9236.000000;0.885252
9235.000000;0.884627
9234.000000;0.884637
9233.000000;0.885061
9232.000000;0.885334
9231.000000;0.885129
9230.000000;0.884649
9229.000000;0.884242
9228.000000;0.883990
9227.000000;0.883870
9226.000000;0.883949
9225.000000;0.884146
9224.000000;0.884097
9223.000000;0.883583
9222.000000;0.882876
9221.000000;0.882384
9220.000000;0.882156
9219.000000;0.882010
9218.000000;0.881929
9217.000000;0.881991
9216.000000;0.882094
9215.000000;0.882052
9214.000000;0.881833
9213.000000;0.881470
9212.000000;0.880906
9211.000000;0.880196
9210.000000;0.879674
9209.000000;0.879608
9208.000000;0.879810
9207.000000;0.879832
9206.000000;0.879448
9205.000000;0.878789
9204.000000;0.878147
9203.000000;0.877831
9202.000000;0.877988
9201.000000;0.878390
9200.000000;0.878584
9199.000000;0.878421
9198.000000;0.878189
9197.000000;0.878067
9196.000000;0.877805
9195.000000;0.877202
9194.000000;0.876549
9193.000000;0.876258
9192.000000;0.876290
9191.000000;0.876270
9190.000000;0.875958
9189.000000;0.875312
9188.000000;0.874364
9187.000000;0.873338
9186.000000;0.872674
9185.000000;0.872584
9184.000000;0.872774
9183.000000;0.872846
9182.000000;0.872752
9181.000000;0.872601
9180.000000;0.872339
9179.000000;0.871971
9178.000000;0.871821
9177.000000;0.872162
9176.000000;0.872767
9175.000000;0.873171
9174.000000;0.873193
9173.000000;0.872910
9172.000000;0.872341
9171.000000;0.871548
9170.000000;0.870808
9169.000000;0.870301
9168.000000;0.869845
9167.000000;0.869301
9166.000000;0.868987
9165.000000;0.869233
9164.000000;0.869734
9163.000000;0.869809
9162.000000;0.869241
9161.000000;0.868414
9160.000000;0.867728
9159.000000;0.867290
9158.000000;0.867109
9157.000000;0.867149
9156.000000;0.867179
9155.000000;0.866936
9154.000000;0.866453
9153.000000;0.865991
9152.000000;0.865667
9151.000000;0.865421
9150.000000;0.865229
9149.000000;0.865120
9148.000000;0.865044
9147.000000;0.864979
9146.000000;0.865016
9145.000000;0.865131
9144.000000;0.865034
9143.000000;0.864521
9142.000000;0.863816
9141.000000;0.863272
9140.000000;0.862936
9139.000000;0.862680
9138.000000;0.862553
9137.000000;0.862637
9136.000000;0.862706
9135.000000;0.862442
9134.000000;0.861898
9133.000000;0.861392
9132.000000;0.861024
9131.000000;0.860625
9130.000000;0.860112
9129.000000;0.859597
9128.000000;0.859186
9127.000000;0.858957
9126.000000;0.859028
9125.000000;0.859374
9124.000000;0.859670
9123.000000;0.859614
9122.000000;0.859296
9121.000000;0.858994
9120.000000;0.858718
9119.000000;0.858257
9118.000000;0.857579
9117.000000;0.856876
9116.000000;0.856324
9115.000000;0.856041
9114.000000;0.856153
9113.000000;0.856610
9112.000000;0.857042
9111.000000;0.857101
9110.000000;0.856845
9109.000000;0.856533
9108.000000;0.856180
9107.000000;0.855620
9106.000000;0.854897
9105.000000;0.854287
9104.000000;0.854002
9103.000000;0.854121
9102.000000;0.854665
9101.000000;0.855453
9100.000000;0.855998
9099.000000;0.855891
9098.000000;0.855229
9097.000000;0.854449
9096.000000;0.853835
9095.000000;0.853419
9094.000000;0.853177
9093.000000;0.852997
9092.000000;0.852605
9091.000000;0.851873
9090.000000;0.851140
9089.000000;0.850906
9088.000000;0.851245
9087.000000;0.851773
9086.000000;0.852108
9085.000000;0.852115
9084.000000;0.851819
9083.000000;0.851356
9082.000000;0.850956
9081.000000;0.850713
9080.000000;0.850470
9079.000000;0.850121
9078.000000;0.849865
9077.000000;0.849898
9076.000000;0.850032
9075.000000;0.849941
9074.000000;0.849635
9073.000000;0.849384
9072.000000;0.849264
9071.000000;0.849135
9070.000000;0.848947
9069.000000;0.848750
9068.000000;0.848473
9067.000000;0.848017
9066.000000;0.847531
9065.000000;0.847269
9064.000000;0.847203
9063.000000;0.847040
9062.000000;0.846613
9061.000000;0.846033
9060.000000;0.845467
9059.000000;0.844986
9058.000000;0.844601
9057.000000;0.844293
9056.000000;0.844050
9055.000000;0.843984
9054.000000;0.844261
9053.000000;0.844775
