Criado como novo conjunto de dados;"e2410_daniel_v2.spp","2162.1 Secs"
cm-1;Abs
10000.000000;0.115597
9999.000000;0.115427
9998.000000;0.115257
9997.000000;0.115088
9996.000000;0.114918
9995.000000;0.114748
9994.000000;0.114578
9993.000000;0.114410
9992.000000;0.114238
9991.000000;0.114122
9990.000000;0.113872
9989.000000;0.113335
9988.000000;0.112551
9987.000000;0.111741
9986.000000;0.111125
9985.000000;0.110726
9984.000000;0.110414
9983.000000;0.110075
9982.000000;0.109686
9981.000000;0.109243
9980.000000;0.108745
9979.000000;0.108251
9978.000000;0.107850
9977.000000;0.107523
9976.000000;0.107123
9975.000000;0.106548
9974.000000;0.105858
9973.000000;0.105186
9972.000000;0.104597
9971.000000;0.104068
9970.000000;0.103569
9969.000000;0.103093
9968.000000;0.102643
9967.000000;0.102246
9966.000000;0.101931
9965.000000;0.101671
9964.000000;0.101366
9963.000000;0.100936
9962.000000;0.100399
9961.000000;0.099833
9960.000000;0.099284
9959.000000;0.098753
9958.000000;0.098238
9957.000000;0.097739
9956.000000;0.097253
9955.000000;0.096793
9954.000000;0.096384
9953.000000;0.095995
9952.000000;0.095524
9951.000000;0.094916
9950.000000;0.094262
9949.000000;0.093719
9948.000000;0.093339
9947.000000;0.093024
9946.000000;0.092649
9945.000000;0.092199
9944.000000;0.091747
9943.000000;0.091353
9942.000000;0.090989
9941.000000;0.090560
9940.000000;0.090007
9939.000000;0.089388
9938.000000;0.088844
9937.000000;0.088469
9936.000000;0.088194
9935.000000;0.087840
9934.000000;0.087288
9933.000000;0.086586
9932.000000;0.085916
9931.000000;0.085448
9930.000000;0.085197
9929.000000;0.085006
9928.000000;0.084670
9927.000000;0.084111
9926.000000;0.083423
9925.000000;0.082745
9924.000000;0.082141
9923.000000;0.081613
9922.000000;0.081181
9921.000000;0.080880
9920.000000;0.080665
9919.000000;0.080409
9918.000000;0.080008
9917.000000;0.079469
9916.000000;0.078880
9915.000000;0.078331
9914.000000;0.077873
9913.000000;0.077504
9912.000000;0.077162
9911.000000;0.076744
9910.000000;0.076189
9909.000000;0.075539
9908.000000;0.074901
9907.000000;0.074353
9906.000000;0.073892
9905.000000;0.073482
9904.000000;0.073107
9903.000000;0.072765
9902.000000;0.072426
9901.000000;0.072041
9900.000000;0.071592
9899.000000;0.071106
9898.000000;0.070600
9897.000000;0.070030
9896.000000;0.069354
9895.000000;0.068621
9894.000000;0.067965
9893.000000;0.067481
9892.000000;0.067139
9891.000000;0.066825
9890.000000;0.066446
9889.000000;0.066003
9888.000000;0.065560
9887.000000;0.065167
9886.000000;0.064801
9885.000000;0.064374
9884.000000;0.063823
9883.000000;0.063187
9882.000000;0.062569
9881.000000;0.062025
9880.000000;0.061532
9879.000000;0.061072
9878.000000;0.060692
9877.000000;0.060435
9876.000000;0.060242
9875.000000;0.059987
9874.000000;0.059595
9873.000000;0.059088
9872.000000;0.058516
9871.000000;0.057907
9870.000000;0.057283
9869.000000;0.056704
9868.000000;0.056223
9867.000000;0.055833
9866.000000;0.055453
9865.000000;0.055006
9864.000000;0.054492
9863.000000;0.053989
9862.000000;0.053568
9861.000000;0.053221
9860.000000;0.052878
9859.000000;0.052493
9858.000000;0.052081
9857.000000;0.051682
9856.000000;0.051297
9855.000000;0.050888
9854.000000;0.050418
9853.000000;0.049856
9852.000000;0.049191
9851.000000;0.048456
9850.000000;0.047758
9849.000000;0.047232
9848.000000;0.046926
9847.000000;0.046752
9846.000000;0.046532
9845.000000;0.046127
9844.000000;0.045530
9843.000000;0.044878
9842.000000;0.044349
9841.000000;0.044020
9840.000000;0.043801
9839.000000;0.043524
9838.000000;0.043094
9837.000000;0.042561
9836.000000;0.042044
9835.000000;0.041608
9834.000000;0.041206
9833.000000;0.040728
9832.000000;0.040100
9831.000000;0.039359
9830.000000;0.038641
9829.000000;0.038093
9828.000000;0.037774
9827.000000;0.037613
9826.000000;0.037452
9825.000000;0.037146
9824.000000;0.036653
9823.000000;0.036064
9822.000000;0.035522
9821.000000;0.035107
9820.000000;0.034774
9819.000000;0.034421
9818.000000;0.033988
9817.000000;0.033474
9816.000000;0.032884
9815.000000;0.032203
9814.000000;0.031465
9813.000000;0.030796
9812.000000;0.030329
9811.000000;0.030073
9810.000000;0.029894
9809.000000;0.029640
9808.000000;0.029275
9807.000000;0.028861
9806.000000;0.028428
9805.000000;0.027932
9804.000000;0.027345
9803.000000;0.026737
9802.000000;0.026221
9801.000000;0.025831
9800.000000;0.025497
9799.000000;0.025149
9798.000000;0.024780
9797.000000;0.024414
9796.000000;0.024047
9795.000000;0.023656
9794.000000;0.023241
9793.000000;0.022825
9792.000000;0.022429
9791.000000;0.022056
9790.000000;0.021685
9789.000000;0.021265
9788.000000;0.020744
9787.000000;0.020146
9786.000000;0.019578
9785.000000;0.019129
9784.000000;0.018759
9783.000000;0.018348
9782.000000;0.017853
9781.000000;0.017352
9780.000000;0.016921
9779.000000;0.016530
9778.000000;0.016095
9777.000000;0.015604
9776.000000;0.015115
9775.000000;0.014651
9774.000000;0.014158
9773.000000;0.013593
9772.000000;0.013013
9771.000000;0.012528
9770.000000;0.012184
9769.000000;0.011921
9768.000000;0.011646
9767.000000;0.011309
9766.000000;0.010903
9765.000000;0.010422
9764.000000;0.009867
9763.000000;0.009293
9762.000000;0.008801
9761.000000;0.008460
9760.000000;0.008221
9759.000000;0.007957
9758.000000;0.007566
9757.000000;0.007050
9756.000000;0.006490
9755.000000;0.005968
9754.000000;0.005517
9753.000000;0.005113
9752.000000;0.004684
9751.000000;0.004163
9750.000000;0.003569
9749.000000;0.003029
9748.000000;0.002675
9747.000000;0.002485
9746.000000;0.002279
9745.000000;0.001887
9744.000000;0.001318
9743.000000;0.000714
9742.000000;0.000184
9741.000000;-0.000281
9740.000000;-0.000737
9739.000000;-0.001188
9738.000000;-0.001608
9737.000000;-0.001996
9736.000000;-0.002387
9735.000000;-0.002798
9734.000000;-0.003213
9733.000000;-0.003599
9732.000000;-0.003942
9731.000000;-0.004260
9730.000000;-0.004606
9729.000000;-0.005031
9728.000000;-0.005526
9727.000000;-0.006020
9726.000000;-0.006468
9725.000000;-0.006902
9724.000000;-0.007366
9723.000000;-0.007836
9722.000000;-0.008256
9721.000000;-0.008640
9720.000000;-0.009080
9719.000000;-0.009617
9718.000000;-0.010190
9717.000000;-0.010709
9716.000000;-0.011141
9715.000000;-0.011511
9714.000000;-0.011841
9713.000000;-0.012154
9712.000000;-0.012495
9711.000000;-0.012901
9710.000000;-0.013361
9709.000000;-0.013824
9708.000000;-0.014256
9707.000000;-0.014664
9706.000000;-0.015071
9705.000000;-0.015487
9704.000000;-0.015904
9703.000000;-0.016311
9702.000000;-0.016706
9701.000000;-0.017108
9700.000000;-0.017534
9699.000000;-0.017975
9698.000000;-0.018403
9697.000000;-0.018806
9696.000000;-0.019196
9695.000000;-0.019580
9694.000000;-0.019948
9693.000000;-0.020300
9692.000000;-0.020655
9691.000000;-0.021029
9690.000000;-0.021428
9689.000000;-0.021861
9688.000000;-0.022347
9687.000000;-0.022882
9686.000000;-0.023425
9685.000000;-0.023928
9684.000000;-0.024369
9683.000000;-0.024743
9682.000000;-0.025054
9681.000000;-0.025338
9680.000000;-0.025650
9679.000000;-0.026012
9678.000000;-0.026383
9677.000000;-0.026723
9676.000000;-0.027065
9675.000000;-0.027502
9674.000000;-0.028095
9673.000000;-0.028807
9672.000000;-0.029501
9671.000000;-0.030020
9670.000000;-0.030290
9669.000000;-0.030405
9668.000000;-0.030558
9667.000000;-0.030878
9666.000000;-0.031329
9665.000000;-0.031788
9664.000000;-0.032193
9663.000000;-0.032590
9662.000000;-0.033054
9661.000000;-0.033597
9660.000000;-0.034152
9659.000000;-0.034630
9658.000000;-0.034983
9657.000000;-0.035260
9656.000000;-0.035568
9655.000000;-0.035977
9654.000000;-0.036480
9653.000000;-0.037036
9652.000000;-0.037616
9651.000000;-0.038183
9650.000000;-0.038677
9649.000000;-0.039073
9648.000000;-0.039416
9647.000000;-0.039757
9646.000000;-0.040085
9645.000000;-0.040367
9644.000000;-0.040614
9643.000000;-0.040858
9642.000000;-0.041083
9641.000000;-0.041260
9640.000000;-0.041442
9639.000000;-0.041744
9638.000000;-0.042221
9637.000000;-0.042829
9636.000000;-0.043496
9635.000000;-0.044161
9634.000000;-0.044730
9633.000000;-0.045114
9632.000000;-0.045345
9631.000000;-0.045593
9630.000000;-0.045994
9629.000000;-0.046514
9628.000000;-0.047009
9627.000000;-0.047378
9626.000000;-0.047636
9625.000000;-0.047860
9624.000000;-0.048132
9623.000000;-0.048506
9622.000000;-0.048976
9621.000000;-0.049486
9620.000000;-0.049981
9619.000000;-0.050446
9618.000000;-0.050884
9617.000000;-0.051295
9616.000000;-0.051692
9615.000000;-0.052091
9614.000000;-0.052479
9613.000000;-0.052829
9612.000000;-0.053170
9611.000000;-0.053583
9610.000000;-0.054073
9609.000000;-0.054518
9608.000000;-0.054805
9607.000000;-0.054987
9606.000000;-0.055230
9605.000000;-0.055629
9604.000000;-0.056140
9603.000000;-0.056662
9602.000000;-0.057134
9601.000000;-0.057543
9600.000000;-0.057918
9599.000000;-0.058312
9598.000000;-0.058745
9597.000000;-0.059152
9596.000000;-0.059452
9595.000000;-0.059675
9594.000000;-0.059966
9593.000000;-0.060416
9592.000000;-0.060952
9591.000000;-0.061412
9590.000000;-0.061723
9589.000000;-0.061954
9588.000000;-0.062218
9587.000000;-0.062570
9586.000000;-0.062995
9585.000000;-0.063454
9584.000000;-0.063928
9583.000000;-0.064403
9582.000000;-0.064847
9581.000000;-0.065234
9580.000000;-0.065578
9579.000000;-0.065926
9578.000000;-0.066292
9577.000000;-0.066642
9576.000000;-0.066965
9575.000000;-0.067319
9574.000000;-0.067779
9573.000000;-0.068324
9572.000000;-0.068846
9571.000000;-0.069246
9570.000000;-0.069519
9569.000000;-0.069729
9568.000000;-0.069965
9567.000000;-0.070290
9566.000000;-0.070710
9565.000000;-0.071174
9564.000000;-0.071627
9563.000000;-0.072044
9562.000000;-0.072408
9561.000000;-0.072679
9560.000000;-0.072860
9559.000000;-0.073059
9558.000000;-0.073423
9557.000000;-0.073976
9556.000000;-0.074580
9555.000000;-0.075078
9554.000000;-0.075430
9553.000000;-0.075705
9552.000000;-0.075990
9551.000000;-0.076337
9550.000000;-0.076752
9549.000000;-0.077193
9548.000000;-0.077595
9547.000000;-0.077942
9546.000000;-0.078278
9545.000000;-0.078648
9544.000000;-0.079031
9543.000000;-0.079383
9542.000000;-0.079684
9541.000000;-0.079946
9540.000000;-0.080191
9539.000000;-0.080465
9538.000000;-0.080825
9537.000000;-0.081283
9536.000000;-0.081787
9535.000000;-0.082279
9534.000000;-0.082754
9533.000000;-0.083218
9532.000000;-0.083634
9531.000000;-0.083961
9530.000000;-0.084229
9529.000000;-0.084511
9528.000000;-0.084830
9527.000000;-0.085151
9526.000000;-0.085457
9525.000000;-0.085789
9524.000000;-0.086189
9523.000000;-0.086631
9522.000000;-0.087031
9521.000000;-0.087321
9520.000000;-0.087519
9519.000000;-0.087725
9518.000000;-0.088054
9517.000000;-0.088522
9516.000000;-0.089023
9515.000000;-0.089427
9514.000000;-0.089713
9513.000000;-0.089977
9512.000000;-0.090311
9511.000000;-0.090711
9510.000000;-0.091103
9509.000000;-0.091439
9508.000000;-0.091745
9507.000000;-0.092091
9506.000000;-0.092513
9505.000000;-0.092983
9504.000000;-0.093444
9503.000000;-0.093853
9502.000000;-0.094185
9501.000000;-0.094419
9500.000000;-0.094582
9499.000000;-0.094783
9498.000000;-0.095142
9497.000000;-0.095644
9496.000000;-0.096132
9495.000000;-0.096493
9494.000000;-0.096801
9493.000000;-0.097206
9492.000000;-0.097708
9491.000000;-0.098140
9490.000000;-0.098373
9489.000000;-0.098460
9488.000000;-0.098579
9487.000000;-0.098874
9486.000000;-0.099358
9485.000000;-0.099915
9484.000000;-0.100385
9483.000000;-0.100693
9482.000000;-0.100929
9481.000000;-0.101251
9480.000000;-0.101714
9479.000000;-0.102220
9478.000000;-0.102660
9477.000000;-0.103028
9476.000000;-0.103372
9475.000000;-0.103705
9474.000000;-0.104016
9473.000000;-0.104317
9472.000000;-0.104622
9471.000000;-0.104907
9470.000000;-0.105160
9469.000000;-0.105449
9468.000000;-0.105866
9467.000000;-0.106391
9466.000000;-0.106874
9465.000000;-0.107185
9464.000000;-0.107346
9463.000000;-0.107489
9462.000000;-0.107708
9461.000000;-0.107994
9460.000000;-0.108291
9459.000000;-0.108594
9458.000000;-0.108940
9457.000000;-0.109339
9456.000000;-0.109738
9455.000000;-0.110077
9454.000000;-0.110359
9453.000000;-0.110655
9452.000000;-0.111030
9451.000000;-0.111481
9450.000000;-0.111946
9449.000000;-0.112365
9448.000000;-0.112724
9447.000000;-0.113053
9446.000000;-0.113382
9445.000000;-0.113712
9444.000000;-0.114014
9443.000000;-0.114277
9442.000000;-0.114525
9441.000000;-0.114784
9440.000000;-0.115053
9439.000000;-0.115321
9438.000000;-0.115589
9437.000000;-0.115865
9436.000000;-0.116140
9435.000000;-0.116417
9434.000000;-0.116730
9433.000000;-0.117118
9432.000000;-0.117563
9431.000000;-0.117996
9430.000000;-0.118367
9429.000000;-0.118666
9428.000000;-0.118915
9427.000000;-0.119144
9426.000000;-0.119404
9425.000000;-0.119729
9424.000000;-0.120101
9423.000000;-0.120465
9422.000000;-0.120795
9421.000000;-0.121104
9420.000000;-0.121402
9419.000000;-0.121673
9418.000000;-0.121922
9417.000000;-0.122187
9416.000000;-0.122490
9415.000000;-0.122821
9414.000000;-0.123181
9413.000000;-0.123592
9412.000000;-0.124047
9411.000000;-0.124477
9410.000000;-0.124826
9409.000000;-0.125109
9408.000000;-0.125384
9407.000000;-0.125680
9406.000000;-0.125989
9405.000000;-0.126295
9404.000000;-0.126575
9403.000000;-0.126794
9402.000000;-0.126951
9401.000000;-0.127103
9400.000000;-0.127319
9399.000000;-0.127621
9398.000000;-0.127992
9397.000000;-0.128419
9396.000000;-0.128878
9395.000000;-0.129312
9394.000000;-0.129668
9393.000000;-0.129964
9392.000000;-0.130255
9391.000000;-0.130550
9390.000000;-0.130808
9389.000000;-0.131017
9388.000000;-0.131233
9387.000000;-0.131514
9386.000000;-0.131865
9385.000000;-0.132257
9384.000000;-0.132666
9383.000000;-0.133069
9382.000000;-0.133413
9381.000000;-0.133656
9380.000000;-0.133826
9379.000000;-0.134024
9378.000000;-0.134333
9377.000000;-0.134737
9376.000000;-0.135147
9375.000000;-0.135497
9374.000000;-0.135783
9373.000000;-0.136030
9372.000000;-0.136245
9371.000000;-0.136437
9370.000000;-0.136649
9369.000000;-0.136915
9368.000000;-0.137204
9367.000000;-0.137450
9366.000000;-0.137659
9365.000000;-0.137920
9364.000000;-0.138287
9363.000000;-0.138710
9362.000000;-0.139107
9361.000000;-0.139466
9360.000000;-0.139831
9359.000000;-0.140225
9358.000000;-0.140626
9357.000000;-0.140997
9356.000000;-0.141306
9355.000000;-0.141546
9354.000000;-0.141759
9353.000000;-0.142033
9352.000000;-0.142401
9351.000000;-0.142780
9350.000000;-0.143063
9349.000000;-0.143251
9348.000000;-0.143445
9347.000000;-0.143696
9346.000000;-0.143959
9345.000000;-0.144176
9344.000000;-0.144362
9343.000000;-0.144556
9342.000000;-0.144775
9341.000000;-0.145036
9340.000000;-0.145389
9339.000000;-0.145847
9338.000000;-0.146334
9337.000000;-0.146746
9336.000000;-0.147069
9335.000000;-0.147369
9334.000000;-0.147678
9333.000000;-0.147937
9332.000000;-0.148080
9331.000000;-0.148150
9330.000000;-0.148270
9329.000000;-0.148524
9328.000000;-0.148869
9327.000000;-0.149193
9326.000000;-0.149438
9325.000000;-0.149644
9324.000000;-0.149881
9323.000000;-0.150160
9322.000000;-0.150437
9321.000000;-0.150690
9320.000000;-0.150954
9319.000000;-0.151275
9318.000000;-0.151649
9317.000000;-0.152018
9316.000000;-0.152335
9315.000000;-0.152601
9314.000000;-0.152849
9313.000000;-0.153094
9312.000000;-0.153318
9311.000000;-0.153514
9310.000000;-0.153726
9309.000000;-0.154017
9308.000000;-0.154372
9307.000000;-0.154678
9306.000000;-0.154836
9305.000000;-0.154898
9304.000000;-0.155038
9303.000000;-0.155380
9302.000000;-0.155874
9301.000000;-0.156347
9300.000000;-0.156671
9299.000000;-0.156853
9298.000000;-0.157001
9297.000000;-0.157218
9296.000000;-0.157530
9295.000000;-0.157887
9294.000000;-0.158216
9293.000000;-0.158483
9292.000000;-0.158725
9291.000000;-0.159024
9290.000000;-0.159419
9289.000000;-0.159856
9288.000000;-0.160221
9287.000000;-0.160441
9286.000000;-0.160542
9285.000000;-0.160619
9284.000000;-0.160756
9283.000000;-0.161010
9282.000000;-0.161389
9281.000000;-0.161832
9280.000000;-0.162215
9279.000000;-0.162456
9278.000000;-0.162604
9277.000000;-0.162782
9276.000000;-0.163024
9275.000000;-0.163241
9274.000000;-0.163367
9273.000000;-0.163462
9272.000000;-0.163643
9271.000000;-0.163952
9270.000000;-0.164352
9269.000000;-0.164791
9268.000000;-0.165211
9267.000000;-0.165523
9266.000000;-0.165663
9265.000000;-0.165681
9264.000000;-0.165724
9263.000000;-0.165914
9262.000000;-0.166255
9261.000000;-0.166669
9260.000000;-0.167072
9259.000000;-0.167418
9258.000000;-0.167701
9257.000000;-0.167936
9256.000000;-0.168133
9255.000000;-0.168286
9254.000000;-0.168407
9253.000000;-0.168547
9252.000000;-0.168758
9251.000000;-0.169039
9250.000000;-0.169362
9249.000000;-0.169719
9248.000000;-0.170110
9247.000000;-0.170482
9246.000000;-0.170758
9245.000000;-0.170925
9244.000000;-0.171064
9243.000000;-0.171249
9242.000000;-0.171475
9241.000000;-0.171687
9240.000000;-0.171863
9239.000000;-0.172034
9238.000000;-0.172250
9237.000000;-0.172545
9236.000000;-0.172912
9235.000000;-0.173305
9234.000000;-0.173665
9233.000000;-0.173971
9232.000000;-0.174237
9231.000000;-0.174469
9230.000000;-0.174649
9229.000000;-0.174780
9228.000000;-0.174900
9227.000000;-0.175040
9226.000000;-0.175192
9225.000000;-0.175339
9224.000000;-0.175498
9223.000000;-0.175700
9222.000000;-0.175956
9221.000000;-0.176254
9220.000000;-0.176587
9219.000000;-0.176945
9218.000000;-0.177298
9217.000000;-0.177604
9216.000000;-0.177845
9215.000000;-0.178036
9214.000000;-0.178213
9213.000000;-0.178404
9212.000000;-0.178620
9211.000000;-0.178838
9210.000000;-0.179031
9209.000000;-0.179204
9208.000000;-0.179398
9207.000000;-0.179636
9206.000000;-0.179891
9205.000000;-0.180117
9204.000000;-0.180305
9203.000000;-0.180483
9202.000000;-0.180681
9201.000000;-0.180916
9200.000000;-0.181207
9199.000000;-0.181558
9198.000000;-0.181929
9197.000000;-0.182259
9196.000000;-0.182527
9195.000000;-0.182777
9194.000000;-0.183056
9193.000000;-0.183346
9192.000000;-0.183591
9191.000000;-0.183772
9190.000000;-0.183929
9189.000000;-0.184108
9188.000000;-0.184314
9187.000000;-0.184524
9186.000000;-0.184729
9185.000000;-0.184919
9184.000000;-0.185070
9183.000000;-0.185169
9182.000000;-0.185267
9181.000000;-0.185446
9180.000000;-0.185722
9179.000000;-0.186016
9178.000000;-0.186245
9177.000000;-0.186417
9176.000000;-0.186595
9175.000000;-0.186808
9174.000000;-0.187040
9173.000000;-0.187281
9172.000000;-0.187556
9171.000000;-0.187880
9170.000000;-0.188233
9169.000000;-0.188570
9168.000000;-0.188831
9167.000000;-0.188960
9166.000000;-0.188959
9165.000000;-0.188926
9164.000000;-0.189001
9163.000000;-0.189250
9162.000000;-0.189616
9161.000000;-0.189991
9160.000000;-0.190295
9159.000000;-0.190492
9158.000000;-0.190587
9157.000000;-0.190631
9156.000000;-0.190709
9155.000000;-0.190880
9154.000000;-0.191143
9153.000000;-0.191461
9152.000000;-0.191788
9151.000000;-0.192067
9150.000000;-0.192247
9149.000000;-0.192327
9148.000000;-0.192383
9147.000000;-0.192509
9146.000000;-0.192736
9145.000000;-0.193034
9144.000000;-0.193359
9143.000000;-0.193675
9142.000000;-0.193958
9141.000000;-0.194203
9140.000000;-0.194442
9139.000000;-0.194705
9138.000000;-0.194983
9137.000000;-0.195241
9136.000000;-0.195452
9135.000000;-0.195616
9134.000000;-0.195741
9133.000000;-0.195852
9132.000000;-0.195985
9131.000000;-0.196164
9130.000000;-0.196373
9129.000000;-0.196569
9128.000000;-0.196732
9127.000000;-0.196870
9126.000000;-0.197004
9125.000000;-0.197153
9124.000000;-0.197341
9123.000000;-0.197570
9122.000000;-0.197804
9121.000000;-0.197997
9120.000000;-0.198144
9119.000000;-0.198282
9118.000000;-0.198443
9117.000000;-0.198636
9116.000000;-0.198861
9115.000000;-0.199117
9114.000000;-0.199378
9113.000000;-0.199604
9112.000000;-0.199785
9111.000000;-0.199951
9110.000000;-0.200120
9109.000000;-0.200264
9108.000000;-0.200362
9107.000000;-0.200450
9106.000000;-0.200591
9105.000000;-0.200811
9104.000000;-0.201084
9103.000000;-0.201364
9102.000000;-0.201614
9101.000000;-0.201797
9100.000000;-0.201904
9099.000000;-0.201996
9098.000000;-0.202160
9097.000000;-0.202417
9096.000000;-0.202683
9095.000000;-0.202875
9094.000000;-0.203017
9093.000000;-0.203201
9092.000000;-0.203456
9091.000000;-0.203711
9090.000000;-0.203889
9089.000000;-0.204003
9088.000000;-0.204122
9087.000000;-0.204292
9086.000000;-0.204504
9085.000000;-0.204741
9084.000000;-0.204986
