Criado como novo conjunto de dados;"e2410_daniel_v2.spp","181.8 Secs"
cm-1;Abs
10000.000000;0.037527
9999.000000;0.036916
9998.000000;0.036305
9997.000000;0.035695
9996.000000;0.035085
9995.000000;0.034477
9994.000000;0.033869
9993.000000;0.033264
9992.000000;0.032654
9991.000000;0.032182
9990.000000;0.031801
9989.000000;0.031454
9988.000000;0.031107
9987.000000;0.030744
9986.000000;0.030358
9985.000000;0.029904
9984.000000;0.029325
9983.000000;0.028649
9982.000000;0.027989
9981.000000;0.027427
9980.000000;0.026933
9979.000000;0.026442
9978.000000;0.025947
9977.000000;0.025477
9976.000000;0.025042
9975.000000;0.024649
9974.000000;0.024309
9973.000000;0.023979
9972.000000;0.023553
9971.000000;0.023000
9970.000000;0.022444
9969.000000;0.022023
9968.000000;0.021695
9967.000000;0.021278
9966.000000;0.020688
9965.000000;0.020030
9964.000000;0.019445
9963.000000;0.018956
9962.000000;0.018501
9961.000000;0.018035
9960.000000;0.017554
9959.000000;0.017071
9958.000000;0.016624
9957.000000;0.016255
9956.000000;0.015952
9955.000000;0.015609
9954.000000;0.015120
9953.000000;0.014494
9952.000000;0.013856
9951.000000;0.013335
9950.000000;0.012964
9949.000000;0.012679
9948.000000;0.012368
9947.000000;0.011947
9946.000000;0.011402
9945.000000;0.010808
9944.000000;0.010270
9943.000000;0.009842
9942.000000;0.009490
9941.000000;0.009120
9940.000000;0.008652
9939.000000;0.008065
9938.000000;0.007393
9937.000000;0.006700
9936.000000;0.006057
9935.000000;0.005510
9934.000000;0.005044
9933.000000;0.004585
9932.000000;0.004065
9931.000000;0.003490
9930.000000;0.002925
9929.000000;0.002403
9928.000000;0.001899
9927.000000;0.001392
9926.000000;0.000905
9925.000000;0.000464
9924.000000;0.000051
9923.000000;-0.000369
9922.000000;-0.000801
9921.000000;-0.001228
9920.000000;-0.001655
9919.000000;-0.002097
9918.000000;-0.002537
9917.000000;-0.002945
9916.000000;-0.003327
9915.000000;-0.003725
9914.000000;-0.004175
9913.000000;-0.004684
9912.000000;-0.005242
9911.000000;-0.005827
9910.000000;-0.006403
9909.000000;-0.006935
9908.000000;-0.007411
9907.000000;-0.007838
9906.000000;-0.008250
9905.000000;-0.008713
9904.000000;-0.009287
9903.000000;-0.009945
9902.000000;-0.010568
9901.000000;-0.011076
9900.000000;-0.011509
9899.000000;-0.011929
9898.000000;-0.012290
9897.000000;-0.012512
9896.000000;-0.012668
9895.000000;-0.012976
9894.000000;-0.013556
9893.000000;-0.014293
9892.000000;-0.014985
9891.000000;-0.015543
9890.000000;-0.015990
9889.000000;-0.016353
9888.000000;-0.016662
9887.000000;-0.017007
9886.000000;-0.017492
9885.000000;-0.018116
9884.000000;-0.018763
9883.000000;-0.019323
9882.000000;-0.019778
9881.000000;-0.020190
9880.000000;-0.020643
9879.000000;-0.021198
9878.000000;-0.021838
9877.000000;-0.022443
9876.000000;-0.022887
9875.000000;-0.023183
9874.000000;-0.023488
9873.000000;-0.023936
9872.000000;-0.024491
9871.000000;-0.025015
9870.000000;-0.025437
9869.000000;-0.025825
9868.000000;-0.026287
9867.000000;-0.026849
9866.000000;-0.027435
9865.000000;-0.027942
9864.000000;-0.028337
9863.000000;-0.028680
9862.000000;-0.029060
9861.000000;-0.029520
9860.000000;-0.030028
9859.000000;-0.030529
9858.000000;-0.030989
9857.000000;-0.031403
9856.000000;-0.031786
9855.000000;-0.032168
9854.000000;-0.032584
9853.000000;-0.033049
9852.000000;-0.033563
9851.000000;-0.034122
9850.000000;-0.034718
9849.000000;-0.035300
9848.000000;-0.035780
9847.000000;-0.036131
9846.000000;-0.036454
9845.000000;-0.036898
9844.000000;-0.037503
9843.000000;-0.038144
9842.000000;-0.038666
9841.000000;-0.039037
9840.000000;-0.039353
9839.000000;-0.039722
9838.000000;-0.040177
9837.000000;-0.040698
9836.000000;-0.041260
9835.000000;-0.041850
9834.000000;-0.042449
9833.000000;-0.043011
9832.000000;-0.043483
9831.000000;-0.043855
9830.000000;-0.044189
9829.000000;-0.044580
9828.000000;-0.045075
9827.000000;-0.045629
9826.000000;-0.046168
9825.000000;-0.046680
9824.000000;-0.047217
9823.000000;-0.047803
9822.000000;-0.048374
9821.000000;-0.048819
9820.000000;-0.049102
9819.000000;-0.049319
9818.000000;-0.049635
9817.000000;-0.050164
9816.000000;-0.050872
9815.000000;-0.051604
9814.000000;-0.052197
9813.000000;-0.052603
9812.000000;-0.052898
9811.000000;-0.053203
9810.000000;-0.053595
9809.000000;-0.054072
9808.000000;-0.054579
9807.000000;-0.055042
9806.000000;-0.055410
9805.000000;-0.055690
9804.000000;-0.055962
9803.000000;-0.056342
9802.000000;-0.056905
9801.000000;-0.057618
9800.000000;-0.058338
9799.000000;-0.058899
9798.000000;-0.059251
9797.000000;-0.059504
9796.000000;-0.059829
9795.000000;-0.060301
9794.000000;-0.060859
9793.000000;-0.061403
9792.000000;-0.061888
9791.000000;-0.062331
9790.000000;-0.062754
9789.000000;-0.063172
9788.000000;-0.063615
9787.000000;-0.064110
9786.000000;-0.064648
9785.000000;-0.065197
9784.000000;-0.065737
9783.000000;-0.066268
9782.000000;-0.066781
9781.000000;-0.067269
9780.000000;-0.067762
9779.000000;-0.068305
9778.000000;-0.068882
9777.000000;-0.069386
9776.000000;-0.069734
9775.000000;-0.069981
9774.000000;-0.070280
9773.000000;-0.070712
9772.000000;-0.071192
9771.000000;-0.071594
9770.000000;-0.071906
9769.000000;-0.072236
9768.000000;-0.072665
9767.000000;-0.073166
9766.000000;-0.073683
9765.000000;-0.074211
9764.000000;-0.074765
9763.000000;-0.075299
9762.000000;-0.075748
9761.000000;-0.076123
9760.000000;-0.076516
9759.000000;-0.076971
9758.000000;-0.077437
9757.000000;-0.077865
9756.000000;-0.078293
9755.000000;-0.078782
9754.000000;-0.079316
9753.000000;-0.079828
9752.000000;-0.080293
9751.000000;-0.080748
9750.000000;-0.081200
9749.000000;-0.081601
9748.000000;-0.081920
9747.000000;-0.082198
9746.000000;-0.082504
9745.000000;-0.082870
9744.000000;-0.083300
9743.000000;-0.083803
9742.000000;-0.084373
9741.000000;-0.084966
9740.000000;-0.085529
9739.000000;-0.086056
9738.000000;-0.086580
9737.000000;-0.087119
9736.000000;-0.087645
9735.000000;-0.088128
9734.000000;-0.088569
9733.000000;-0.089009
9732.000000;-0.089492
9731.000000;-0.090021
9730.000000;-0.090540
9729.000000;-0.090973
9728.000000;-0.091309
9727.000000;-0.091624
9726.000000;-0.092008
9725.000000;-0.092460
9724.000000;-0.092896
9723.000000;-0.093256
9722.000000;-0.093576
9721.000000;-0.093944
9720.000000;-0.094414
9719.000000;-0.094992
9718.000000;-0.095656
9717.000000;-0.096346
9716.000000;-0.096955
9715.000000;-0.097390
9714.000000;-0.097671
9713.000000;-0.097920
9712.000000;-0.098259
9711.000000;-0.098714
9710.000000;-0.099239
9709.000000;-0.099783
9708.000000;-0.100303
9707.000000;-0.100753
9706.000000;-0.101115
9705.000000;-0.101427
9704.000000;-0.101758
9703.000000;-0.102130
9702.000000;-0.102520
9701.000000;-0.102922
9700.000000;-0.103371
9699.000000;-0.103887
9698.000000;-0.104426
9697.000000;-0.104920
9696.000000;-0.105349
9695.000000;-0.105739
9694.000000;-0.106106
9693.000000;-0.106450
9692.000000;-0.106789
9691.000000;-0.107167
9690.000000;-0.107618
9689.000000;-0.108115
9688.000000;-0.108593
9687.000000;-0.108997
9686.000000;-0.109323
9685.000000;-0.109621
9684.000000;-0.109970
9683.000000;-0.110421
9682.000000;-0.110946
9681.000000;-0.111462
9680.000000;-0.111922
9679.000000;-0.112363
9678.000000;-0.112857
9677.000000;-0.113414
9676.000000;-0.113953
9675.000000;-0.114389
9674.000000;-0.114725
9673.000000;-0.115053
9672.000000;-0.115455
9671.000000;-0.115936
9670.000000;-0.116443
9669.000000;-0.116934
9668.000000;-0.117405
9667.000000;-0.117859
9666.000000;-0.118281
9665.000000;-0.118644
9664.000000;-0.118957
9663.000000;-0.119269
9662.000000;-0.119636
9661.000000;-0.120088
9660.000000;-0.120607
9659.000000;-0.121150
9658.000000;-0.121684
9657.000000;-0.122189
9656.000000;-0.122655
9655.000000;-0.123066
9654.000000;-0.123414
9653.000000;-0.123721
9652.000000;-0.124029
9651.000000;-0.124371
9650.000000;-0.124751
9649.000000;-0.125155
9648.000000;-0.125573
9647.000000;-0.126006
9646.000000;-0.126471
9645.000000;-0.126978
9644.000000;-0.127513
9643.000000;-0.128025
9642.000000;-0.128456
9641.000000;-0.128792
9640.000000;-0.129081
9639.000000;-0.129403
9638.000000;-0.129819
9637.000000;-0.130332
9636.000000;-0.130884
9635.000000;-0.131381
9634.000000;-0.131773
9633.000000;-0.132103
9632.000000;-0.132464
9631.000000;-0.132905
9630.000000;-0.133386
9629.000000;-0.133839
9628.000000;-0.134246
9627.000000;-0.134623
9626.000000;-0.134972
9625.000000;-0.135287
9624.000000;-0.135593
9623.000000;-0.135952
9622.000000;-0.136391
9621.000000;-0.136879
9620.000000;-0.137355
9619.000000;-0.137790
9618.000000;-0.138207
9617.000000;-0.138644
9616.000000;-0.139112
9615.000000;-0.139569
9614.000000;-0.139940
9613.000000;-0.140199
9612.000000;-0.140417
9611.000000;-0.140731
9610.000000;-0.141219
9609.000000;-0.141834
9608.000000;-0.142441
9607.000000;-0.142934
9606.000000;-0.143308
9605.000000;-0.143646
9604.000000;-0.144040
9603.000000;-0.144521
9602.000000;-0.145041
9601.000000;-0.145520
9600.000000;-0.145906
9599.000000;-0.146229
9598.000000;-0.146569
9597.000000;-0.146983
9596.000000;-0.147438
9595.000000;-0.147838
9594.000000;-0.148139
9593.000000;-0.148409
9592.000000;-0.148753
9591.000000;-0.149180
9590.000000;-0.149595
9589.000000;-0.149930
9588.000000;-0.150225
9587.000000;-0.150556
9586.000000;-0.150933
9585.000000;-0.151314
9584.000000;-0.151699
9583.000000;-0.152151
9582.000000;-0.152710
9581.000000;-0.153332
9580.000000;-0.153914
9579.000000;-0.154362
9578.000000;-0.154654
9577.000000;-0.154866
9576.000000;-0.155132
9575.000000;-0.155525
9574.000000;-0.155991
9573.000000;-0.156415
9572.000000;-0.156754
9571.000000;-0.157062
9570.000000;-0.157404
9569.000000;-0.157793
9568.000000;-0.158223
9567.000000;-0.158695
9566.000000;-0.159187
9565.000000;-0.159657
9564.000000;-0.160079
9563.000000;-0.160450
9562.000000;-0.160753
9561.000000;-0.160978
9560.000000;-0.161204
9559.000000;-0.161573
9558.000000;-0.162138
9557.000000;-0.162782
9556.000000;-0.163349
9555.000000;-0.163803
9554.000000;-0.164202
9553.000000;-0.164567
9552.000000;-0.164872
9551.000000;-0.165137
9550.000000;-0.165455
9549.000000;-0.165874
9548.000000;-0.166347
9547.000000;-0.166800
9546.000000;-0.167223
9545.000000;-0.167649
9544.000000;-0.168095
9543.000000;-0.168542
9542.000000;-0.168961
9541.000000;-0.169330
9540.000000;-0.169641
9539.000000;-0.169907
9538.000000;-0.170170
9537.000000;-0.170471
9536.000000;-0.170833
9535.000000;-0.171249
9534.000000;-0.171677
9533.000000;-0.172054
9532.000000;-0.172342
9531.000000;-0.172573
9530.000000;-0.172822
9529.000000;-0.173141
9528.000000;-0.173537
9527.000000;-0.174005
9526.000000;-0.174524
9525.000000;-0.175036
9524.000000;-0.175451
9523.000000;-0.175733
9522.000000;-0.175937
9521.000000;-0.176165
9520.000000;-0.176490
9519.000000;-0.176923
9518.000000;-0.177431
9517.000000;-0.177951
9516.000000;-0.178430
9515.000000;-0.178865
9514.000000;-0.179298
9513.000000;-0.179747
9512.000000;-0.180166
9511.000000;-0.180506
9510.000000;-0.180782
9509.000000;-0.181066
9508.000000;-0.181423
9507.000000;-0.181857
9506.000000;-0.182325
9505.000000;-0.182765
9504.000000;-0.183131
9503.000000;-0.183427
9502.000000;-0.183701
9501.000000;-0.184004
9500.000000;-0.184358
9499.000000;-0.184780
9498.000000;-0.185285
9497.000000;-0.185832
9496.000000;-0.186300
9495.000000;-0.186586
9494.000000;-0.186716
9493.000000;-0.186843
9492.000000;-0.187104
9491.000000;-0.187511
9490.000000;-0.187982
9489.000000;-0.188433
9488.000000;-0.188825
9487.000000;-0.189163
9486.000000;-0.189462
9485.000000;-0.189741
9484.000000;-0.190015
9483.000000;-0.190297
9482.000000;-0.190609
9481.000000;-0.190963
9480.000000;-0.191351
9479.000000;-0.191768
9478.000000;-0.192226
9477.000000;-0.192732
9476.000000;-0.193228
9475.000000;-0.193621
9474.000000;-0.193883
9473.000000;-0.194102
9472.000000;-0.194401
9471.000000;-0.194818
9470.000000;-0.195290
9469.000000;-0.195744
9468.000000;-0.196149
9467.000000;-0.196504
9466.000000;-0.196804
9465.000000;-0.197059
9464.000000;-0.197305
9463.000000;-0.197593
9462.000000;-0.197943
9461.000000;-0.198334
9460.000000;-0.198729
9459.000000;-0.199101
9458.000000;-0.199456
9457.000000;-0.199825
9456.000000;-0.200229
9455.000000;-0.200652
9454.000000;-0.201045
9453.000000;-0.201377
9452.000000;-0.201674
9451.000000;-0.201997
9450.000000;-0.202386
9449.000000;-0.202822
9448.000000;-0.203257
9447.000000;-0.203651
9446.000000;-0.203999
9445.000000;-0.204312
9444.000000;-0.204600
9443.000000;-0.204856
9442.000000;-0.205068
9441.000000;-0.205233
9440.000000;-0.205384
9439.000000;-0.205584
9438.000000;-0.205883
9437.000000;-0.206281
9436.000000;-0.206726
9435.000000;-0.207164
9434.000000;-0.207581
9433.000000;-0.207989
9432.000000;-0.208402
9431.000000;-0.208817
9430.000000;-0.209223
9429.000000;-0.209604
9428.000000;-0.209941
9427.000000;-0.210228
9426.000000;-0.210479
9425.000000;-0.210721
9424.000000;-0.210975
9423.000000;-0.211264
9422.000000;-0.211612
9421.000000;-0.212034
9420.000000;-0.212497
9419.000000;-0.212935
9418.000000;-0.213315
9417.000000;-0.213671
9416.000000;-0.214060
9415.000000;-0.214477
9414.000000;-0.214841
9413.000000;-0.215072
9412.000000;-0.215181
9411.000000;-0.215274
9410.000000;-0.215478
9409.000000;-0.215852
9408.000000;-0.216358
9407.000000;-0.216901
9406.000000;-0.217381
9405.000000;-0.217746
9404.000000;-0.218015
9403.000000;-0.218263
9402.000000;-0.218556
9401.000000;-0.218902
9400.000000;-0.219237
9399.000000;-0.219508
9398.000000;-0.219747
9397.000000;-0.220061
9396.000000;-0.220522
9395.000000;-0.221070
9394.000000;-0.221559
9393.000000;-0.221898
9392.000000;-0.222135
9391.000000;-0.222384
9390.000000;-0.222690
9389.000000;-0.222993
9388.000000;-0.223220
9387.000000;-0.223374
9386.000000;-0.223534
9385.000000;-0.223774
9384.000000;-0.224107
9383.000000;-0.224481
9382.000000;-0.224831
9381.000000;-0.225129
9380.000000;-0.225413
9379.000000;-0.225757
9378.000000;-0.226205
9377.000000;-0.226713
9376.000000;-0.227189
9375.000000;-0.227566
9374.000000;-0.227833
9373.000000;-0.228027
9372.000000;-0.228203
9371.000000;-0.228424
9370.000000;-0.228714
9369.000000;-0.229038
9368.000000;-0.229351
9367.000000;-0.229655
9366.000000;-0.229986
9365.000000;-0.230336
9364.000000;-0.230646
9363.000000;-0.230880
9362.000000;-0.231083
9361.000000;-0.231319
9360.000000;-0.231614
9359.000000;-0.231961
9358.000000;-0.232370
9357.000000;-0.232835
9356.000000;-0.233290
9355.000000;-0.233648
9354.000000;-0.233890
9353.000000;-0.234094
9352.000000;-0.234366
9351.000000;-0.234744
9350.000000;-0.235175
9349.000000;-0.235555
9348.000000;-0.235813
9347.000000;-0.235979
9346.000000;-0.236157
9345.000000;-0.236411
9344.000000;-0.236690
9343.000000;-0.236919
9342.000000;-0.237105
9341.000000;-0.237333
9340.000000;-0.237649
9339.000000;-0.238019
9338.000000;-0.238386
9337.000000;-0.238723
9336.000000;-0.239026
9335.000000;-0.239319
9334.000000;-0.239659
9333.000000;-0.240084
9332.000000;-0.240547
9331.000000;-0.240935
9330.000000;-0.241208
9329.000000;-0.241440
9328.000000;-0.241719
9327.000000;-0.242045
9326.000000;-0.242370
9325.000000;-0.242669
9324.000000;-0.242934
9323.000000;-0.243141
9322.000000;-0.243292
9321.000000;-0.243462
9320.000000;-0.243737
9319.000000;-0.244106
9318.000000;-0.244476
9317.000000;-0.244780
9316.000000;-0.245033
9315.000000;-0.245271
9314.000000;-0.245489
9313.000000;-0.245678
9312.000000;-0.245866
9311.000000;-0.246105
9310.000000;-0.246423
9309.000000;-0.246804
9308.000000;-0.247216
9307.000000;-0.247621
9306.000000;-0.247996
9305.000000;-0.248329
9304.000000;-0.248627
9303.000000;-0.248907
9302.000000;-0.249190
9301.000000;-0.249479
9300.000000;-0.249742
9299.000000;-0.249934
9298.000000;-0.250063
9297.000000;-0.250215
9296.000000;-0.250487
9295.000000;-0.250875
9294.000000;-0.251274
9293.000000;-0.251585
9292.000000;-0.251809
9291.000000;-0.252021
9290.000000;-0.252277
9289.000000;-0.252571
9288.000000;-0.252874
9287.000000;-0.253177
9286.000000;-0.253481
9285.000000;-0.253772
9284.000000;-0.254036
9283.000000;-0.254283
9282.000000;-0.254552
9281.000000;-0.254857
9280.000000;-0.255157
9279.000000;-0.255412
9278.000000;-0.255635
9277.000000;-0.255877
9276.000000;-0.256148
9275.000000;-0.256399
9274.000000;-0.256597
9273.000000;-0.256792
9272.000000;-0.257067
9271.000000;-0.257441
9270.000000;-0.257853
9269.000000;-0.258224
9268.000000;-0.258527
9267.000000;-0.258782
9266.000000;-0.259020
9265.000000;-0.259259
9264.000000;-0.259516
9263.000000;-0.259812
9262.000000;-0.260161
9261.000000;-0.260546
9260.000000;-0.260907
9259.000000;-0.261178
9258.000000;-0.261351
9257.000000;-0.261486
9256.000000;-0.261643
9255.000000;-0.261831
9254.000000;-0.262035
9253.000000;-0.262271
9252.000000;-0.262576
9251.000000;-0.262948
9250.000000;-0.263331
9249.000000;-0.263658
9248.000000;-0.263899
9247.000000;-0.264064
9246.000000;-0.264198
9245.000000;-0.264369
9244.000000;-0.264634
9243.000000;-0.264992
9242.000000;-0.265387
9241.000000;-0.265754
9240.000000;-0.266073
9239.000000;-0.266352
9238.000000;-0.266601
9237.000000;-0.266829
9236.000000;-0.267047
9235.000000;-0.267263
9234.000000;-0.267476
9233.000000;-0.267690
9232.000000;-0.267924
9231.000000;-0.268192
9230.000000;-0.268467
9229.000000;-0.268711
9228.000000;-0.268933
9227.000000;-0.269200
9226.000000;-0.269556
9225.000000;-0.269934
9224.000000;-0.270208
9223.000000;-0.270327
9222.000000;-0.270377
9221.000000;-0.270490
9220.000000;-0.270721
9219.000000;-0.271026
9218.000000;-0.271348
9217.000000;-0.271662
9216.000000;-0.271952
9215.000000;-0.272203
9214.000000;-0.272443
9213.000000;-0.272736
9212.000000;-0.273105
9211.000000;-0.273481
9210.000000;-0.273775
9209.000000;-0.273978
9208.000000;-0.274159
9207.000000;-0.274368
9206.000000;-0.274594
9205.000000;-0.274807
9204.000000;-0.275002
9203.000000;-0.275198
9202.000000;-0.275408
9201.000000;-0.275629
9200.000000;-0.275840
9199.000000;-0.276018
9198.000000;-0.276159
9197.000000;-0.276295
9196.000000;-0.276472
9195.000000;-0.276707
9194.000000;-0.276984
9193.000000;-0.277286
9192.000000;-0.277601
9191.000000;-0.277921
9190.000000;-0.278248
9189.000000;-0.278605
9188.000000;-0.278997
9187.000000;-0.279365
9186.000000;-0.279620
9185.000000;-0.279737
9184.000000;-0.279798
9183.000000;-0.279917
9182.000000;-0.280141
9181.000000;-0.280443
9180.000000;-0.280760
9179.000000;-0.281041
9178.000000;-0.281255
9177.000000;-0.281397
9176.000000;-0.281502
9175.000000;-0.281623
9174.000000;-0.281809
9173.000000;-0.282068
9172.000000;-0.282362
9171.000000;-0.282629
9170.000000;-0.282847
9169.000000;-0.283061
9168.000000;-0.283321
9167.000000;-0.283597
9166.000000;-0.283797
9165.000000;-0.283895
9164.000000;-0.283981
9163.000000;-0.284162
9162.000000;-0.284443
9161.000000;-0.284733
9160.000000;-0.284967
9159.000000;-0.285161
9158.000000;-0.285363
9157.000000;-0.285582
9156.000000;-0.285806
9155.000000;-0.286037
9154.000000;-0.286292
9153.000000;-0.286573
9152.000000;-0.286852
9151.000000;-0.287107
9150.000000;-0.287336
9149.000000;-0.287555
9148.000000;-0.287774
9147.000000;-0.287990
9146.000000;-0.288195
9145.000000;-0.288391
9144.000000;-0.288586
9143.000000;-0.288789
9142.000000;-0.289014
9141.000000;-0.289281
9140.000000;-0.289595
9139.000000;-0.289923
9138.000000;-0.290199
9137.000000;-0.290371
9136.000000;-0.290453
9135.000000;-0.290529
9134.000000;-0.290690
9133.000000;-0.290960
9132.000000;-0.291285
9131.000000;-0.291582
9130.000000;-0.291803
9129.000000;-0.291957
9128.000000;-0.292078
9127.000000;-0.292194
9126.000000;-0.292333
9125.000000;-0.292527
9124.000000;-0.292787
9123.000000;-0.293068
9122.000000;-0.293295
9121.000000;-0.293436
9120.000000;-0.293542
9119.000000;-0.293702
9118.000000;-0.293958
9117.000000;-0.294278
9116.000000;-0.294588
9115.000000;-0.294846
9114.000000;-0.295063
9113.000000;-0.295275
9112.000000;-0.295497
9111.000000;-0.295702
9110.000000;-0.295857
9109.000000;-0.295965
9108.000000;-0.296068
9107.000000;-0.296218
9106.000000;-0.296450
9105.000000;-0.296763
9104.000000;-0.297116
9103.000000;-0.297435
9102.000000;-0.297652
9101.000000;-0.297765
9100.000000;-0.297834
9099.000000;-0.297927
9098.000000;-0.298060
9097.000000;-0.298216
9096.000000;-0.298390
9095.000000;-0.298605
9094.000000;-0.298880
9093.000000;-0.299201
