Criado como novo conjunto de dados;"e2410_daniel_v2.spp","65885.2 Secs"
cm-1;Abs
10000.000000;1.261751
9999.000000;1.260979
9998.000000;1.260209
9997.000000;1.259440
9996.000000;1.258671
9995.000000;1.257907
9994.000000;1.257137
9993.000000;1.256383
9992.000000;1.255604
9991.000000;1.254873
9990.000000;1.254048
9989.000000;1.253644
9988.000000;1.253733
9987.000000;1.253492
9986.000000;1.252678
9985.000000;1.251636
9984.000000;1.250861
9983.000000;1.250558
9982.000000;1.250847
9981.000000;1.251625
9980.000000;1.252198
9979.000000;1.251713
9978.000000;1.250152
9977.000000;1.248385
9976.000000;1.247159
9975.000000;1.246511
9974.000000;1.246113
9973.000000;1.245598
9972.000000;1.244577
9971.000000;1.243035
9970.000000;1.241747
9969.000000;1.241609
9968.000000;1.242436
9967.000000;1.243032
9966.000000;1.242600
9965.000000;1.241487
9964.000000;1.240454
9963.000000;1.239927
9962.000000;1.240097
9961.000000;1.240945
9960.000000;1.241852
9959.000000;1.241905
9958.000000;1.240937
9957.000000;1.239704
9956.000000;1.238755
9955.000000;1.237803
9954.000000;1.236510
9953.000000;1.235229
9952.000000;1.234521
9951.000000;1.234417
9950.000000;1.234543
9949.000000;1.234605
9948.000000;1.234415
9947.000000;1.233827
9946.000000;1.232932
9945.000000;1.232004
9944.000000;1.231075
9943.000000;1.229952
9942.000000;1.228780
9941.000000;1.228115
9940.000000;1.228242
9939.000000;1.228807
9938.000000;1.229259
9937.000000;1.229289
9936.000000;1.228794
9935.000000;1.227886
9934.000000;1.227053
9933.000000;1.226783
9932.000000;1.226893
9931.000000;1.226723
9930.000000;1.226102
9929.000000;1.225528
9928.000000;1.225252
9927.000000;1.224834
9926.000000;1.223877
9925.000000;1.222616
9924.000000;1.221451
9923.000000;1.220395
9922.000000;1.219343
9921.000000;1.218452
9920.000000;1.217918
9919.000000;1.217667
9918.000000;1.217538
9917.000000;1.217470
9916.000000;1.217365
9915.000000;1.217124
9914.000000;1.216909
9913.000000;1.216978
9912.000000;1.217130
9911.000000;1.216764
9910.000000;1.215667
9909.000000;1.214324
9908.000000;1.213279
9907.000000;1.212608
9906.000000;1.212206
9905.000000;1.212101
9904.000000;1.212234
9903.000000;1.212338
9902.000000;1.212251
9901.000000;1.212063
9900.000000;1.211785
9899.000000;1.211207
9898.000000;1.210192
9897.000000;1.208865
9896.000000;1.207494
9895.000000;1.206447
9894.000000;1.206150
9893.000000;1.206610
9892.000000;1.207084
9891.000000;1.206779
9890.000000;1.205871
9889.000000;1.205273
9888.000000;1.205378
9887.000000;1.205686
9886.000000;1.205642
9885.000000;1.205126
9884.000000;1.204041
9883.000000;1.202288
9882.000000;1.200424
9881.000000;1.199519
9880.000000;1.199895
9879.000000;1.200614
9878.000000;1.200617
9877.000000;1.199870
9876.000000;1.198967
9875.000000;1.198182
9874.000000;1.197470
9873.000000;1.196958
9872.000000;1.196816
9871.000000;1.196827
9870.000000;1.196546
9869.000000;1.195766
9868.000000;1.194593
9867.000000;1.193287
9866.000000;1.192244
9865.000000;1.191854
9864.000000;1.192103
9863.000000;1.192511
9862.000000;1.192659
9861.000000;1.192538
9860.000000;1.192262
9859.000000;1.191763
9858.000000;1.190995
9857.000000;1.190122
9856.000000;1.189272
9855.000000;1.188362
9854.000000;1.187390
9853.000000;1.186654
9852.000000;1.186452
9851.000000;1.186748
9850.000000;1.187239
9849.000000;1.187584
9848.000000;1.187474
9847.000000;1.186775
9846.000000;1.185722
9845.000000;1.184722
9844.000000;1.183843
9843.000000;1.182784
9842.000000;1.181447
9841.000000;1.180265
9840.000000;1.179784
9839.000000;1.180073
9838.000000;1.180619
9837.000000;1.180654
9836.000000;1.179699
9835.000000;1.178038
9834.000000;1.176622
9833.000000;1.176228
9832.000000;1.176723
9831.000000;1.177320
9830.000000;1.177450
9829.000000;1.177098
9828.000000;1.176450
9827.000000;1.175637
9826.000000;1.174838
9825.000000;1.174243
9824.000000;1.173872
9823.000000;1.173673
9822.000000;1.173703
9821.000000;1.173883
9820.000000;1.173748
9819.000000;1.172895
9818.000000;1.171567
9817.000000;1.170353
9816.000000;1.169428
9815.000000;1.168549
9814.000000;1.167693
9813.000000;1.167138
9812.000000;1.166961
9811.000000;1.166969
9810.000000;1.167100
9809.000000;1.167382
9808.000000;1.167545
9807.000000;1.167221
9806.000000;1.166535
9805.000000;1.165922
9804.000000;1.165388
9803.000000;1.164551
9802.000000;1.163444
9801.000000;1.162602
9800.000000;1.162249
9799.000000;1.162005
9798.000000;1.161566
9797.000000;1.161078
9796.000000;1.160667
9795.000000;1.160151
9794.000000;1.159437
9793.000000;1.158717
9792.000000;1.158103
9791.000000;1.157511
9790.000000;1.157039
9789.000000;1.156951
9788.000000;1.157183
9787.000000;1.157324
9786.000000;1.157193
9785.000000;1.156925
9784.000000;1.156436
9783.000000;1.155459
9782.000000;1.154296
9781.000000;1.153817
9780.000000;1.154316
9779.000000;1.154948
9778.000000;1.154717
9777.000000;1.153623
9776.000000;1.152403
9775.000000;1.151509
9774.000000;1.150813
9773.000000;1.150057
9772.000000;1.149197
9771.000000;1.148385
9770.000000;1.147828
9769.000000;1.147575
9768.000000;1.147348
9767.000000;1.146772
9766.000000;1.145818
9765.000000;1.144819
9764.000000;1.144066
9763.000000;1.143686
9762.000000;1.143817
9761.000000;1.144439
9760.000000;1.144999
9759.000000;1.144710
9758.000000;1.143414
9757.000000;1.141777
9756.000000;1.140491
9755.000000;1.139670
9754.000000;1.139163
9753.000000;1.138981
9752.000000;1.139112
9751.000000;1.139217
9750.000000;1.138821
9749.000000;1.137730
9748.000000;1.136229
9747.000000;1.134994
9746.000000;1.134705
9745.000000;1.135382
9744.000000;1.136121
9743.000000;1.135872
9742.000000;1.134562
9741.000000;1.133096
9740.000000;1.132261
9739.000000;1.132062
9738.000000;1.132116
9737.000000;1.132190
9736.000000;1.132236
9735.000000;1.132279
9734.000000;1.132429
9733.000000;1.132687
9732.000000;1.132683
9731.000000;1.131979
9730.000000;1.130645
9729.000000;1.129244
9728.000000;1.128230
9727.000000;1.127694
9726.000000;1.127580
9725.000000;1.127687
9724.000000;1.127521
9723.000000;1.126698
9722.000000;1.125508
9721.000000;1.124587
9720.000000;1.124019
9719.000000;1.123341
9718.000000;1.122446
9717.000000;1.121831
9716.000000;1.121799
9715.000000;1.122018
9714.000000;1.122096
9713.000000;1.121976
9712.000000;1.121541
9711.000000;1.120461
9710.000000;1.118856
9709.000000;1.117544
9708.000000;1.117179
9707.000000;1.117449
9706.000000;1.117542
9705.000000;1.117136
9704.000000;1.116575
9703.000000;1.116255
9702.000000;1.116193
9701.000000;1.116131
9700.000000;1.115886
9699.000000;1.115596
9698.000000;1.115598
9697.000000;1.115889
9696.000000;1.115843
9695.000000;1.114830
9694.000000;1.113093
9693.000000;1.111560
9692.000000;1.110784
9691.000000;1.110503
9690.000000;1.110285
9689.000000;1.110073
9688.000000;1.109909
9687.000000;1.109631
9686.000000;1.109158
9685.000000;1.108689
9684.000000;1.108349
9683.000000;1.107954
9682.000000;1.107363
9681.000000;1.106758
9680.000000;1.106339
9679.000000;1.106029
9678.000000;1.105692
9677.000000;1.105382
9676.000000;1.105129
9675.000000;1.104731
9674.000000;1.104003
9673.000000;1.103083
9672.000000;1.102267
9671.000000;1.101675
9670.000000;1.101252
9669.000000;1.100960
9668.000000;1.100794
9667.000000;1.100639
9666.000000;1.100252
9665.000000;1.099407
9664.000000;1.098143
9663.000000;1.096906
9662.000000;1.096312
9661.000000;1.096556
9660.000000;1.097167
9659.000000;1.097539
9658.000000;1.097533
9657.000000;1.097316
9656.000000;1.096867
9655.000000;1.096071
9654.000000;1.095138
9653.000000;1.094456
9652.000000;1.094059
9651.000000;1.093680
9650.000000;1.093267
9649.000000;1.092995
9648.000000;1.092795
9647.000000;1.092341
9646.000000;1.091575
9645.000000;1.090807
9644.000000;1.090242
9643.000000;1.089761
9642.000000;1.089235
9641.000000;1.088726
9640.000000;1.088342
9639.000000;1.088211
9638.000000;1.088478
9637.000000;1.088968
9636.000000;1.089003
9635.000000;1.088089
9634.000000;1.086723
9633.000000;1.085919
9632.000000;1.085953
9631.000000;1.086123
9630.000000;1.085781
9629.000000;1.084997
9628.000000;1.084129
9627.000000;1.083358
9626.000000;1.082874
9625.000000;1.082895
9624.000000;1.083199
9623.000000;1.083133
9622.000000;1.082394
9621.000000;1.081422
9620.000000;1.080717
9619.000000;1.080202
9618.000000;1.079531
9617.000000;1.078651
9616.000000;1.077764
9615.000000;1.077004
9614.000000;1.076461
9613.000000;1.076271
9612.000000;1.076414
9611.000000;1.076586
9610.000000;1.076459
9609.000000;1.075992
9608.000000;1.075424
9607.000000;1.075116
9606.000000;1.075357
9605.000000;1.076047
9604.000000;1.076586
9603.000000;1.076377
9602.000000;1.075444
9601.000000;1.074278
9600.000000;1.073169
9599.000000;1.072123
9598.000000;1.071321
9597.000000;1.071072
9596.000000;1.071190
9595.000000;1.070979
9594.000000;1.070083
9593.000000;1.068942
9592.000000;1.068176
9591.000000;1.067919
9590.000000;1.067917
9589.000000;1.067895
9588.000000;1.067606
9587.000000;1.066901
9586.000000;1.066012
9585.000000;1.065443
9584.000000;1.065339
9583.000000;1.065252
9582.000000;1.064729
9581.000000;1.063865
9580.000000;1.063026
9579.000000;1.062303
9578.000000;1.061501
9577.000000;1.060516
9576.000000;1.059504
9575.000000;1.058782
9574.000000;1.058636
9573.000000;1.059102
9572.000000;1.059867
9571.000000;1.060528
9570.000000;1.060915
9569.000000;1.060969
9568.000000;1.060464
9567.000000;1.059279
9566.000000;1.057881
9565.000000;1.057031
9564.000000;1.056866
9563.000000;1.056701
9562.000000;1.055915
9561.000000;1.054707
9560.000000;1.053745
9559.000000;1.053382
9558.000000;1.053439
9557.000000;1.053513
9556.000000;1.053283
9555.000000;1.052697
9554.000000;1.052041
9553.000000;1.051698
9552.000000;1.051743
9551.000000;1.051891
9550.000000;1.051844
9549.000000;1.051513
9548.000000;1.050922
9547.000000;1.050132
9546.000000;1.049313
9545.000000;1.048642
9544.000000;1.048117
9543.000000;1.047654
9542.000000;1.047326
9541.000000;1.047226
9540.000000;1.047192
9539.000000;1.046999
9538.000000;1.046792
9537.000000;1.046912
9536.000000;1.047293
9535.000000;1.047409
9534.000000;1.046938
9533.000000;1.046116
9532.000000;1.045347
9531.000000;1.044795
9530.000000;1.044458
9529.000000;1.044286
9528.000000;1.044080
9527.000000;1.043583
9526.000000;1.042816
9525.000000;1.042073
9524.000000;1.041462
9523.000000;1.040731
9522.000000;1.039678
9521.000000;1.038505
9520.000000;1.037653
9519.000000;1.037438
9518.000000;1.037873
9517.000000;1.038618
9516.000000;1.039081
9515.000000;1.038836
9514.000000;1.038046
9513.000000;1.037286
9512.000000;1.036976
9511.000000;1.037129
9510.000000;1.037527
9509.000000;1.037802
9508.000000;1.037477
9507.000000;1.036347
9506.000000;1.034841
9505.000000;1.033654
9504.000000;1.032967
9503.000000;1.032371
9502.000000;1.031565
9501.000000;1.030783
9500.000000;1.030418
9499.000000;1.030552
9498.000000;1.030945
9497.000000;1.031242
9496.000000;1.031139
9495.000000;1.030622
9494.000000;1.030024
9493.000000;1.029591
9492.000000;1.029058
9491.000000;1.028012
9490.000000;1.026615
9489.000000;1.025549
9488.000000;1.025205
9487.000000;1.025337
9486.000000;1.025562
9485.000000;1.025785
9484.000000;1.025983
9483.000000;1.025968
9482.000000;1.025561
9481.000000;1.024774
9480.000000;1.023722
9479.000000;1.022608
9478.000000;1.021775
9477.000000;1.021447
9476.000000;1.021385
9475.000000;1.021139
9474.000000;1.020679
9473.000000;1.020416
9472.000000;1.020538
9471.000000;1.020738
9470.000000;1.020650
9469.000000;1.020174
9468.000000;1.019269
9467.000000;1.017924
9466.000000;1.016512
9465.000000;1.015741
9464.000000;1.015950
9463.000000;1.016716
9462.000000;1.017373
9461.000000;1.017649
9460.000000;1.017606
9459.000000;1.017251
9458.000000;1.016526
9457.000000;1.015537
9456.000000;1.014547
9455.000000;1.013784
9454.000000;1.013365
9453.000000;1.013264
9452.000000;1.013314
9451.000000;1.013328
9450.000000;1.013275
9449.000000;1.013197
9448.000000;1.013015
9447.000000;1.012588
9446.000000;1.011929
9445.000000;1.011164
9444.000000;1.010348
9443.000000;1.009567
9442.000000;1.009094
9441.000000;1.009091
9440.000000;1.009188
9439.000000;1.008779
9438.000000;1.007794
9437.000000;1.006802
9436.000000;1.006298
9435.000000;1.006236
9434.000000;1.006322
9433.000000;1.006404
9432.000000;1.006444
9431.000000;1.006428
9430.000000;1.006415
9429.000000;1.006408
9428.000000;1.006142
9427.000000;1.005328
9426.000000;1.004159
9425.000000;1.003248
9424.000000;1.002944
9423.000000;1.003037
9422.000000;1.003174
9421.000000;1.003226
9420.000000;1.003139
9419.000000;1.002808
9418.000000;1.002321
9417.000000;1.001987
9416.000000;1.001926
9415.000000;1.001890
9414.000000;1.001639
9413.000000;1.001213
9412.000000;1.000694
9411.000000;1.000029
9410.000000;0.999292
9409.000000;0.998767
9408.000000;0.998511
9407.000000;0.998110
9406.000000;0.997210
9405.000000;0.996109
9404.000000;0.995467
9403.000000;0.995519
9402.000000;0.995856
9401.000000;0.995963
9400.000000;0.995732
9399.000000;0.995390
9398.000000;0.995093
9397.000000;0.994733
9396.000000;0.994145
9395.000000;0.993404
9394.000000;0.992797
9393.000000;0.992470
9392.000000;0.992244
9391.000000;0.991896
9390.000000;0.991480
9389.000000;0.991178
9388.000000;0.990975
9387.000000;0.990684
9386.000000;0.990233
9385.000000;0.989695
9384.000000;0.989104
9383.000000;0.988472
9382.000000;0.987942
9381.000000;0.987679
9380.000000;0.987605
9379.000000;0.987485
9378.000000;0.987249
9377.000000;0.986992
9376.000000;0.986714
9375.000000;0.986328
9374.000000;0.985907
9373.000000;0.985634
9372.000000;0.985489
9371.000000;0.985240
9370.000000;0.984780
9369.000000;0.984233
9368.000000;0.983732
9367.000000;0.983320
9366.000000;0.983078
9365.000000;0.983080
9364.000000;0.983206
9363.000000;0.983229
9362.000000;0.983091
9361.000000;0.982855
9360.000000;0.982444
9359.000000;0.981735
9358.000000;0.980909
9357.000000;0.980383
9356.000000;0.980315
9355.000000;0.980466
9354.000000;0.980611
9353.000000;0.980766
9352.000000;0.980920
9351.000000;0.980822
9350.000000;0.980228
9349.000000;0.979220
9348.000000;0.978155
9347.000000;0.977398
9346.000000;0.977129
9345.000000;0.977219
9344.000000;0.977280
9343.000000;0.976976
9342.000000;0.976325
9341.000000;0.975586
9340.000000;0.974935
9339.000000;0.974413
9338.000000;0.974087
9337.000000;0.973978
9336.000000;0.973903
9335.000000;0.973662
9334.000000;0.973341
9333.000000;0.973167
9332.000000;0.973084
9331.000000;0.972804
9330.000000;0.972249
9329.000000;0.971612
9328.000000;0.970975
9327.000000;0.970232
9326.000000;0.969439
9325.000000;0.968885
9324.000000;0.968667
9323.000000;0.968508
9322.000000;0.968176
9321.000000;0.967801
9320.000000;0.967609
9319.000000;0.967553
9318.000000;0.967427
9317.000000;0.967211
9316.000000;0.967108
9315.000000;0.967285
9314.000000;0.967675
9313.000000;0.967979
9312.000000;0.967839
9311.000000;0.967121
9310.000000;0.966035
9309.000000;0.964941
9308.000000;0.964053
9307.000000;0.963431
9306.000000;0.963149
9305.000000;0.963256
9304.000000;0.963585
9303.000000;0.963808
9302.000000;0.963730
9301.000000;0.963416
9300.000000;0.963045
9299.000000;0.962755
9298.000000;0.962579
9297.000000;0.962384
9296.000000;0.961929
9295.000000;0.961162
9294.000000;0.960389
9293.000000;0.959989
9292.000000;0.960005
9291.000000;0.960173
9290.000000;0.960272
9289.000000;0.960220
9288.000000;0.959941
9287.000000;0.959389
9286.000000;0.958738
9285.000000;0.958310
9284.000000;0.958249
9283.000000;0.958368
9282.000000;0.958318
9281.000000;0.957843
9280.000000;0.956982
9279.000000;0.956143
9278.000000;0.955796
9277.000000;0.955930
9276.000000;0.955966
9275.000000;0.955433
9274.000000;0.954557
9273.000000;0.953920
9272.000000;0.953710
9271.000000;0.953622
9270.000000;0.953383
9269.000000;0.953032
9268.000000;0.952731
9267.000000;0.952583
9266.000000;0.952634
9265.000000;0.952797
9264.000000;0.952799
9263.000000;0.952432
9262.000000;0.951797
9261.000000;0.951103
9260.000000;0.950369
9259.000000;0.949618
9258.000000;0.949149
9257.000000;0.949231
9256.000000;0.949584
9255.000000;0.949598
9254.000000;0.949082
9253.000000;0.948422
9252.000000;0.947998
9251.000000;0.947793
9250.000000;0.947634
9249.000000;0.947455
9248.000000;0.947209
9247.000000;0.946828
9246.000000;0.946386
9245.000000;0.946065
9244.000000;0.945889
9243.000000;0.945705
9242.000000;0.945481
9241.000000;0.945359
9240.000000;0.945372
9239.000000;0.945349
9238.000000;0.945193
9237.000000;0.945038
9236.000000;0.945032
9235.000000;0.945102
9234.000000;0.945013
9233.000000;0.944555
9232.000000;0.943709
9231.000000;0.942734
9230.000000;0.942025
9229.000000;0.941708
9228.000000;0.941476
9227.000000;0.941014
9226.000000;0.940451
9225.000000;0.940155
9224.000000;0.940183
9223.000000;0.940266
9222.000000;0.940266
9221.000000;0.940300
9220.000000;0.940366
9219.000000;0.940216
9218.000000;0.939708
9217.000000;0.939044
9216.000000;0.938524
9215.000000;0.938232
9214.000000;0.938062
9213.000000;0.937886
9212.000000;0.937639
9211.000000;0.937351
9210.000000;0.937109
9209.000000;0.936931
9208.000000;0.936712
9207.000000;0.936386
9206.000000;0.936021
9205.000000;0.935656
9204.000000;0.935174
9203.000000;0.934524
9202.000000;0.933898
9201.000000;0.933505
9200.000000;0.933301
9199.000000;0.933156
9198.000000;0.933132
9197.000000;0.933311
9196.000000;0.933470
9195.000000;0.933261
9194.000000;0.932674
9193.000000;0.932044
9192.000000;0.931654
9191.000000;0.931569
9190.000000;0.931756
9189.000000;0.932057
9188.000000;0.932123
9187.000000;0.931704
9186.000000;0.930992
9185.000000;0.930444
9184.000000;0.930277
9183.000000;0.930327
9182.000000;0.930339
9181.000000;0.930165
9180.000000;0.929741
9179.000000;0.929166
9178.000000;0.928727
9177.000000;0.928625
9176.000000;0.928722
9175.000000;0.928760
9174.000000;0.928706
9173.000000;0.928636
9172.000000;0.928432
9171.000000;0.927899
9170.000000;0.927118
9169.000000;0.926334
9168.000000;0.925598
9167.000000;0.924811
9166.000000;0.924067
9165.000000;0.923635
9164.000000;0.923614
9163.000000;0.923877
9162.000000;0.924272
9161.000000;0.924644
9160.000000;0.924756
9159.000000;0.924517
9158.000000;0.924181
9157.000000;0.924010
9156.000000;0.923881
9155.000000;0.923550
9154.000000;0.923150
9153.000000;0.922984
9152.000000;0.922943
9151.000000;0.922635
9150.000000;0.922070
9149.000000;0.921703
9148.000000;0.921741
9147.000000;0.921862
9146.000000;0.921758
9145.000000;0.921508
9144.000000;0.921260
9143.000000;0.920920
9142.000000;0.920400
9141.000000;0.919872
9140.000000;0.919562
9139.000000;0.919469
9138.000000;0.919453
9137.000000;0.919441
9136.000000;0.919451
9135.000000;0.919513
9134.000000;0.919642
9133.000000;0.919755
9132.000000;0.919642
9131.000000;0.919212
9130.000000;0.918718
9129.000000;0.918517
9128.000000;0.918595
9127.000000;0.918550
9126.000000;0.918071
9125.000000;0.917238
9124.000000;0.916345
9123.000000;0.915634
9122.000000;0.915218
9121.000000;0.915076
9120.000000;0.915096
9119.000000;0.915232
9118.000000;0.915515
9117.000000;0.915833
9116.000000;0.915859
9115.000000;0.915464
9114.000000;0.914995
9113.000000;0.914843
9112.000000;0.914876
9111.000000;0.914627
9110.000000;0.913957
9109.000000;0.913176
9108.000000;0.912559
9107.000000;0.912109
9106.000000;0.911777
9105.000000;0.911566
9104.000000;0.911381
9103.000000;0.911086
9102.000000;0.910746
9101.000000;0.910560
9100.000000;0.910566
9099.000000;0.910654
9098.000000;0.910807
9097.000000;0.911020
9096.000000;0.911066
9095.000000;0.910655
9094.000000;0.909852
9093.000000;0.909004
9092.000000;0.908292
9091.000000;0.907647
9090.000000;0.907074
9089.000000;0.906705
9088.000000;0.906532
9087.000000;0.906420
9086.000000;0.906411
9085.000000;0.906670
9084.000000;0.907114
9083.000000;0.907428
9082.000000;0.907504
9081.000000;0.907538
9080.000000;0.907624
9079.000000;0.907577
9078.000000;0.907246
9077.000000;0.906734
9076.000000;0.906233
9075.000000;0.905868
9074.000000;0.905744
9073.000000;0.905859
9072.000000;0.905939
9071.000000;0.905645
9070.000000;0.905013
9069.000000;0.904433
9068.000000;0.904148
9067.000000;0.904028
9066.000000;0.903866
9065.000000;0.903601
9064.000000;0.903216
9063.000000;0.902707
9062.000000;0.902233
9061.000000;0.902015
9060.000000;0.901989
9059.000000;0.901816
9058.000000;0.901322
9057.000000;0.900727
9056.000000;0.900347
9055.000000;0.900306
9054.000000;0.900557
9053.000000;0.900945
