Criado como novo conjunto de dados;"e2410_daniel_v2.spp","60665.2 Secs"
cm-1;Abs
10000.000000;1.152695
9999.000000;1.152698
9998.000000;1.152696
9997.000000;1.152703
9996.000000;1.152695
9995.000000;1.152717
9994.000000;1.152646
9993.000000;1.152200
9992.000000;1.151550
9991.000000;1.150864
9990.000000;1.150221
9989.000000;1.149593
9988.000000;1.149031
9987.000000;1.148543
9986.000000;1.147849
9985.000000;1.146581
9984.000000;1.144880
9983.000000;1.143532
9982.000000;1.143225
9981.000000;1.143806
9980.000000;1.144449
9979.000000;1.144482
9978.000000;1.143897
9977.000000;1.143094
9976.000000;1.142393
9975.000000;1.141923
9974.000000;1.141767
9973.000000;1.141926
9972.000000;1.142174
9971.000000;1.142147
9970.000000;1.141700
9969.000000;1.141101
9968.000000;1.140720
9967.000000;1.140533
9966.000000;1.140062
9965.000000;1.138892
9964.000000;1.137156
9963.000000;1.135461
9962.000000;1.134396
9961.000000;1.134163
9960.000000;1.134550
9959.000000;1.135081
9958.000000;1.135249
9957.000000;1.134793
9956.000000;1.133862
9955.000000;1.132843
9954.000000;1.131970
9953.000000;1.131150
9952.000000;1.130158
9951.000000;1.128978
9950.000000;1.127905
9949.000000;1.127318
9948.000000;1.127333
9947.000000;1.127623
9946.000000;1.127653
9945.000000;1.127174
9944.000000;1.126470
9943.000000;1.126051
9942.000000;1.126100
9941.000000;1.126306
9940.000000;1.126195
9939.000000;1.125571
9938.000000;1.124629
9937.000000;1.123746
9936.000000;1.123178
9935.000000;1.122853
9934.000000;1.122389
9933.000000;1.121427
9932.000000;1.120057
9931.000000;1.118855
9930.000000;1.118326
9929.000000;1.118342
9928.000000;1.118253
9927.000000;1.117622
9926.000000;1.116693
9925.000000;1.116014
9924.000000;1.115711
9923.000000;1.115348
9922.000000;1.114496
9921.000000;1.113254
9920.000000;1.112116
9919.000000;1.111502
9918.000000;1.111552
9917.000000;1.112190
9916.000000;1.113108
9915.000000;1.113728
9914.000000;1.113501
9913.000000;1.112429
9912.000000;1.111162
9911.000000;1.110404
9910.000000;1.110238
9909.000000;1.110134
9908.000000;1.109577
9907.000000;1.108591
9906.000000;1.107631
9905.000000;1.107058
9904.000000;1.106808
9903.000000;1.106541
9902.000000;1.106015
9901.000000;1.105272
9900.000000;1.104508
9899.000000;1.103884
9898.000000;1.103455
9897.000000;1.103186
9896.000000;1.102956
9895.000000;1.102610
9894.000000;1.102089
9893.000000;1.101480
9892.000000;1.100881
9891.000000;1.100276
9890.000000;1.099603
9889.000000;1.098894
9888.000000;1.098254
9887.000000;1.097758
9886.000000;1.097405
9885.000000;1.097141
9884.000000;1.096845
9883.000000;1.096379
9882.000000;1.095714
9881.000000;1.094928
9880.000000;1.094041
9879.000000;1.092967
9878.000000;1.091754
9877.000000;1.090732
9876.000000;1.090247
9875.000000;1.090296
9874.000000;1.090568
9873.000000;1.090753
9872.000000;1.090711
9871.000000;1.090449
9870.000000;1.090177
9869.000000;1.090249
9868.000000;1.090754
9867.000000;1.091156
9866.000000;1.090676
9865.000000;1.089124
9864.000000;1.087100
9863.000000;1.085327
9862.000000;1.084085
9861.000000;1.083346
9860.000000;1.083121
9859.000000;1.083426
9858.000000;1.084080
9857.000000;1.084757
9856.000000;1.085144
9855.000000;1.084953
9854.000000;1.084018
9853.000000;1.082526
9852.000000;1.081017
9851.000000;1.079920
9850.000000;1.079186
9849.000000;1.078514
9848.000000;1.077848
9847.000000;1.077436
9846.000000;1.077430
9845.000000;1.077622
9844.000000;1.077620
9843.000000;1.077214
9842.000000;1.076537
9841.000000;1.075938
9840.000000;1.075643
9839.000000;1.075492
9838.000000;1.075056
9837.000000;1.074078
9836.000000;1.072757
9835.000000;1.071562
9834.000000;1.070819
9833.000000;1.070551
9832.000000;1.070611
9831.000000;1.070810
9830.000000;1.070929
9829.000000;1.070749
9828.000000;1.070181
9827.000000;1.069360
9826.000000;1.068584
9825.000000;1.068100
9824.000000;1.067906
9823.000000;1.067774
9822.000000;1.067480
9821.000000;1.066994
9820.000000;1.066429
9819.000000;1.065859
9818.000000;1.065271
9817.000000;1.064660
9816.000000;1.064042
9815.000000;1.063380
9814.000000;1.062646
9813.000000;1.061962
9812.000000;1.061529
9811.000000;1.061347
9810.000000;1.061140
9809.000000;1.060666
9808.000000;1.060034
9807.000000;1.059573
9806.000000;1.059409
9805.000000;1.059282
9804.000000;1.058852
9803.000000;1.058141
9802.000000;1.057528
9801.000000;1.057254
9800.000000;1.057060
9799.000000;1.056481
9798.000000;1.055468
9797.000000;1.054461
9796.000000;1.053774
9795.000000;1.053186
9794.000000;1.052347
9793.000000;1.051357
9792.000000;1.050638
9791.000000;1.050346
9790.000000;1.050246
9789.000000;1.050122
9788.000000;1.050006
9787.000000;1.049928
9786.000000;1.049718
9785.000000;1.049191
9784.000000;1.048350
9783.000000;1.047321
9782.000000;1.046250
9781.000000;1.045338
9780.000000;1.044831
9779.000000;1.044844
9778.000000;1.045254
9777.000000;1.045781
9776.000000;1.046083
9775.000000;1.045849
9774.000000;1.045032
9773.000000;1.044026
9772.000000;1.043380
9771.000000;1.043220
9770.000000;1.043067
9769.000000;1.042364
9768.000000;1.041102
9767.000000;1.039821
9766.000000;1.039041
9765.000000;1.038787
9764.000000;1.038639
9763.000000;1.038224
9762.000000;1.037609
9761.000000;1.037142
9760.000000;1.036950
9759.000000;1.036790
9758.000000;1.036467
9757.000000;1.036147
9756.000000;1.036028
9755.000000;1.035901
9754.000000;1.035390
9753.000000;1.034512
9752.000000;1.033638
9751.000000;1.032942
9750.000000;1.032245
9749.000000;1.031425
9748.000000;1.030630
9747.000000;1.029986
9746.000000;1.029414
9745.000000;1.028878
9744.000000;1.028537
9743.000000;1.028502
9742.000000;1.028626
9741.000000;1.028651
9740.000000;1.028404
9739.000000;1.027822
9738.000000;1.026979
9737.000000;1.026148
9736.000000;1.025608
9735.000000;1.025361
9734.000000;1.025232
9733.000000;1.025220
9732.000000;1.025423
9731.000000;1.025615
9730.000000;1.025284
9729.000000;1.024267
9728.000000;1.023012
9727.000000;1.022052
9726.000000;1.021498
9725.000000;1.021197
9724.000000;1.021042
9723.000000;1.020906
9722.000000;1.020558
9721.000000;1.019915
9720.000000;1.019201
9719.000000;1.018651
9718.000000;1.018262
9717.000000;1.017960
9716.000000;1.017780
9715.000000;1.017676
9714.000000;1.017389
9713.000000;1.016750
9712.000000;1.015874
9711.000000;1.014892
9710.000000;1.013724
9709.000000;1.012352
9708.000000;1.011050
9707.000000;1.010095
9706.000000;1.009478
9705.000000;1.009145
9704.000000;1.009252
9703.000000;1.009832
9702.000000;1.010425
9701.000000;1.010473
9700.000000;1.009961
9699.000000;1.009315
9698.000000;1.008755
9697.000000;1.008157
9696.000000;1.007483
9695.000000;1.006949
9694.000000;1.006702
9693.000000;1.006637
9692.000000;1.006609
9691.000000;1.006536
9690.000000;1.006245
9689.000000;1.005467
9688.000000;1.004154
9687.000000;1.002668
9686.000000;1.001548
9685.000000;1.001107
9684.000000;1.001195
9683.000000;1.001283
9682.000000;1.000866
9681.000000;0.999930
9680.000000;0.998968
9679.000000;0.998430
9678.000000;0.998307
9677.000000;0.998342
9676.000000;0.998437
9675.000000;0.998599
9674.000000;0.998674
9673.000000;0.998466
9672.000000;0.998078
9671.000000;0.997792
9670.000000;0.997627
9669.000000;0.997296
9668.000000;0.996646
9667.000000;0.995873
9666.000000;0.995224
9665.000000;0.994740
9664.000000;0.994336
9663.000000;0.993921
9662.000000;0.993351
9661.000000;0.992484
9660.000000;0.991412
9659.000000;0.990482
9658.000000;0.989997
9657.000000;0.989980
9656.000000;0.990251
9655.000000;0.990561
9654.000000;0.990639
9653.000000;0.990298
9652.000000;0.989596
9651.000000;0.988775
9650.000000;0.987974
9649.000000;0.987149
9648.000000;0.986278
9647.000000;0.985475
9646.000000;0.984803
9645.000000;0.984160
9644.000000;0.983505
9643.000000;0.983048
9642.000000;0.983018
9641.000000;0.983298
9640.000000;0.983451
9639.000000;0.983127
9638.000000;0.982363
9637.000000;0.981470
9636.000000;0.980719
9635.000000;0.980117
9634.000000;0.979445
9633.000000;0.978512
9632.000000;0.977455
9631.000000;0.976764
9630.000000;0.976873
9629.000000;0.977632
9628.000000;0.978249
9627.000000;0.977923
9626.000000;0.976615
9625.000000;0.975094
9624.000000;0.974164
9623.000000;0.973934
9622.000000;0.973930
9621.000000;0.973797
9620.000000;0.973633
9619.000000;0.973601
9618.000000;0.973503
9617.000000;0.973003
9616.000000;0.972161
9615.000000;0.971438
9614.000000;0.971136
9613.000000;0.971040
9612.000000;0.970715
9611.000000;0.970010
9610.000000;0.969148
9609.000000;0.968405
9608.000000;0.967858
9607.000000;0.967452
9606.000000;0.967161
9605.000000;0.966992
9604.000000;0.966868
9603.000000;0.966630
9602.000000;0.966168
9601.000000;0.965521
9600.000000;0.964817
9599.000000;0.964188
9598.000000;0.963768
9597.000000;0.963675
9596.000000;0.963877
9595.000000;0.964074
9594.000000;0.963887
9593.000000;0.963219
9592.000000;0.962388
9591.000000;0.961804
9590.000000;0.961580
9589.000000;0.961470
9588.000000;0.961157
9587.000000;0.960541
9586.000000;0.959755
9585.000000;0.959003
9584.000000;0.958415
9583.000000;0.958022
9582.000000;0.957780
9581.000000;0.957575
9580.000000;0.957230
9579.000000;0.956643
9578.000000;0.955957
9577.000000;0.955520
9576.000000;0.955570
9575.000000;0.955963
9574.000000;0.956271
9573.000000;0.956155
9572.000000;0.955606
9571.000000;0.954869
9570.000000;0.954207
9569.000000;0.953711
9568.000000;0.953260
9567.000000;0.952640
9566.000000;0.951785
9565.000000;0.950896
9564.000000;0.950266
9563.000000;0.949990
9562.000000;0.949885
9561.000000;0.949663
9560.000000;0.949106
9559.000000;0.948169
9558.000000;0.947065
9557.000000;0.946218
9556.000000;0.945982
9555.000000;0.946298
9554.000000;0.946702
9553.000000;0.946710
9552.000000;0.946192
9551.000000;0.945355
9550.000000;0.944455
9549.000000;0.943583
9548.000000;0.942711
9547.000000;0.941904
9546.000000;0.941414
9545.000000;0.941464
9544.000000;0.941929
9543.000000;0.942341
9542.000000;0.942305
9541.000000;0.941841
9540.000000;0.941276
9539.000000;0.940895
9538.000000;0.940778
9537.000000;0.940808
9536.000000;0.940695
9535.000000;0.940135
9534.000000;0.939148
9533.000000;0.938168
9532.000000;0.937611
9531.000000;0.937429
9530.000000;0.937304
9529.000000;0.937134
9528.000000;0.937062
9527.000000;0.937064
9526.000000;0.936850
9525.000000;0.936245
9524.000000;0.935402
9523.000000;0.934547
9522.000000;0.933742
9521.000000;0.932998
9520.000000;0.932416
9519.000000;0.932114
9518.000000;0.932086
9517.000000;0.932204
9516.000000;0.932269
9515.000000;0.932075
9514.000000;0.931581
9513.000000;0.930992
9512.000000;0.930522
9511.000000;0.930099
9510.000000;0.929510
9509.000000;0.928810
9508.000000;0.928311
9507.000000;0.928134
9506.000000;0.928037
9505.000000;0.927742
9504.000000;0.927204
9503.000000;0.926491
9502.000000;0.925675
9501.000000;0.924955
9500.000000;0.924580
9499.000000;0.924512
9498.000000;0.924373
9497.000000;0.923906
9496.000000;0.923308
9495.000000;0.922924
9494.000000;0.922817
9493.000000;0.922797
9492.000000;0.922714
9491.000000;0.922550
9490.000000;0.922326
9489.000000;0.922084
9488.000000;0.921863
9487.000000;0.921582
9486.000000;0.921085
9485.000000;0.920379
9484.000000;0.919696
9483.000000;0.919207
9482.000000;0.918841
9481.000000;0.918469
9480.000000;0.918087
9479.000000;0.917697
9478.000000;0.917218
9477.000000;0.916678
9476.000000;0.916288
9475.000000;0.916107
9474.000000;0.915813
9473.000000;0.915048
9472.000000;0.913892
9471.000000;0.912806
9470.000000;0.912170
9469.000000;0.912017
9468.000000;0.912107
9467.000000;0.912100
9466.000000;0.911769
9465.000000;0.911205
9464.000000;0.910750
9463.000000;0.910596
9462.000000;0.910554
9461.000000;0.910347
9460.000000;0.909983
9459.000000;0.909645
9458.000000;0.909370
9457.000000;0.909044
9456.000000;0.908666
9455.000000;0.908355
9454.000000;0.908123
9453.000000;0.907818
9452.000000;0.907325
9451.000000;0.906706
9450.000000;0.906139
9449.000000;0.905800
9448.000000;0.905710
9447.000000;0.905623
9446.000000;0.905177
9445.000000;0.904290
9444.000000;0.903332
9443.000000;0.902750
9442.000000;0.902592
9441.000000;0.902522
9440.000000;0.902221
9439.000000;0.901625
9438.000000;0.900863
9437.000000;0.900170
9436.000000;0.899816
9435.000000;0.899915
9434.000000;0.900257
9433.000000;0.900475
9432.000000;0.900382
9431.000000;0.900077
9430.000000;0.899740
9429.000000;0.899438
9428.000000;0.899082
9427.000000;0.898478
9426.000000;0.897488
9425.000000;0.896277
9424.000000;0.895322
9423.000000;0.895027
9422.000000;0.895311
9421.000000;0.895721
9420.000000;0.895935
9419.000000;0.896019
9418.000000;0.896160
9417.000000;0.896290
9416.000000;0.896069
9415.000000;0.895222
9414.000000;0.893857
9413.000000;0.892474
9412.000000;0.891623
9411.000000;0.891514
9410.000000;0.891919
9409.000000;0.892396
9408.000000;0.892575
9407.000000;0.892299
9406.000000;0.891653
9405.000000;0.890906
9404.000000;0.890303
9403.000000;0.889858
9402.000000;0.889435
9401.000000;0.889025
9400.000000;0.888757
9399.000000;0.888560
9398.000000;0.888102
9397.000000;0.887261
9396.000000;0.886455
9395.000000;0.886211
9394.000000;0.886496
9393.000000;0.886744
9392.000000;0.886531
9391.000000;0.886008
9390.000000;0.885588
9389.000000;0.885430
9388.000000;0.885319
9387.000000;0.884959
9386.000000;0.884298
9385.000000;0.883605
9384.000000;0.883253
9383.000000;0.883348
9382.000000;0.883586
9381.000000;0.883502
9380.000000;0.882883
9379.000000;0.881899
9378.000000;0.880888
9377.000000;0.880104
9376.000000;0.879610
9375.000000;0.879312
9374.000000;0.879058
9373.000000;0.878781
9372.000000;0.878552
9371.000000;0.878445
9370.000000;0.878400
9369.000000;0.878278
9368.000000;0.877994
9367.000000;0.877568
9366.000000;0.877058
9365.000000;0.876556
9364.000000;0.876206
9363.000000;0.876119
9362.000000;0.876255
9361.000000;0.876428
9360.000000;0.876442
9359.000000;0.876198
9358.000000;0.875713
9357.000000;0.875074
9356.000000;0.874356
9355.000000;0.873615
9354.000000;0.872952
9353.000000;0.872548
9352.000000;0.872502
9351.000000;0.872647
9350.000000;0.872624
9349.000000;0.872230
9348.000000;0.871593
9347.000000;0.870957
9346.000000;0.870415
9345.000000;0.869906
9344.000000;0.869377
9343.000000;0.868833
9342.000000;0.868294
9341.000000;0.867798
9340.000000;0.867416
9339.000000;0.867198
9338.000000;0.867135
9337.000000;0.867207
9336.000000;0.867386
9335.000000;0.867537
9334.000000;0.867433
9333.000000;0.866969
9332.000000;0.866317
9331.000000;0.865795
9330.000000;0.865604
9329.000000;0.865710
9328.000000;0.865873
9327.000000;0.865749
9326.000000;0.865127
9325.000000;0.864141
9324.000000;0.863200
9323.000000;0.862593
9322.000000;0.862255
9321.000000;0.861968
9320.000000;0.861678
9319.000000;0.861488
9318.000000;0.861428
9317.000000;0.861350
9316.000000;0.861030
9315.000000;0.860325
9314.000000;0.859340
9313.000000;0.858510
9312.000000;0.858361
9311.000000;0.858988
9310.000000;0.859839
9309.000000;0.860192
9308.000000;0.859849
9307.000000;0.859207
9306.000000;0.858689
9305.000000;0.858308
9304.000000;0.857818
9303.000000;0.857100
9302.000000;0.856297
9301.000000;0.855629
9300.000000;0.855214
9299.000000;0.855036
9298.000000;0.855004
9297.000000;0.854988
9296.000000;0.854823
9295.000000;0.854373
9294.000000;0.853684
9293.000000;0.853030
9292.000000;0.852687
9291.000000;0.852652
9290.000000;0.852684
9289.000000;0.852628
9288.000000;0.852528
9287.000000;0.852400
9286.000000;0.852120
9285.000000;0.851692
9284.000000;0.851442
9283.000000;0.851675
9282.000000;0.852202
9281.000000;0.852443
9280.000000;0.852055
9279.000000;0.851267
9278.000000;0.850534
9277.000000;0.850026
9276.000000;0.849580
9275.000000;0.849054
9274.000000;0.848552
9273.000000;0.848279
9272.000000;0.848240
9271.000000;0.848199
9270.000000;0.847920
9269.000000;0.847385
9268.000000;0.846748
9267.000000;0.846129
9266.000000;0.845568
9265.000000;0.845103
9264.000000;0.844774
9263.000000;0.844549
9262.000000;0.844335
9261.000000;0.844100
9260.000000;0.843877
9259.000000;0.843676
9258.000000;0.843517
9257.000000;0.843531
9256.000000;0.843851
9255.000000;0.844352
9254.000000;0.844661
9253.000000;0.844505
9252.000000;0.843927
9251.000000;0.843124
9250.000000;0.842234
9249.000000;0.841362
9248.000000;0.840616
9247.000000;0.839993
9246.000000;0.839381
9245.000000;0.838790
9244.000000;0.838406
9243.000000;0.838289
9242.000000;0.838224
9241.000000;0.838047
9240.000000;0.837952
9239.000000;0.838233
9238.000000;0.838789
9237.000000;0.839162
9236.000000;0.839035
9235.000000;0.838498
9234.000000;0.837825
9233.000000;0.837198
9232.000000;0.836665
9231.000000;0.836183
9230.000000;0.835670
9229.000000;0.835118
9228.000000;0.834666
9227.000000;0.834452
9226.000000;0.834417
9225.000000;0.834384
9224.000000;0.834304
9223.000000;0.834261
9222.000000;0.834259
9221.000000;0.834158
9220.000000;0.833881
9219.000000;0.833513
9218.000000;0.833146
9217.000000;0.832744
9216.000000;0.832233
9215.000000;0.831651
9214.000000;0.831162
9213.000000;0.830938
9212.000000;0.831007
9211.000000;0.831158
9210.000000;0.831033
9209.000000;0.830466
9208.000000;0.829710
9207.000000;0.829215
9206.000000;0.829143
9205.000000;0.829218
9204.000000;0.829091
9203.000000;0.828739
9202.000000;0.828428
9201.000000;0.828364
9200.000000;0.828483
9199.000000;0.828560
9198.000000;0.828444
9197.000000;0.828177
9196.000000;0.827902
9195.000000;0.827697
9194.000000;0.827500
9193.000000;0.827201
9192.000000;0.826752
9191.000000;0.826201
9190.000000;0.825650
9189.000000;0.825231
9188.000000;0.825057
9187.000000;0.825127
9186.000000;0.825297
9185.000000;0.825378
9184.000000;0.825256
9183.000000;0.824930
9182.000000;0.824492
9181.000000;0.824102
9180.000000;0.823879
9179.000000;0.823745
9178.000000;0.823445
9177.000000;0.822800
9176.000000;0.821910
9175.000000;0.821025
9174.000000;0.820300
9173.000000;0.819786
9172.000000;0.819570
9171.000000;0.819728
9170.000000;0.820113
9169.000000;0.820351
9168.000000;0.820163
9167.000000;0.819650
9166.000000;0.819207
9165.000000;0.819163
9164.000000;0.819512
9163.000000;0.819927
9162.000000;0.820017
9161.000000;0.819624
9160.000000;0.818921
9159.000000;0.818245
9158.000000;0.817826
9157.000000;0.817647
9156.000000;0.817501
9155.000000;0.817176
9154.000000;0.816632
9153.000000;0.816050
9152.000000;0.815647
9151.000000;0.815441
9150.000000;0.815244
9149.000000;0.814953
9148.000000;0.814719
9147.000000;0.814745
9146.000000;0.814977
9145.000000;0.815124
9144.000000;0.814980
9143.000000;0.814596
9142.000000;0.814127
9141.000000;0.813653
9140.000000;0.813196
9139.000000;0.812807
9138.000000;0.812506
9137.000000;0.812193
9136.000000;0.811740
9135.000000;0.811193
9134.000000;0.810796
9133.000000;0.810739
9132.000000;0.810920
9131.000000;0.811026
9130.000000;0.810852
9129.000000;0.810482
9128.000000;0.810112
9127.000000;0.809817
9126.000000;0.809573
9125.000000;0.809420
9124.000000;0.809427
9123.000000;0.809518
9122.000000;0.809494
9121.000000;0.809276
9120.000000;0.808990
9119.000000;0.808752
9118.000000;0.808496
9117.000000;0.808124
9116.000000;0.807719
9115.000000;0.807494
9114.000000;0.807542
9113.000000;0.807734
9112.000000;0.807821
9111.000000;0.807590
9110.000000;0.807002
9109.000000;0.806271
9108.000000;0.805742
9107.000000;0.805596
9106.000000;0.805690
9105.000000;0.805742
9104.000000;0.805636
9103.000000;0.805461
9102.000000;0.805330
9101.000000;0.805267
9100.000000;0.805235
9099.000000;0.805151
9098.000000;0.804887
9097.000000;0.804386
9096.000000;0.803775
9095.000000;0.803281
9094.000000;0.802998
9093.000000;0.802837
9092.000000;0.802706
9091.000000;0.802621
9090.000000;0.802582
9089.000000;0.802454
9088.000000;0.802064
9087.000000;0.801400
9086.000000;0.800643
9085.000000;0.800022
9084.000000;0.799678
9083.000000;0.799622
9082.000000;0.799764
9081.000000;0.799953
9080.000000;0.800044
9079.000000;0.799973
9078.000000;0.799778
9077.000000;0.799533
9076.000000;0.799287
9075.000000;0.799064
9074.000000;0.798872
9073.000000;0.798673
9072.000000;0.798343
9071.000000;0.797750
9070.000000;0.796950
9069.000000;0.796235
9068.000000;0.795896
9067.000000;0.795945
9066.000000;0.796117
9065.000000;0.796159
9064.000000;0.796033
9063.000000;0.795846
9062.000000;0.795692
9061.000000;0.795622
9060.000000;0.795671
9059.000000;0.795823
9058.000000;0.795971
9057.000000;0.795973
9056.000000;0.795760
9055.000000;0.795347
9054.000000;0.794785
9053.000000;0.794176
