Criado como novo conjunto de dados;"e2410_daniel_v2.spp","70205.7 Secs"
cm-1;Abs
10000.000000;1.302501
9999.000000;1.302589
9998.000000;1.302663
9997.000000;1.302772
9996.000000;1.302599
9995.000000;1.301488
9994.000000;1.299398
9993.000000;1.297091
9992.000000;1.295401
9991.000000;1.294489
9990.000000;1.293929
9989.000000;1.293381
9988.000000;1.292942
9987.000000;1.292894
9986.000000;1.293354
9985.000000;1.294161
9984.000000;1.294966
9983.000000;1.295445
9982.000000;1.295510
9981.000000;1.295267
9980.000000;1.294712
9979.000000;1.293623
9978.000000;1.291912
9977.000000;1.289962
9976.000000;1.288445
9975.000000;1.287782
9974.000000;1.287870
9973.000000;1.288222
9972.000000;1.288325
9971.000000;1.287997
9970.000000;1.287437
9969.000000;1.286886
9968.000000;1.286285
9967.000000;1.285470
9966.000000;1.284534
9965.000000;1.283669
9964.000000;1.282747
9963.000000;1.281542
9962.000000;1.280373
9961.000000;1.279933
9960.000000;1.280305
9959.000000;1.280699
9958.000000;1.280437
9957.000000;1.279717
9956.000000;1.279053
9955.000000;1.278493
9954.000000;1.277860
9953.000000;1.277333
9952.000000;1.277214
9951.000000;1.277347
9950.000000;1.277254
9949.000000;1.276682
9948.000000;1.275703
9947.000000;1.274536
9946.000000;1.273602
9945.000000;1.273406
9944.000000;1.273902
9943.000000;1.274259
9942.000000;1.273774
9941.000000;1.272750
9940.000000;1.272005
9939.000000;1.271813
9938.000000;1.271817
9937.000000;1.271680
9936.000000;1.271238
9935.000000;1.270209
9934.000000;1.268416
9933.000000;1.266269
9932.000000;1.264496
9931.000000;1.263391
9930.000000;1.262755
9929.000000;1.262473
9928.000000;1.262612
9927.000000;1.262952
9926.000000;1.262973
9925.000000;1.262454
9924.000000;1.261729
9923.000000;1.261222
9922.000000;1.261038
9921.000000;1.261017
9920.000000;1.260908
9919.000000;1.260495
9918.000000;1.259791
9917.000000;1.259081
9916.000000;1.258552
9915.000000;1.258002
9914.000000;1.257213
9913.000000;1.256441
9912.000000;1.256187
9911.000000;1.256553
9910.000000;1.257122
9909.000000;1.257431
9908.000000;1.257297
9907.000000;1.256739
9906.000000;1.255947
9905.000000;1.255260
9904.000000;1.254880
9903.000000;1.254664
9902.000000;1.254395
9901.000000;1.254039
9900.000000;1.253481
9899.000000;1.252283
9898.000000;1.250207
9897.000000;1.247803
9896.000000;1.245963
9895.000000;1.244956
9894.000000;1.244357
9893.000000;1.243830
9892.000000;1.243496
9891.000000;1.243447
9890.000000;1.243368
9889.000000;1.242866
9888.000000;1.241977
9887.000000;1.241208
9886.000000;1.241171
9885.000000;1.242053
9884.000000;1.243299
9883.000000;1.243970
9882.000000;1.243712
9881.000000;1.243128
9880.000000;1.242894
9879.000000;1.242797
9878.000000;1.242118
9877.000000;1.240789
9876.000000;1.239577
9875.000000;1.239100
9874.000000;1.239162
9873.000000;1.239170
9872.000000;1.238771
9871.000000;1.237944
9870.000000;1.236809
9869.000000;1.235586
9868.000000;1.234552
9867.000000;1.233877
9866.000000;1.233517
9865.000000;1.233265
9864.000000;1.232888
9863.000000;1.232285
9862.000000;1.231623
9861.000000;1.231187
9860.000000;1.231002
9859.000000;1.230803
9858.000000;1.230420
9857.000000;1.229896
9856.000000;1.229120
9855.000000;1.227844
9854.000000;1.226314
9853.000000;1.225424
9852.000000;1.225720
9851.000000;1.226567
9850.000000;1.226782
9849.000000;1.225909
9848.000000;1.224381
9847.000000;1.222722
9846.000000;1.221214
9845.000000;1.220202
9844.000000;1.220023
9843.000000;1.220530
9842.000000;1.221175
9841.000000;1.221653
9840.000000;1.222062
9839.000000;1.222427
9838.000000;1.222504
9837.000000;1.222150
9836.000000;1.221473
9835.000000;1.220508
9834.000000;1.219131
9833.000000;1.217425
9832.000000;1.215799
9831.000000;1.214586
9830.000000;1.213752
9829.000000;1.213109
9828.000000;1.212656
9827.000000;1.212577
9826.000000;1.212964
9825.000000;1.213556
9824.000000;1.213744
9823.000000;1.213031
9822.000000;1.211666
9821.000000;1.210602
9820.000000;1.210566
9819.000000;1.211300
9818.000000;1.211891
9817.000000;1.211718
9816.000000;1.210884
9815.000000;1.209897
9814.000000;1.209229
9813.000000;1.209015
9812.000000;1.208890
9811.000000;1.208218
9810.000000;1.206801
9809.000000;1.205227
9808.000000;1.204289
9807.000000;1.204164
9806.000000;1.204358
9805.000000;1.204263
9804.000000;1.203578
9803.000000;1.202436
9802.000000;1.201363
9801.000000;1.200880
9800.000000;1.200891
9799.000000;1.200750
9798.000000;1.200162
9797.000000;1.199602
9796.000000;1.199500
9795.000000;1.199461
9794.000000;1.198900
9793.000000;1.198027
9792.000000;1.197504
9791.000000;1.197343
9790.000000;1.196943
9789.000000;1.196122
9788.000000;1.195405
9787.000000;1.195196
9786.000000;1.195318
9785.000000;1.195487
9784.000000;1.195673
9783.000000;1.195769
9782.000000;1.195404
9781.000000;1.194377
9780.000000;1.192960
9779.000000;1.191552
9778.000000;1.190291
9777.000000;1.189157
9776.000000;1.188215
9775.000000;1.187613
9774.000000;1.187432
9773.000000;1.187577
9772.000000;1.187763
9771.000000;1.187718
9770.000000;1.187527
9769.000000;1.187551
9768.000000;1.187830
9767.000000;1.187843
9766.000000;1.187143
9765.000000;1.185958
9764.000000;1.184815
9763.000000;1.183868
9762.000000;1.183023
9761.000000;1.182443
9760.000000;1.182334
9759.000000;1.182387
9758.000000;1.182069
9757.000000;1.181436
9756.000000;1.181054
9755.000000;1.181051
9754.000000;1.180840
9753.000000;1.179950
9752.000000;1.178649
9751.000000;1.177524
9750.000000;1.176862
9749.000000;1.176641
9748.000000;1.176794
9747.000000;1.177177
9746.000000;1.177470
9745.000000;1.177334
9744.000000;1.176609
9743.000000;1.175344
9742.000000;1.173783
9741.000000;1.172296
9740.000000;1.171168
9739.000000;1.170428
9738.000000;1.169992
9737.000000;1.169842
9736.000000;1.169897
9735.000000;1.169867
9734.000000;1.169504
9733.000000;1.168917
9732.000000;1.168393
9731.000000;1.168004
9730.000000;1.167682
9729.000000;1.167554
9728.000000;1.167855
9727.000000;1.168537
9726.000000;1.169213
9725.000000;1.169465
9724.000000;1.169016
9723.000000;1.167745
9722.000000;1.165836
9721.000000;1.163816
9720.000000;1.162183
9719.000000;1.161041
9718.000000;1.160280
9717.000000;1.159926
9716.000000;1.160046
9715.000000;1.160457
9714.000000;1.160833
9713.000000;1.160996
9712.000000;1.160857
9711.000000;1.160279
9710.000000;1.159288
9709.000000;1.158284
9708.000000;1.157686
9707.000000;1.157503
9706.000000;1.157517
9705.000000;1.157666
9704.000000;1.157903
9703.000000;1.157892
9702.000000;1.157295
9701.000000;1.156259
9700.000000;1.155213
9699.000000;1.154371
9698.000000;1.153804
9697.000000;1.153743
9696.000000;1.154263
9695.000000;1.154771
9694.000000;1.154406
9693.000000;1.152996
9692.000000;1.151179
9691.000000;1.149560
9690.000000;1.148253
9689.000000;1.147234
9688.000000;1.146643
9687.000000;1.146575
9686.000000;1.146909
9685.000000;1.147449
9684.000000;1.147993
9683.000000;1.148230
9682.000000;1.147909
9681.000000;1.147158
9680.000000;1.146422
9679.000000;1.146023
9678.000000;1.145982
9677.000000;1.146142
9676.000000;1.146189
9675.000000;1.145660
9674.000000;1.144324
9673.000000;1.142556
9672.000000;1.141075
9671.000000;1.140342
9670.000000;1.140414
9669.000000;1.141178
9668.000000;1.142353
9667.000000;1.143318
9666.000000;1.143394
9665.000000;1.142404
9664.000000;1.140771
9663.000000;1.139109
9662.000000;1.137903
9661.000000;1.137375
9660.000000;1.137326
9659.000000;1.137216
9658.000000;1.136713
9657.000000;1.136054
9656.000000;1.135613
9655.000000;1.135312
9654.000000;1.134816
9653.000000;1.134082
9652.000000;1.133300
9651.000000;1.132475
9650.000000;1.131528
9649.000000;1.130700
9648.000000;1.130374
9647.000000;1.130562
9646.000000;1.130943
9645.000000;1.131313
9644.000000;1.131606
9643.000000;1.131621
9642.000000;1.131197
9641.000000;1.130593
9640.000000;1.130169
9639.000000;1.129829
9638.000000;1.129282
9637.000000;1.128693
9636.000000;1.128464
9635.000000;1.128405
9634.000000;1.127795
9633.000000;1.126413
9632.000000;1.124893
9631.000000;1.123869
9630.000000;1.123302
9629.000000;1.122860
9628.000000;1.122480
9627.000000;1.122261
9626.000000;1.122143
9625.000000;1.121990
9624.000000;1.121766
9623.000000;1.121502
9622.000000;1.121241
9621.000000;1.121046
9620.000000;1.120810
9619.000000;1.120116
9618.000000;1.118668
9617.000000;1.116884
9616.000000;1.115648
9615.000000;1.115367
9614.000000;1.115625
9613.000000;1.115819
9612.000000;1.115791
9611.000000;1.115690
9610.000000;1.115575
9609.000000;1.115407
9608.000000;1.115184
9607.000000;1.114907
9606.000000;1.114497
9605.000000;1.113860
9604.000000;1.112940
9603.000000;1.111777
9602.000000;1.110649
9601.000000;1.110032
9600.000000;1.110142
9599.000000;1.110603
9598.000000;1.110845
9597.000000;1.110732
9596.000000;1.110503
9595.000000;1.110173
9594.000000;1.109455
9593.000000;1.108271
9592.000000;1.106958
9591.000000;1.105927
9590.000000;1.105405
9589.000000;1.105447
9588.000000;1.105815
9587.000000;1.105864
9586.000000;1.105050
9585.000000;1.103666
9584.000000;1.102642
9583.000000;1.102482
9582.000000;1.102774
9581.000000;1.102881
9580.000000;1.102729
9579.000000;1.102637
9578.000000;1.102660
9577.000000;1.102438
9576.000000;1.101634
9575.000000;1.100356
9574.000000;1.099180
9573.000000;1.098712
9572.000000;1.099024
9571.000000;1.099539
9570.000000;1.099607
9569.000000;1.099126
9568.000000;1.098408
9567.000000;1.097623
9566.000000;1.096701
9565.000000;1.095688
9564.000000;1.094833
9563.000000;1.094311
9562.000000;1.094127
9561.000000;1.094245
9560.000000;1.094535
9559.000000;1.094640
9558.000000;1.094244
9557.000000;1.093483
9556.000000;1.092769
9555.000000;1.092247
9554.000000;1.091754
9553.000000;1.091249
9552.000000;1.090887
9551.000000;1.090609
9550.000000;1.090102
9549.000000;1.089253
9548.000000;1.088311
9547.000000;1.087509
9546.000000;1.086852
9545.000000;1.086374
9544.000000;1.086219
9543.000000;1.086304
9542.000000;1.086213
9541.000000;1.085648
9540.000000;1.084795
9539.000000;1.084065
9538.000000;1.083630
9537.000000;1.083337
9536.000000;1.082966
9535.000000;1.082462
9534.000000;1.081974
9533.000000;1.081712
9532.000000;1.081732
9531.000000;1.081928
9530.000000;1.082273
9529.000000;1.082861
9528.000000;1.083542
9527.000000;1.083763
9526.000000;1.083102
9525.000000;1.081805
9524.000000;1.080474
9523.000000;1.079397
9522.000000;1.078529
9521.000000;1.077957
9520.000000;1.077856
9519.000000;1.078007
9518.000000;1.077853
9517.000000;1.077154
9516.000000;1.076233
9515.000000;1.075505
9514.000000;1.075092
9513.000000;1.074941
9512.000000;1.074935
9511.000000;1.074808
9510.000000;1.074259
9509.000000;1.073319
9508.000000;1.072351
9507.000000;1.071645
9506.000000;1.071239
9505.000000;1.071096
9504.000000;1.071144
9503.000000;1.071136
9502.000000;1.070824
9501.000000;1.070334
9500.000000;1.070031
9499.000000;1.069976
9498.000000;1.069835
9497.000000;1.069380
9496.000000;1.068731
9495.000000;1.068024
9494.000000;1.067227
9493.000000;1.066425
9492.000000;1.065956
9491.000000;1.066023
9490.000000;1.066414
9489.000000;1.066749
9488.000000;1.066799
9487.000000;1.066477
9486.000000;1.065758
9485.000000;1.064766
9484.000000;1.063774
9483.000000;1.063013
9482.000000;1.062582
9481.000000;1.062519
9480.000000;1.062729
9479.000000;1.062864
9478.000000;1.062569
9477.000000;1.061906
9476.000000;1.061291
9475.000000;1.060970
9474.000000;1.060800
9473.000000;1.060553
9472.000000;1.060171
9471.000000;1.059663
9470.000000;1.059050
9469.000000;1.058496
9468.000000;1.058230
9467.000000;1.058249
9466.000000;1.058299
9465.000000;1.058188
9464.000000;1.057878
9463.000000;1.057282
9462.000000;1.056309
9461.000000;1.055211
9460.000000;1.054519
9459.000000;1.054458
9458.000000;1.054670
9457.000000;1.054682
9456.000000;1.054427
9455.000000;1.054123
9454.000000;1.053855
9453.000000;1.053513
9452.000000;1.053036
9451.000000;1.052518
9450.000000;1.052060
9449.000000;1.051625
9448.000000;1.051043
9447.000000;1.050196
9446.000000;1.049227
9445.000000;1.048500
9444.000000;1.048245
9443.000000;1.048299
9442.000000;1.048317
9441.000000;1.048135
9440.000000;1.047758
9439.000000;1.047124
9438.000000;1.046160
9437.000000;1.045044
9436.000000;1.044147
9435.000000;1.043685
9434.000000;1.043587
9433.000000;1.043666
9432.000000;1.043766
9431.000000;1.043792
9430.000000;1.043782
9429.000000;1.043882
9428.000000;1.044089
9427.000000;1.044141
9426.000000;1.043861
9425.000000;1.043430
9424.000000;1.043037
9423.000000;1.042485
9422.000000;1.041526
9421.000000;1.040427
9420.000000;1.039752
9419.000000;1.039622
9418.000000;1.039653
9417.000000;1.039602
9416.000000;1.039586
9415.000000;1.039604
9414.000000;1.039376
9413.000000;1.038833
9412.000000;1.038334
9411.000000;1.038141
9410.000000;1.038031
9409.000000;1.037655
9408.000000;1.037013
9407.000000;1.036348
9406.000000;1.035788
9405.000000;1.035313
9404.000000;1.034893
9403.000000;1.034492
9402.000000;1.034054
9401.000000;1.033631
9400.000000;1.033363
9399.000000;1.033266
9398.000000;1.033204
9397.000000;1.033108
9396.000000;1.032995
9395.000000;1.032777
9394.000000;1.032300
9393.000000;1.031634
9392.000000;1.031041
9391.000000;1.030542
9390.000000;1.029854
9389.000000;1.028873
9388.000000;1.027909
9387.000000;1.027267
9386.000000;1.026870
9385.000000;1.026526
9384.000000;1.026335
9383.000000;1.026519
9382.000000;1.027004
9381.000000;1.027428
9380.000000;1.027504
9379.000000;1.027205
9378.000000;1.026636
9377.000000;1.025914
9376.000000;1.025158
9375.000000;1.024460
9374.000000;1.023861
9373.000000;1.023400
9372.000000;1.023161
9371.000000;1.023175
9370.000000;1.023340
9369.000000;1.023480
9368.000000;1.023475
9367.000000;1.023298
9366.000000;1.022963
9365.000000;1.022441
9364.000000;1.021672
9363.000000;1.020707
9362.000000;1.019868
9361.000000;1.019573
9360.000000;1.019881
9359.000000;1.020322
9358.000000;1.020354
9357.000000;1.019909
9356.000000;1.019332
9355.000000;1.018905
9354.000000;1.018677
9353.000000;1.018663
9352.000000;1.018845
9351.000000;1.018973
9350.000000;1.018672
9349.000000;1.017884
9348.000000;1.017011
9347.000000;1.016507
9346.000000;1.016431
9345.000000;1.016432
9344.000000;1.016091
9343.000000;1.015280
9342.000000;1.014319
9341.000000;1.013742
9340.000000;1.013775
9339.000000;1.014063
9338.000000;1.014075
9337.000000;1.013688
9336.000000;1.013202
9335.000000;1.012823
9334.000000;1.012443
9333.000000;1.011946
9332.000000;1.011438
9331.000000;1.011054
9330.000000;1.010734
9329.000000;1.010288
9328.000000;1.009619
9327.000000;1.008839
9326.000000;1.008226
9325.000000;1.008009
9324.000000;1.008104
9323.000000;1.008162
9322.000000;1.007997
9321.000000;1.007825
9320.000000;1.007869
9319.000000;1.007918
9318.000000;1.007570
9317.000000;1.006842
9316.000000;1.006174
9315.000000;1.005806
9314.000000;1.005521
9313.000000;1.005051
9312.000000;1.004435
9311.000000;1.003847
9310.000000;1.003336
9309.000000;1.002879
9308.000000;1.002493
9307.000000;1.002193
9306.000000;1.001996
9305.000000;1.002001
9304.000000;1.002305
9303.000000;1.002758
9302.000000;1.002998
9301.000000;1.002809
9300.000000;1.002307
9299.000000;1.001702
9298.000000;1.001066
9297.000000;1.000408
9296.000000;0.999802
9295.000000;0.999327
9294.000000;0.999005
9293.000000;0.998840
9292.000000;0.998823
9291.000000;0.998885
9290.000000;0.998974
9289.000000;0.999165
9288.000000;0.999527
9287.000000;0.999891
9286.000000;0.999960
9285.000000;0.999680
9284.000000;0.999279
9283.000000;0.998893
9282.000000;0.998355
9281.000000;0.997486
9280.000000;0.996394
9279.000000;0.995392
9278.000000;0.994720
9277.000000;0.994428
9276.000000;0.994410
9275.000000;0.994452
9274.000000;0.994347
9273.000000;0.994043
9272.000000;0.993618
9271.000000;0.993140
9270.000000;0.992660
9269.000000;0.992308
9268.000000;0.992212
9267.000000;0.992280
9266.000000;0.992234
9265.000000;0.991926
9264.000000;0.991498
9263.000000;0.991183
9262.000000;0.991057
9261.000000;0.991038
9260.000000;0.990994
9259.000000;0.990812
9258.000000;0.990463
9257.000000;0.990061
9256.000000;0.989767
9255.000000;0.989604
9254.000000;0.989407
9253.000000;0.988990
9252.000000;0.988288
9251.000000;0.987372
9250.000000;0.986410
9249.000000;0.985601
9248.000000;0.985068
9247.000000;0.984809
9246.000000;0.984791
9245.000000;0.984979
9244.000000;0.985205
9243.000000;0.985142
9242.000000;0.984623
9241.000000;0.983920
9240.000000;0.983507
9239.000000;0.983562
9238.000000;0.983859
9237.000000;0.984122
9236.000000;0.984276
9235.000000;0.984307
9234.000000;0.984087
9233.000000;0.983493
9232.000000;0.982605
9231.000000;0.981700
9230.000000;0.981041
9229.000000;0.980679
9228.000000;0.980449
9227.000000;0.980175
9226.000000;0.979870
9225.000000;0.979638
9224.000000;0.979436
9223.000000;0.979101
9222.000000;0.978673
9221.000000;0.978426
9220.000000;0.978428
9219.000000;0.978300
9218.000000;0.977675
9217.000000;0.976731
9216.000000;0.976007
9215.000000;0.975799
9214.000000;0.976036
9213.000000;0.976592
9212.000000;0.977355
9211.000000;0.977985
9210.000000;0.977973
9209.000000;0.977152
9208.000000;0.975933
9207.000000;0.974934
9206.000000;0.974497
9205.000000;0.974564
9204.000000;0.974829
9203.000000;0.974927
9202.000000;0.974653
9201.000000;0.974099
9200.000000;0.973533
9199.000000;0.973129
9198.000000;0.972883
9197.000000;0.972705
9196.000000;0.972504
9195.000000;0.972191
9194.000000;0.971755
9193.000000;0.971278
9192.000000;0.970806
9191.000000;0.970307
9190.000000;0.969859
9189.000000;0.969722
9188.000000;0.969978
9187.000000;0.970227
9186.000000;0.969947
9185.000000;0.969128
9184.000000;0.968280
9183.000000;0.967773
9182.000000;0.967493
9181.000000;0.967201
9180.000000;0.966933
9179.000000;0.966867
9178.000000;0.966974
9177.000000;0.967015
9176.000000;0.966831
9175.000000;0.966498
9174.000000;0.966186
9173.000000;0.965934
9172.000000;0.965620
9171.000000;0.965147
9170.000000;0.964618
9169.000000;0.964236
9168.000000;0.964038
9167.000000;0.963874
9166.000000;0.963696
9165.000000;0.963683
9164.000000;0.963949
9163.000000;0.964271
9162.000000;0.964282
9161.000000;0.963808
9160.000000;0.962920
9159.000000;0.961819
9158.000000;0.960853
9157.000000;0.960447
9156.000000;0.960739
9155.000000;0.961347
9154.000000;0.961753
9153.000000;0.961816
9152.000000;0.961713
9151.000000;0.961488
9150.000000;0.961005
9149.000000;0.960286
9148.000000;0.959552
9147.000000;0.958936
9146.000000;0.958434
9145.000000;0.958164
9144.000000;0.958335
9143.000000;0.958853
9142.000000;0.959211
9141.000000;0.958950
9140.000000;0.958115
9139.000000;0.957188
9138.000000;0.956659
9137.000000;0.956635
9136.000000;0.956748
9135.000000;0.956469
9134.000000;0.955690
9133.000000;0.954954
9132.000000;0.954889
9131.000000;0.955462
9130.000000;0.955993
9129.000000;0.955908
9128.000000;0.955259
9127.000000;0.954475
9126.000000;0.953890
9125.000000;0.953615
9124.000000;0.953616
9123.000000;0.953763
9122.000000;0.953896
9121.000000;0.953966
9120.000000;0.954014
9119.000000;0.954001
9118.000000;0.953800
9117.000000;0.953391
9116.000000;0.952929
9115.000000;0.952553
9114.000000;0.952253
9113.000000;0.952011
9112.000000;0.951903
9111.000000;0.951964
9110.000000;0.952016
9109.000000;0.951781
9108.000000;0.951159
9107.000000;0.950352
9106.000000;0.949706
9105.000000;0.949420
9104.000000;0.949396
9103.000000;0.949397
9102.000000;0.949338
9101.000000;0.949329
9100.000000;0.949395
9099.000000;0.949331
9098.000000;0.948942
9097.000000;0.948330
9096.000000;0.947777
9095.000000;0.947447
9094.000000;0.947315
9093.000000;0.947304
9092.000000;0.947309
9091.000000;0.947146
9090.000000;0.946698
9089.000000;0.946092
9088.000000;0.945588
9087.000000;0.945286
9086.000000;0.945085
9085.000000;0.944891
9084.000000;0.944732
9083.000000;0.944674
9082.000000;0.944757
9081.000000;0.944982
9080.000000;0.945244
9079.000000;0.945300
9078.000000;0.944940
9077.000000;0.944215
9076.000000;0.943416
9075.000000;0.942846
9074.000000;0.942647
9073.000000;0.942756
9072.000000;0.942943
9071.000000;0.942974
9070.000000;0.942812
9069.000000;0.942572
9068.000000;0.942259
9067.000000;0.941779
9066.000000;0.941287
9065.000000;0.941218
9064.000000;0.941724
9063.000000;0.942318
9062.000000;0.942401
9061.000000;0.942005
9060.000000;0.941642
9059.000000;0.941530
9058.000000;0.941392
9057.000000;0.940996
9056.000000;0.940483
9055.000000;0.940065
9054.000000;0.939728
9053.000000;0.939367
