Criado como novo conjunto de dados;"e2410_daniel_v2.spp","57785.0 Secs"
cm-1;Abs
10000.000000;1.198960
9999.000000;1.198013
9998.000000;1.197606
9997.000000;1.197801
9996.000000;1.198045
9995.000000;1.197963
9994.000000;1.197522
9993.000000;1.196888
9992.000000;1.196305
9991.000000;1.195945
9990.000000;1.195546
9989.000000;1.194582
9988.000000;1.193057
9987.000000;1.191700
9986.000000;1.191063
9985.000000;1.190868
9984.000000;1.190590
9983.000000;1.190191
9982.000000;1.189796
9981.000000;1.189151
9980.000000;1.188047
9979.000000;1.186914
9978.000000;1.186339
9977.000000;1.186256
9976.000000;1.186134
9975.000000;1.185758
9974.000000;1.185299
9973.000000;1.184892
9972.000000;1.184625
9971.000000;1.184687
9970.000000;1.185026
9969.000000;1.185136
9968.000000;1.184647
9967.000000;1.183842
9966.000000;1.183162
9965.000000;1.182532
9964.000000;1.181652
9963.000000;1.180562
9962.000000;1.179390
9961.000000;1.177982
9960.000000;1.176398
9959.000000;1.175373
9958.000000;1.175563
9957.000000;1.176588
9956.000000;1.177469
9955.000000;1.177771
9954.000000;1.177678
9953.000000;1.177255
9952.000000;1.176423
9951.000000;1.175479
9950.000000;1.174835
9949.000000;1.174318
9948.000000;1.173473
9947.000000;1.172487
9946.000000;1.172014
9945.000000;1.172093
9944.000000;1.172017
9943.000000;1.171410
9942.000000;1.170761
9941.000000;1.170656
9940.000000;1.171042
9939.000000;1.171394
9938.000000;1.171166
9937.000000;1.170061
9936.000000;1.168293
9935.000000;1.166681
9934.000000;1.166040
9933.000000;1.166343
9932.000000;1.166748
9931.000000;1.166461
9930.000000;1.165334
9929.000000;1.163725
9928.000000;1.162185
9927.000000;1.161232
9926.000000;1.160969
9925.000000;1.160903
9924.000000;1.160455
9923.000000;1.159671
9922.000000;1.159098
9921.000000;1.159013
9920.000000;1.159165
9919.000000;1.159245
9918.000000;1.159226
9917.000000;1.159138
9916.000000;1.158866
9915.000000;1.158291
9914.000000;1.157478
9913.000000;1.156632
9912.000000;1.155912
9911.000000;1.155214
9910.000000;1.154169
9909.000000;1.152622
9908.000000;1.151172
9907.000000;1.150808
9906.000000;1.151770
9905.000000;1.153072
9904.000000;1.153453
9903.000000;1.152545
9902.000000;1.150870
9901.000000;1.149118
9900.000000;1.147840
9899.000000;1.147364
9898.000000;1.147438
9897.000000;1.147214
9896.000000;1.146130
9895.000000;1.144668
9894.000000;1.143831
9893.000000;1.144035
9892.000000;1.144890
9891.000000;1.145753
9890.000000;1.146059
9889.000000;1.145414
9888.000000;1.143983
9887.000000;1.142604
9886.000000;1.141987
9885.000000;1.141929
9884.000000;1.141759
9883.000000;1.141306
9882.000000;1.140855
9881.000000;1.140382
9880.000000;1.139557
9879.000000;1.138485
9878.000000;1.137764
9877.000000;1.137679
9876.000000;1.137871
9875.000000;1.137920
9874.000000;1.137802
9873.000000;1.137622
9872.000000;1.137269
9871.000000;1.136546
9870.000000;1.135403
9869.000000;1.133985
9868.000000;1.132620
9867.000000;1.131756
9866.000000;1.131652
9865.000000;1.132106
9864.000000;1.132631
9863.000000;1.132864
9862.000000;1.132673
9861.000000;1.132030
9860.000000;1.131045
9859.000000;1.129983
9858.000000;1.129016
9857.000000;1.128120
9856.000000;1.127390
9855.000000;1.127169
9854.000000;1.127528
9853.000000;1.127893
9852.000000;1.127605
9851.000000;1.126667
9850.000000;1.125577
9849.000000;1.124606
9848.000000;1.123670
9847.000000;1.122735
9846.000000;1.121909
9845.000000;1.121226
9844.000000;1.120732
9843.000000;1.120644
9842.000000;1.121063
9841.000000;1.121616
9840.000000;1.121767
9839.000000;1.121421
9838.000000;1.120857
9837.000000;1.120179
9836.000000;1.119266
9835.000000;1.118219
9834.000000;1.117362
9833.000000;1.116782
9832.000000;1.116247
9831.000000;1.115665
9830.000000;1.115289
9829.000000;1.115360
9828.000000;1.115767
9827.000000;1.116079
9826.000000;1.115811
9825.000000;1.114760
9824.000000;1.113300
9823.000000;1.112205
9822.000000;1.111896
9821.000000;1.111950
9820.000000;1.111625
9819.000000;1.110796
9818.000000;1.110044
9817.000000;1.109836
9816.000000;1.109956
9815.000000;1.109801
9814.000000;1.109043
9813.000000;1.107887
9812.000000;1.106834
9811.000000;1.106223
9810.000000;1.105899
9809.000000;1.105325
9808.000000;1.104113
9807.000000;1.102465
9806.000000;1.101106
9805.000000;1.100751
9804.000000;1.101532
9803.000000;1.102778
9802.000000;1.103463
9801.000000;1.103101
9800.000000;1.102147
9799.000000;1.101308
9798.000000;1.100685
9797.000000;1.099963
9796.000000;1.099185
9795.000000;1.098716
9794.000000;1.098454
9793.000000;1.097822
9792.000000;1.096707
9791.000000;1.095758
9790.000000;1.095461
9789.000000;1.095548
9788.000000;1.095627
9787.000000;1.095739
9786.000000;1.095836
9785.000000;1.095339
9784.000000;1.093899
9783.000000;1.092180
9782.000000;1.091180
9781.000000;1.091038
9780.000000;1.091113
9779.000000;1.091006
9778.000000;1.090881
9777.000000;1.090840
9776.000000;1.090605
9775.000000;1.089917
9774.000000;1.088888
9773.000000;1.087850
9772.000000;1.087075
9771.000000;1.086619
9770.000000;1.086287
9769.000000;1.085801
9768.000000;1.085121
9767.000000;1.084467
9766.000000;1.083956
9765.000000;1.083477
9764.000000;1.083010
9763.000000;1.082720
9762.000000;1.082564
9761.000000;1.082197
9760.000000;1.081537
9759.000000;1.081006
9758.000000;1.080902
9757.000000;1.080915
9756.000000;1.080624
9755.000000;1.080111
9754.000000;1.079668
9753.000000;1.079227
9752.000000;1.078563
9751.000000;1.077828
9750.000000;1.077413
9749.000000;1.077395
9748.000000;1.077469
9747.000000;1.077337
9746.000000;1.076914
9745.000000;1.076315
9744.000000;1.075802
9743.000000;1.075586
9742.000000;1.075509
9741.000000;1.075168
9740.000000;1.074484
9739.000000;1.073786
9738.000000;1.073195
9737.000000;1.072412
9736.000000;1.071377
9735.000000;1.070562
9734.000000;1.070219
9733.000000;1.069843
9732.000000;1.068923
9731.000000;1.067797
9730.000000;1.067222
9729.000000;1.067388
9728.000000;1.067870
9727.000000;1.068268
9726.000000;1.068350
9725.000000;1.067828
9724.000000;1.066601
9723.000000;1.065156
9722.000000;1.064210
9721.000000;1.063979
9720.000000;1.064059
9719.000000;1.063928
9718.000000;1.063308
9717.000000;1.062277
9716.000000;1.061303
9715.000000;1.060932
9714.000000;1.061103
9713.000000;1.061059
9712.000000;1.060236
9711.000000;1.058945
9710.000000;1.057843
9709.000000;1.057121
9708.000000;1.056639
9707.000000;1.056421
9706.000000;1.056478
9705.000000;1.056440
9704.000000;1.055986
9703.000000;1.055423
9702.000000;1.055290
9701.000000;1.055562
9700.000000;1.055768
9699.000000;1.055727
9698.000000;1.055622
9697.000000;1.055469
9696.000000;1.055075
9695.000000;1.054462
9694.000000;1.053829
9693.000000;1.053121
9692.000000;1.052096
9691.000000;1.050828
9690.000000;1.049724
9689.000000;1.049030
9688.000000;1.048623
9687.000000;1.048289
9686.000000;1.047903
9685.000000;1.047414
9684.000000;1.046910
9683.000000;1.046593
9682.000000;1.046485
9681.000000;1.046291
9680.000000;1.045820
9679.000000;1.045305
9678.000000;1.045006
9677.000000;1.044767
9676.000000;1.044286
9675.000000;1.043612
9674.000000;1.042980
9673.000000;1.042409
9672.000000;1.041844
9671.000000;1.041438
9670.000000;1.041280
9669.000000;1.041068
9668.000000;1.040544
9667.000000;1.040006
9666.000000;1.039905
9665.000000;1.040102
9664.000000;1.040063
9663.000000;1.039658
9662.000000;1.039207
9661.000000;1.038826
9660.000000;1.038312
9659.000000;1.037652
9658.000000;1.037111
9657.000000;1.036743
9656.000000;1.036325
9655.000000;1.035833
9654.000000;1.035536
9653.000000;1.035493
9652.000000;1.035361
9651.000000;1.034832
9650.000000;1.033928
9649.000000;1.032804
9648.000000;1.031588
9647.000000;1.030528
9646.000000;1.029968
9645.000000;1.029980
9644.000000;1.030217
9643.000000;1.030228
9642.000000;1.029803
9641.000000;1.029046
9640.000000;1.028299
9639.000000;1.028001
9638.000000;1.028367
9637.000000;1.029114
9636.000000;1.029619
9635.000000;1.029407
9634.000000;1.028429
9633.000000;1.026958
9632.000000;1.025374
9631.000000;1.024005
9630.000000;1.023029
9629.000000;1.022497
9628.000000;1.022435
9627.000000;1.022772
9626.000000;1.023165
9625.000000;1.023132
9624.000000;1.022523
9623.000000;1.021664
9622.000000;1.020911
9621.000000;1.020254
9620.000000;1.019513
9619.000000;1.018654
9618.000000;1.017743
9617.000000;1.016802
9616.000000;1.015939
9615.000000;1.015397
9614.000000;1.015241
9613.000000;1.015207
9612.000000;1.015044
9611.000000;1.014820
9610.000000;1.014672
9609.000000;1.014539
9608.000000;1.014369
9607.000000;1.014334
9606.000000;1.014512
9605.000000;1.014598
9604.000000;1.014271
9603.000000;1.013659
9602.000000;1.013115
9601.000000;1.012692
9600.000000;1.012168
9599.000000;1.011464
9598.000000;1.010698
9597.000000;1.009948
9596.000000;1.009274
9595.000000;1.008874
9594.000000;1.008883
9593.000000;1.009097
9592.000000;1.009177
9591.000000;1.009064
9590.000000;1.008930
9589.000000;1.008767
9588.000000;1.008359
9587.000000;1.007681
9586.000000;1.007074
9585.000000;1.006910
9584.000000;1.007168
9583.000000;1.007388
9582.000000;1.007055
9581.000000;1.006067
9580.000000;1.004805
9579.000000;1.003683
9578.000000;1.002744
9577.000000;1.001881
9576.000000;1.001255
9575.000000;1.001126
9574.000000;1.001311
9573.000000;1.001281
9572.000000;1.000896
9571.000000;1.000568
9570.000000;1.000523
9569.000000;1.000357
9568.000000;0.999621
9567.000000;0.998459
9566.000000;0.997343
9565.000000;0.996496
9564.000000;0.995908
9563.000000;0.995618
9562.000000;0.995611
9561.000000;0.995646
9560.000000;0.995485
9559.000000;0.995160
9558.000000;0.994826
9557.000000;0.994515
9556.000000;0.994224
9555.000000;0.993988
9554.000000;0.993706
9553.000000;0.993140
9552.000000;0.992264
9551.000000;0.991343
9550.000000;0.990546
9549.000000;0.989812
9548.000000;0.989254
9547.000000;0.989245
9546.000000;0.989814
9545.000000;0.990370
9544.000000;0.990364
9543.000000;0.989903
9542.000000;0.989353
9541.000000;0.988707
9540.000000;0.987761
9539.000000;0.986657
9538.000000;0.985774
9537.000000;0.985266
9536.000000;0.985059
9535.000000;0.985108
9534.000000;0.985339
9533.000000;0.985489
9532.000000;0.985314
9531.000000;0.984786
9530.000000;0.983912
9529.000000;0.982649
9528.000000;0.981261
9527.000000;0.980434
9526.000000;0.980594
9525.000000;0.981333
9524.000000;0.981832
9523.000000;0.981716
9522.000000;0.981205
9521.000000;0.980584
9520.000000;0.979896
9519.000000;0.979059
9518.000000;0.978061
9517.000000;0.977070
9516.000000;0.976438
9515.000000;0.976391
9514.000000;0.976634
9513.000000;0.976579
9512.000000;0.976069
9511.000000;0.975530
9510.000000;0.975261
9509.000000;0.975029
9508.000000;0.974600
9507.000000;0.974169
9506.000000;0.973891
9505.000000;0.973451
9504.000000;0.972568
9503.000000;0.971606
9502.000000;0.971159
9501.000000;0.971272
9500.000000;0.971466
9499.000000;0.971385
9498.000000;0.971055
9497.000000;0.970653
9496.000000;0.970321
9495.000000;0.970094
9494.000000;0.969783
9493.000000;0.969174
9492.000000;0.968491
9491.000000;0.968303
9490.000000;0.968736
9489.000000;0.969143
9488.000000;0.968858
9487.000000;0.967913
9486.000000;0.966748
9485.000000;0.965635
9484.000000;0.964792
9483.000000;0.964566
9482.000000;0.964996
9481.000000;0.965525
9480.000000;0.965599
9479.000000;0.965271
9478.000000;0.964790
9477.000000;0.964010
9476.000000;0.962785
9475.000000;0.961596
9474.000000;0.961138
9473.000000;0.961443
9472.000000;0.961917
9471.000000;0.962082
9470.000000;0.961816
9469.000000;0.961065
9468.000000;0.959915
9467.000000;0.958800
9466.000000;0.958140
9465.000000;0.957785
9464.000000;0.957272
9463.000000;0.956497
9462.000000;0.955746
9461.000000;0.955184
9460.000000;0.954779
9459.000000;0.954615
9458.000000;0.954837
9457.000000;0.955301
9456.000000;0.955657
9455.000000;0.955751
9454.000000;0.955625
9453.000000;0.955238
9452.000000;0.954528
9451.000000;0.953653
9450.000000;0.952861
9449.000000;0.952222
9448.000000;0.951744
9447.000000;0.951546
9446.000000;0.951618
9445.000000;0.951620
9444.000000;0.951281
9443.000000;0.950793
9442.000000;0.950482
9441.000000;0.950332
9440.000000;0.950163
9439.000000;0.949989
9438.000000;0.949810
9437.000000;0.949356
9436.000000;0.948515
9435.000000;0.947737
9434.000000;0.947496
9433.000000;0.947551
9432.000000;0.947290
9431.000000;0.946604
9430.000000;0.945871
9429.000000;0.945242
9428.000000;0.944560
9427.000000;0.943915
9426.000000;0.943660
9425.000000;0.943819
9424.000000;0.943983
9423.000000;0.943862
9422.000000;0.943523
9421.000000;0.943083
9420.000000;0.942563
9419.000000;0.942039
9418.000000;0.941552
9417.000000;0.940920
9416.000000;0.940029
9415.000000;0.939255
9414.000000;0.939123
9413.000000;0.939565
9412.000000;0.939932
9411.000000;0.939773
9410.000000;0.939203
9409.000000;0.938499
9408.000000;0.937793
9407.000000;0.937248
9406.000000;0.937101
9405.000000;0.937354
9404.000000;0.937680
9403.000000;0.937733
9402.000000;0.937369
9401.000000;0.936608
9400.000000;0.935640
9399.000000;0.934823
9398.000000;0.934378
9397.000000;0.934119
9396.000000;0.933761
9395.000000;0.933389
9394.000000;0.933306
9393.000000;0.933497
9392.000000;0.933627
9391.000000;0.933512
9390.000000;0.933240
9389.000000;0.932840
9388.000000;0.932224
9387.000000;0.931483
9386.000000;0.930868
9385.000000;0.930454
9384.000000;0.930120
9383.000000;0.929880
9382.000000;0.929906
9381.000000;0.930162
9380.000000;0.930329
9379.000000;0.930154
9378.000000;0.929644
9377.000000;0.928927
9376.000000;0.928162
9375.000000;0.927575
9374.000000;0.927293
9373.000000;0.927140
9372.000000;0.926838
9371.000000;0.926363
9370.000000;0.925882
9369.000000;0.925418
9368.000000;0.924884
9367.000000;0.924384
9366.000000;0.924127
9365.000000;0.924077
9364.000000;0.923998
9363.000000;0.923848
9362.000000;0.923772
9361.000000;0.923721
9360.000000;0.923450
9359.000000;0.922951
9358.000000;0.922523
9357.000000;0.922295
9356.000000;0.922009
9355.000000;0.921424
9354.000000;0.920685
9353.000000;0.920103
9352.000000;0.919788
9351.000000;0.919617
9350.000000;0.919424
9349.000000;0.919097
9348.000000;0.918604
9347.000000;0.918048
9346.000000;0.917614
9345.000000;0.917416
9344.000000;0.917392
9343.000000;0.917362
9342.000000;0.917145
9341.000000;0.916711
9340.000000;0.916261
9339.000000;0.916029
9338.000000;0.915963
9337.000000;0.915738
9336.000000;0.915217
9335.000000;0.914649
9334.000000;0.914257
9333.000000;0.913880
9332.000000;0.913294
9331.000000;0.912683
9330.000000;0.912416
9329.000000;0.912436
9328.000000;0.912276
9327.000000;0.911689
9326.000000;0.910946
9325.000000;0.910449
9324.000000;0.910306
9323.000000;0.910384
9322.000000;0.910532
9321.000000;0.910611
9320.000000;0.910451
9319.000000;0.909929
9318.000000;0.909081
9317.000000;0.908111
9316.000000;0.907307
9315.000000;0.906882
9314.000000;0.906821
9313.000000;0.906921
9312.000000;0.906999
9311.000000;0.906982
9310.000000;0.906781
9309.000000;0.906267
9308.000000;0.905497
9307.000000;0.904778
9306.000000;0.904359
9305.000000;0.904176
9304.000000;0.904005
9303.000000;0.903718
9302.000000;0.903297
9301.000000;0.902790
9300.000000;0.902385
9299.000000;0.902324
9298.000000;0.902563
9297.000000;0.902708
9296.000000;0.902502
9295.000000;0.902146
9294.000000;0.901924
9293.000000;0.901701
9292.000000;0.901128
9291.000000;0.900181
9290.000000;0.899215
9289.000000;0.898547
9288.000000;0.898267
9287.000000;0.898366
9286.000000;0.898769
9285.000000;0.899230
9284.000000;0.899447
9283.000000;0.899312
9282.000000;0.898895
9281.000000;0.898251
9280.000000;0.897440
9279.000000;0.896685
9278.000000;0.896281
9277.000000;0.896309
9276.000000;0.896572
9275.000000;0.896798
9274.000000;0.896788
9273.000000;0.896469
9272.000000;0.895928
9271.000000;0.895365
9270.000000;0.894905
9269.000000;0.894511
9268.000000;0.894170
9267.000000;0.894006
9266.000000;0.894069
9265.000000;0.894159
9264.000000;0.894031
9263.000000;0.893668
9262.000000;0.893218
9261.000000;0.892763
9260.000000;0.892326
9259.000000;0.891994
9258.000000;0.891833
9257.000000;0.891755
9256.000000;0.891621
9255.000000;0.891436
9254.000000;0.891301
9253.000000;0.891201
9252.000000;0.890988
9251.000000;0.890538
9250.000000;0.889870
9249.000000;0.889122
9248.000000;0.888442
9247.000000;0.887869
9246.000000;0.887343
9245.000000;0.886901
9244.000000;0.886790
9243.000000;0.887164
9242.000000;0.887716
9241.000000;0.887913
9240.000000;0.887595
9239.000000;0.887076
9238.000000;0.886610
9237.000000;0.886121
9236.000000;0.885553
9235.000000;0.885075
9234.000000;0.884737
9233.000000;0.884273
9232.000000;0.883527
9231.000000;0.882813
9230.000000;0.882541
9229.000000;0.882720
9228.000000;0.883064
9227.000000;0.883388
9226.000000;0.883619
9225.000000;0.883597
9224.000000;0.883206
9223.000000;0.882605
9222.000000;0.882053
9221.000000;0.881584
9220.000000;0.881052
9219.000000;0.880411
9218.000000;0.879786
9217.000000;0.879351
9216.000000;0.879253
9215.000000;0.879550
9214.000000;0.880073
9213.000000;0.880495
9212.000000;0.880621
9211.000000;0.880481
9210.000000;0.880074
9209.000000;0.879328
9208.000000;0.878442
9207.000000;0.877940
9206.000000;0.878130
9205.000000;0.878695
9204.000000;0.879046
9203.000000;0.878912
9202.000000;0.878412
9201.000000;0.877757
9200.000000;0.877138
9199.000000;0.876722
9198.000000;0.876517
9197.000000;0.876333
9196.000000;0.876043
9195.000000;0.875732
9194.000000;0.875475
9193.000000;0.875153
9192.000000;0.874655
9191.000000;0.874038
9190.000000;0.873363
9189.000000;0.872617
9188.000000;0.871956
9187.000000;0.871755
9186.000000;0.872149
9185.000000;0.872749
9184.000000;0.873013
9183.000000;0.872752
9182.000000;0.872114
9181.000000;0.871339
9180.000000;0.870729
9179.000000;0.870568
9178.000000;0.870799
9177.000000;0.870977
9176.000000;0.870782
9175.000000;0.870387
9174.000000;0.870121
9173.000000;0.870047
9172.000000;0.870057
9171.000000;0.870108
9170.000000;0.870098
9169.000000;0.869797
9168.000000;0.869197
9167.000000;0.868667
9166.000000;0.868455
9165.000000;0.868303
9164.000000;0.867878
9163.000000;0.867311
9162.000000;0.866937
9161.000000;0.866736
9160.000000;0.866425
9159.000000;0.865966
9158.000000;0.865572
9157.000000;0.865330
9156.000000;0.865163
9155.000000;0.865076
9154.000000;0.865130
9153.000000;0.865249
9152.000000;0.865310
9151.000000;0.865317
9150.000000;0.865222
9149.000000;0.864771
9148.000000;0.863856
9147.000000;0.862843
9146.000000;0.862206
9145.000000;0.861947
9144.000000;0.861746
9143.000000;0.861546
9142.000000;0.861601
9141.000000;0.861965
9140.000000;0.862319
9139.000000;0.862350
9138.000000;0.862037
9137.000000;0.861547
9136.000000;0.861062
9135.000000;0.860702
9134.000000;0.860434
9133.000000;0.860094
9132.000000;0.859653
9131.000000;0.859341
9130.000000;0.859313
9129.000000;0.859350
9128.000000;0.859129
9127.000000;0.858678
9126.000000;0.858293
9125.000000;0.858122
9124.000000;0.858119
9123.000000;0.858280
9122.000000;0.858586
9121.000000;0.858748
9120.000000;0.858352
9119.000000;0.857356
9118.000000;0.856211
9117.000000;0.855446
9116.000000;0.855258
9115.000000;0.855489
9114.000000;0.855814
9113.000000;0.855971
9112.000000;0.855958
9111.000000;0.855983
9110.000000;0.856153
9109.000000;0.856287
9108.000000;0.856180
9107.000000;0.855920
9106.000000;0.855738
9105.000000;0.855654
9104.000000;0.855458
9103.000000;0.854988
9102.000000;0.854280
9101.000000;0.853479
9100.000000;0.852769
9099.000000;0.852300
9098.000000;0.852059
9097.000000;0.851870
9096.000000;0.851618
9095.000000;0.851368
9094.000000;0.851195
9093.000000;0.851051
9092.000000;0.850880
9091.000000;0.850690
9090.000000;0.850410
9089.000000;0.849880
9088.000000;0.849153
9087.000000;0.848594
9086.000000;0.848493
9085.000000;0.848730
9084.000000;0.848997
9083.000000;0.849173
9082.000000;0.849273
9081.000000;0.849198
9080.000000;0.848823
9079.000000;0.848234
9078.000000;0.847674
9077.000000;0.847319
9076.000000;0.847238
9075.000000;0.847453
9074.000000;0.847847
9073.000000;0.848142
9072.000000;0.848130
9071.000000;0.847837
9070.000000;0.847365
9069.000000;0.846733
9068.000000;0.846014
9067.000000;0.845448
9066.000000;0.845218
9065.000000;0.845246
9064.000000;0.845326
9063.000000;0.845333
9062.000000;0.845188
9061.000000;0.844847
9060.000000;0.844453
9059.000000;0.844275
9058.000000;0.844334
9057.000000;0.844293
9056.000000;0.843899
9055.000000;0.843304
9054.000000;0.842788
9053.000000;0.842412
