Criado como novo conjunto de dados;"e2410_daniel_v2.spp","73985.9 Secs"
cm-1;Abs
10000.000000;1.396373
9999.000000;1.395889
9998.000000;1.395423
9997.000000;1.394918
9996.000000;1.394624
9995.000000;1.394550
9994.000000;1.394020
9993.000000;1.392483
9992.000000;1.390116
9991.000000;1.387746
9990.000000;1.386234
9989.000000;1.385904
9988.000000;1.386306
9987.000000;1.386549
9986.000000;1.386069
9985.000000;1.385127
9984.000000;1.384427
9983.000000;1.384361
9982.000000;1.384783
9981.000000;1.385380
9980.000000;1.385899
9979.000000;1.386034
9978.000000;1.385434
9977.000000;1.384043
9976.000000;1.382327
9975.000000;1.381039
9974.000000;1.380725
9973.000000;1.381328
9972.000000;1.382126
9971.000000;1.382234
9970.000000;1.381439
9969.000000;1.380440
9968.000000;1.380006
9967.000000;1.380025
9966.000000;1.379693
9965.000000;1.378550
9964.000000;1.376904
9963.000000;1.375221
9962.000000;1.373621
9961.000000;1.372143
9960.000000;1.371036
9959.000000;1.370463
9958.000000;1.370243
9957.000000;1.370187
9956.000000;1.370394
9955.000000;1.370857
9954.000000;1.370996
9953.000000;1.370084
9952.000000;1.368131
9951.000000;1.366011
9950.000000;1.364682
9949.000000;1.364565
9948.000000;1.365486
9947.000000;1.366787
9946.000000;1.367513
9945.000000;1.367040
9944.000000;1.365800
9943.000000;1.365055
9942.000000;1.365616
9941.000000;1.366894
9940.000000;1.367451
9939.000000;1.366455
9938.000000;1.364334
9937.000000;1.362045
9936.000000;1.360158
9935.000000;1.358851
9934.000000;1.358391
9933.000000;1.359037
9932.000000;1.360425
9931.000000;1.361460
9930.000000;1.361229
9929.000000;1.359922
9928.000000;1.358573
9927.000000;1.357969
9926.000000;1.358052
9925.000000;1.358273
9924.000000;1.358152
9923.000000;1.357394
9922.000000;1.355861
9921.000000;1.353828
9920.000000;1.352110
9919.000000;1.351519
9918.000000;1.352071
9917.000000;1.352905
9916.000000;1.353104
9915.000000;1.352507
9914.000000;1.351673
9913.000000;1.351201
9912.000000;1.351199
9911.000000;1.351336
9910.000000;1.351220
9909.000000;1.350697
9908.000000;1.349853
9907.000000;1.348871
9906.000000;1.347912
9905.000000;1.347082
9904.000000;1.346431
9903.000000;1.345977
9902.000000;1.345756
9901.000000;1.345777
9900.000000;1.345880
9899.000000;1.345721
9898.000000;1.345081
9897.000000;1.344102
9896.000000;1.343073
9895.000000;1.342049
9894.000000;1.340967
9893.000000;1.340108
9892.000000;1.339977
9891.000000;1.340496
9890.000000;1.340687
9889.000000;1.339652
9888.000000;1.337716
9887.000000;1.336124
9886.000000;1.335654
9885.000000;1.335970
9884.000000;1.336287
9883.000000;1.336230
9882.000000;1.335871
9881.000000;1.335347
9880.000000;1.334787
9879.000000;1.334387
9878.000000;1.334236
9877.000000;1.334154
9876.000000;1.333901
9875.000000;1.333472
9874.000000;1.333016
9873.000000;1.332517
9872.000000;1.331764
9871.000000;1.330663
9870.000000;1.329448
9869.000000;1.328567
9868.000000;1.328356
9867.000000;1.328766
9866.000000;1.329310
9865.000000;1.329324
9864.000000;1.328395
9863.000000;1.326627
9862.000000;1.324528
9861.000000;1.322698
9860.000000;1.321539
9859.000000;1.321084
9858.000000;1.321040
9857.000000;1.321060
9856.000000;1.320996
9855.000000;1.320816
9854.000000;1.320378
9853.000000;1.319505
9852.000000;1.318302
9851.000000;1.317155
9850.000000;1.316361
9849.000000;1.315970
9848.000000;1.315990
9847.000000;1.316424
9846.000000;1.316942
9845.000000;1.316847
9844.000000;1.315720
9843.000000;1.313973
9842.000000;1.312487
9841.000000;1.311800
9840.000000;1.311869
9839.000000;1.312430
9838.000000;1.313223
9837.000000;1.313895
9836.000000;1.314026
9835.000000;1.313403
9834.000000;1.312224
9833.000000;1.310961
9832.000000;1.310053
9831.000000;1.309657
9830.000000;1.309594
9829.000000;1.309575
9828.000000;1.309520
9827.000000;1.309486
9826.000000;1.309282
9825.000000;1.308480
9824.000000;1.307059
9823.000000;1.305720
9822.000000;1.305211
9821.000000;1.305453
9820.000000;1.305688
9819.000000;1.305426
9818.000000;1.304882
9817.000000;1.304506
9816.000000;1.304403
9815.000000;1.304279
9814.000000;1.303726
9813.000000;1.302547
9812.000000;1.300993
9811.000000;1.299658
9810.000000;1.298912
9809.000000;1.298525
9808.000000;1.298029
9807.000000;1.297345
9806.000000;1.296741
9805.000000;1.296319
9804.000000;1.295950
9803.000000;1.295649
9802.000000;1.295520
9801.000000;1.295345
9800.000000;1.294748
9799.000000;1.293871
9798.000000;1.293355
9797.000000;1.293461
9796.000000;1.293663
9795.000000;1.293379
9794.000000;1.292703
9793.000000;1.292108
9792.000000;1.291773
9791.000000;1.291536
9790.000000;1.291259
9789.000000;1.290946
9788.000000;1.290696
9787.000000;1.290724
9786.000000;1.291178
9785.000000;1.291734
9784.000000;1.291692
9783.000000;1.290757
9782.000000;1.289432
9781.000000;1.288348
9780.000000;1.287519
9779.000000;1.286582
9778.000000;1.285470
9777.000000;1.284425
9776.000000;1.283579
9775.000000;1.282969
9774.000000;1.282817
9773.000000;1.283329
9772.000000;1.284182
9771.000000;1.284573
9770.000000;1.283886
9769.000000;1.282165
9768.000000;1.280021
9767.000000;1.278230
9766.000000;1.277284
9765.000000;1.277066
9764.000000;1.277056
9763.000000;1.277002
9762.000000;1.277150
9761.000000;1.277607
9760.000000;1.277857
9759.000000;1.277393
9758.000000;1.276529
9757.000000;1.276022
9756.000000;1.276025
9755.000000;1.276014
9754.000000;1.275687
9753.000000;1.275306
9752.000000;1.275020
9751.000000;1.274465
9750.000000;1.273348
9749.000000;1.271949
9748.000000;1.270748
9747.000000;1.269926
9746.000000;1.269474
9745.000000;1.269436
9744.000000;1.269796
9743.000000;1.270298
9742.000000;1.270561
9741.000000;1.270228
9740.000000;1.269018
9739.000000;1.266992
9738.000000;1.264880
9737.000000;1.263700
9736.000000;1.263781
9735.000000;1.264409
9734.000000;1.264663
9733.000000;1.264368
9732.000000;1.263972
9731.000000;1.263787
9730.000000;1.263704
9729.000000;1.263470
9728.000000;1.262925
9727.000000;1.262064
9726.000000;1.261133
9725.000000;1.260524
9724.000000;1.260336
9723.000000;1.260182
9722.000000;1.259685
9721.000000;1.259032
9720.000000;1.258703
9719.000000;1.258766
9718.000000;1.258781
9717.000000;1.258329
9716.000000;1.257270
9715.000000;1.255594
9714.000000;1.253508
9713.000000;1.251720
9712.000000;1.251098
9711.000000;1.251728
9710.000000;1.252628
9709.000000;1.252734
9708.000000;1.252001
9707.000000;1.251217
9706.000000;1.250890
9705.000000;1.250753
9704.000000;1.250370
9703.000000;1.249793
9702.000000;1.249415
9701.000000;1.249406
9700.000000;1.249520
9699.000000;1.249383
9698.000000;1.248765
9697.000000;1.247653
9696.000000;1.246245
9695.000000;1.244890
9694.000000;1.243898
9693.000000;1.243330
9692.000000;1.243063
9691.000000;1.243052
9690.000000;1.243363
9689.000000;1.243884
9688.000000;1.244148
9687.000000;1.243664
9686.000000;1.242452
9685.000000;1.241127
9684.000000;1.240398
9683.000000;1.240490
9682.000000;1.241041
9681.000000;1.241472
9680.000000;1.241462
9679.000000;1.241117
9678.000000;1.240715
9677.000000;1.240320
9676.000000;1.239738
9675.000000;1.238814
9674.000000;1.237685
9673.000000;1.236669
9672.000000;1.235972
9671.000000;1.235562
9670.000000;1.235260
9669.000000;1.234894
9668.000000;1.234417
9667.000000;1.233927
9666.000000;1.233490
9665.000000;1.232933
9664.000000;1.231979
9663.000000;1.230699
9662.000000;1.229649
9661.000000;1.229353
9660.000000;1.229759
9659.000000;1.230368
9658.000000;1.230763
9657.000000;1.230751
9656.000000;1.230135
9655.000000;1.228840
9654.000000;1.227312
9653.000000;1.226330
9652.000000;1.226215
9651.000000;1.226463
9650.000000;1.226370
9649.000000;1.225783
9648.000000;1.225056
9647.000000;1.224486
9646.000000;1.224130
9645.000000;1.224022
9644.000000;1.224212
9643.000000;1.224556
9642.000000;1.224734
9641.000000;1.224531
9640.000000;1.223936
9639.000000;1.222976
9638.000000;1.221694
9637.000000;1.220383
9636.000000;1.219579
9635.000000;1.219618
9634.000000;1.220219
9633.000000;1.220630
9632.000000;1.220249
9631.000000;1.219142
9630.000000;1.217987
9629.000000;1.217475
9628.000000;1.217693
9627.000000;1.218053
9626.000000;1.217878
9625.000000;1.217033
9624.000000;1.215906
9623.000000;1.214914
9622.000000;1.214177
9621.000000;1.213648
9620.000000;1.213267
9619.000000;1.212889
9618.000000;1.212289
9617.000000;1.211459
9616.000000;1.210815
9615.000000;1.210860
9614.000000;1.211581
9613.000000;1.212329
9612.000000;1.212360
9611.000000;1.211465
9610.000000;1.210086
9609.000000;1.208964
9608.000000;1.208702
9607.000000;1.209395
9606.000000;1.210433
9605.000000;1.210765
9604.000000;1.209708
9603.000000;1.207675
9602.000000;1.205939
9601.000000;1.205482
9600.000000;1.206082
9599.000000;1.206637
9598.000000;1.206358
9597.000000;1.205457
9596.000000;1.204600
9595.000000;1.203966
9594.000000;1.203132
9593.000000;1.201791
9592.000000;1.200279
9591.000000;1.199235
9590.000000;1.198914
9589.000000;1.199023
9588.000000;1.199147
9587.000000;1.199170
9586.000000;1.199235
9585.000000;1.199387
9584.000000;1.199338
9583.000000;1.198632
9582.000000;1.197136
9581.000000;1.195412
9580.000000;1.194464
9579.000000;1.194892
9578.000000;1.196255
9577.000000;1.197376
9576.000000;1.197335
9575.000000;1.196156
9574.000000;1.194583
9573.000000;1.193365
9572.000000;1.192758
9571.000000;1.192486
9570.000000;1.192056
9569.000000;1.191261
9568.000000;1.190454
9567.000000;1.190206
9566.000000;1.190598
9565.000000;1.191052
9564.000000;1.191045
9563.000000;1.190781
9562.000000;1.190853
9561.000000;1.191364
9560.000000;1.191738
9559.000000;1.191386
9558.000000;1.190214
9557.000000;1.188475
9556.000000;1.186512
9555.000000;1.184802
9554.000000;1.183858
9553.000000;1.183790
9552.000000;1.184137
9551.000000;1.184383
9550.000000;1.184498
9549.000000;1.184734
9548.000000;1.185052
9547.000000;1.185044
9546.000000;1.184378
9545.000000;1.183082
9544.000000;1.181453
9543.000000;1.179973
9542.000000;1.179212
9541.000000;1.179434
9540.000000;1.180196
9539.000000;1.180631
9538.000000;1.180291
9537.000000;1.179517
9536.000000;1.178834
9535.000000;1.178294
9534.000000;1.177648
9533.000000;1.176946
9532.000000;1.176590
9531.000000;1.176797
9530.000000;1.177244
9529.000000;1.177318
9528.000000;1.176631
9527.000000;1.175272
9526.000000;1.173763
9525.000000;1.172804
9524.000000;1.172819
9523.000000;1.173557
9522.000000;1.174179
9521.000000;1.173963
9520.000000;1.172957
9519.000000;1.171790
9518.000000;1.170871
9517.000000;1.170011
9516.000000;1.168900
9515.000000;1.167709
9514.000000;1.166954
9513.000000;1.166827
9512.000000;1.166949
9511.000000;1.166875
9510.000000;1.166634
9509.000000;1.166583
9508.000000;1.166830
9507.000000;1.167032
9506.000000;1.166804
9505.000000;1.166182
9504.000000;1.165586
9503.000000;1.165376
9502.000000;1.165530
9501.000000;1.165721
9500.000000;1.165648
9499.000000;1.165257
9498.000000;1.164738
9497.000000;1.164334
9496.000000;1.164133
9495.000000;1.163965
9494.000000;1.163497
9493.000000;1.162529
9492.000000;1.161264
9491.000000;1.160242
9490.000000;1.159912
9489.000000;1.160242
9488.000000;1.160724
9487.000000;1.160779
9486.000000;1.160200
9485.000000;1.159323
9484.000000;1.158774
9483.000000;1.158976
9482.000000;1.159793
9481.000000;1.160632
9480.000000;1.160913
9479.000000;1.160448
9478.000000;1.159386
9477.000000;1.157989
9476.000000;1.156581
9475.000000;1.155547
9474.000000;1.155087
9473.000000;1.154980
9472.000000;1.154718
9471.000000;1.153909
9470.000000;1.152499
9469.000000;1.150740
9468.000000;1.149115
9467.000000;1.148196
9466.000000;1.148268
9465.000000;1.149018
9464.000000;1.149787
9463.000000;1.150180
9462.000000;1.150230
9461.000000;1.150009
9460.000000;1.149421
9459.000000;1.148518
9458.000000;1.147704
9457.000000;1.147331
9456.000000;1.147260
9455.000000;1.147049
9454.000000;1.146484
9453.000000;1.145746
9452.000000;1.145147
9451.000000;1.144927
9450.000000;1.145219
9449.000000;1.145955
9448.000000;1.146762
9447.000000;1.147168
9446.000000;1.146983
9445.000000;1.146403
9444.000000;1.145724
9443.000000;1.145047
9442.000000;1.144299
9441.000000;1.143456
9440.000000;1.142679
9439.000000;1.142210
9438.000000;1.142106
9437.000000;1.142089
9436.000000;1.141788
9435.000000;1.141157
9434.000000;1.140541
9433.000000;1.140244
9432.000000;1.140174
9431.000000;1.140016
9430.000000;1.139628
9429.000000;1.139119
9428.000000;1.138646
9427.000000;1.138305
9426.000000;1.138182
9425.000000;1.138295
9424.000000;1.138473
9423.000000;1.138418
9422.000000;1.137954
9421.000000;1.137138
9420.000000;1.136147
9419.000000;1.135154
9418.000000;1.134293
9417.000000;1.133654
9416.000000;1.133278
9415.000000;1.133165
9414.000000;1.133227
9413.000000;1.133230
9412.000000;1.132918
9411.000000;1.132279
9410.000000;1.131581
9409.000000;1.131070
9408.000000;1.130715
9407.000000;1.130373
9406.000000;1.130056
9405.000000;1.129899
9404.000000;1.129922
9403.000000;1.129993
9402.000000;1.129977
9401.000000;1.129766
9400.000000;1.129262
9399.000000;1.128525
9398.000000;1.127858
9397.000000;1.127508
9396.000000;1.127318
9395.000000;1.126899
9394.000000;1.126149
9393.000000;1.125359
9392.000000;1.124771
9391.000000;1.124302
9390.000000;1.123817
9389.000000;1.123431
9388.000000;1.123313
9387.000000;1.123347
9386.000000;1.123202
9385.000000;1.122698
9384.000000;1.121951
9383.000000;1.121222
9382.000000;1.120775
9381.000000;1.120826
9380.000000;1.121369
9379.000000;1.121963
9378.000000;1.121943
9377.000000;1.121056
9376.000000;1.119837
9375.000000;1.119133
9374.000000;1.119233
9373.000000;1.119652
9372.000000;1.119811
9371.000000;1.119693
9370.000000;1.119633
9369.000000;1.119645
9368.000000;1.119346
9367.000000;1.118551
9366.000000;1.117618
9365.000000;1.117038
9364.000000;1.116931
9363.000000;1.117098
9362.000000;1.117358
9361.000000;1.117561
9360.000000;1.117442
9359.000000;1.116790
9358.000000;1.115792
9357.000000;1.114977
9356.000000;1.114729
9355.000000;1.114945
9354.000000;1.115172
9353.000000;1.115009
9352.000000;1.114403
9351.000000;1.113628
9350.000000;1.112984
9349.000000;1.112477
9348.000000;1.111893
9347.000000;1.111189
9346.000000;1.110622
9345.000000;1.110353
9344.000000;1.110149
9343.000000;1.109710
9342.000000;1.109127
9341.000000;1.108695
9340.000000;1.108370
9339.000000;1.107766
9338.000000;1.106727
9337.000000;1.105603
9336.000000;1.104877
9335.000000;1.104737
9334.000000;1.105058
9333.000000;1.105534
9332.000000;1.105784
9331.000000;1.105609
9330.000000;1.105285
9329.000000;1.105349
9328.000000;1.105936
9327.000000;1.106504
9326.000000;1.106391
9325.000000;1.105492
9324.000000;1.104251
9323.000000;1.103210
9322.000000;1.102776
9321.000000;1.103163
9320.000000;1.104161
9319.000000;1.105029
9318.000000;1.104994
9317.000000;1.104016
9316.000000;1.102824
9315.000000;1.102093
9314.000000;1.101776
9313.000000;1.101378
9312.000000;1.100672
9311.000000;1.099912
9310.000000;1.099379
9309.000000;1.098986
9308.000000;1.098485
9307.000000;1.097908
9306.000000;1.097546
9305.000000;1.097457
9304.000000;1.097225
9303.000000;1.096434
9302.000000;1.095266
9301.000000;1.094399
9300.000000;1.094244
9299.000000;1.094495
9298.000000;1.094514
9297.000000;1.094045
9296.000000;1.093406
9295.000000;1.093060
9294.000000;1.093146
9293.000000;1.093423
9292.000000;1.093555
9291.000000;1.093380
9290.000000;1.092974
9289.000000;1.092475
9288.000000;1.091908
9287.000000;1.091199
9286.000000;1.090370
9285.000000;1.089658
9284.000000;1.089366
9283.000000;1.089588
9282.000000;1.090092
9281.000000;1.090493
9280.000000;1.090564
9279.000000;1.090369
9278.000000;1.090038
9277.000000;1.089500
9276.000000;1.088591
9275.000000;1.087456
9274.000000;1.086633
9273.000000;1.086535
9272.000000;1.086933
9271.000000;1.087171
9270.000000;1.086899
9269.000000;1.086361
9268.000000;1.085985
9267.000000;1.085931
9266.000000;1.086138
9265.000000;1.086517
9264.000000;1.086881
9263.000000;1.086874
9262.000000;1.086251
9261.000000;1.085238
9260.000000;1.084400
9259.000000;1.084132
9258.000000;1.084369
9257.000000;1.084729
9256.000000;1.084795
9255.000000;1.084309
9254.000000;1.083293
9253.000000;1.082050
9252.000000;1.080969
9251.000000;1.080292
9250.000000;1.080048
9249.000000;1.080171
9248.000000;1.080554
9247.000000;1.080994
9246.000000;1.081214
9245.000000;1.081034
9244.000000;1.080532
9243.000000;1.080015
9242.000000;1.079789
9241.000000;1.079864
9240.000000;1.079866
9239.000000;1.079346
9238.000000;1.078296
9237.000000;1.077283
9236.000000;1.076906
9235.000000;1.077159
9234.000000;1.077447
9233.000000;1.077241
9232.000000;1.076570
9231.000000;1.075876
9230.000000;1.075537
9229.000000;1.075584
9228.000000;1.075751
9227.000000;1.075711
9226.000000;1.075341
9225.000000;1.074852
9224.000000;1.074574
9223.000000;1.074595
9222.000000;1.074679
9221.000000;1.074579
9220.000000;1.074291
9219.000000;1.073923
9218.000000;1.073484
9217.000000;1.072973
9216.000000;1.072538
9215.000000;1.072330
9214.000000;1.072210
9213.000000;1.071859
9212.000000;1.071202
9211.000000;1.070549
9210.000000;1.070243
9209.000000;1.070327
9208.000000;1.070617
9207.000000;1.070916
9206.000000;1.071037
9205.000000;1.070804
9204.000000;1.070239
9203.000000;1.069677
9202.000000;1.069482
9201.000000;1.069673
9200.000000;1.069954
9199.000000;1.070091
9198.000000;1.070082
9197.000000;1.069970
9196.000000;1.069678
9195.000000;1.069132
9194.000000;1.068411
9193.000000;1.067671
9192.000000;1.067010
9191.000000;1.066469
9190.000000;1.066087
9189.000000;1.065860
9188.000000;1.065691
9187.000000;1.065431
9186.000000;1.064967
9185.000000;1.064256
9184.000000;1.063358
9183.000000;1.062491
9182.000000;1.061965
9181.000000;1.061953
9180.000000;1.062349
9179.000000;1.062899
9178.000000;1.063442
9177.000000;1.063938
9176.000000;1.064335
9175.000000;1.064501
9174.000000;1.064308
9173.000000;1.063719
9172.000000;1.062791
9171.000000;1.061670
9170.000000;1.060551
9169.000000;1.059592
9168.000000;1.058863
9167.000000;1.058424
9166.000000;1.058401
9165.000000;1.058852
9164.000000;1.059546
9163.000000;1.059995
9162.000000;1.059844
9161.000000;1.059193
9160.000000;1.058455
9159.000000;1.057919
9158.000000;1.057552
9157.000000;1.057187
9156.000000;1.056787
9155.000000;1.056467
9154.000000;1.056344
9153.000000;1.056461
9152.000000;1.056775
9151.000000;1.057110
9150.000000;1.057183
9149.000000;1.056843
9148.000000;1.056296
9147.000000;1.055929
9146.000000;1.055854
9145.000000;1.055790
9144.000000;1.055491
9143.000000;1.055097
9142.000000;1.054838
9141.000000;1.054566
9140.000000;1.053919
9139.000000;1.052972
9138.000000;1.052354
9137.000000;1.052562
9136.000000;1.053367
9135.000000;1.054086
9134.000000;1.054266
9133.000000;1.053916
9132.000000;1.053204
9131.000000;1.052250
9130.000000;1.051231
9129.000000;1.050431
9128.000000;1.050052
9127.000000;1.050057
9126.000000;1.050228
9125.000000;1.050330
9124.000000;1.050231
9123.000000;1.049980
9122.000000;1.049756
9121.000000;1.049652
9120.000000;1.049503
9119.000000;1.049060
9118.000000;1.048333
9117.000000;1.047640
9116.000000;1.047251
9115.000000;1.047112
9114.000000;1.046973
9113.000000;1.046691
9112.000000;1.046320
9111.000000;1.045970
9110.000000;1.045706
9109.000000;1.045567
9108.000000;1.045559
9107.000000;1.045596
9106.000000;1.045525
9105.000000;1.045277
9104.000000;1.044978
9103.000000;1.044837
9102.000000;1.044929
9101.000000;1.045089
9100.000000;1.045078
9099.000000;1.044828
9098.000000;1.044498
9097.000000;1.044288
9096.000000;1.044241
9095.000000;1.044262
9094.000000;1.044292
9093.000000;1.044362
9092.000000;1.044475
9091.000000;1.044504
9090.000000;1.044285
9089.000000;1.043778
9088.000000;1.043099
9087.000000;1.042409
9086.000000;1.041834
9085.000000;1.041489
9084.000000;1.041466
9083.000000;1.041697
9082.000000;1.041877
9081.000000;1.041611
9080.000000;1.040735
9079.000000;1.039500
9078.000000;1.038413
9077.000000;1.037911
9076.000000;1.038143
9075.000000;1.038968
9074.000000;1.040040
9073.000000;1.040903
9072.000000;1.041165
9071.000000;1.040695
9070.000000;1.039709
9069.000000;1.038607
9068.000000;1.037711
9067.000000;1.037126
9066.000000;1.036823
9065.000000;1.036776
9064.000000;1.036948
9063.000000;1.037146
9062.000000;1.037026
9061.000000;1.036393
9060.000000;1.035501
9059.000000;1.034940
9058.000000;1.035115
9057.000000;1.035886
9056.000000;1.036720
9055.000000;1.037131
9054.000000;1.036928
9053.000000;1.036188
