Criado como novo conjunto de dados;"e2410_daniel_v2.spp","90726.5 Secs"
cm-1;Abs
10000.000000;0.083417
9999.000000;0.084249
9998.000000;0.085150
9997.000000;0.085956
9996.000000;0.086609
9995.000000;0.087160
9994.000000;0.087684
9993.000000;0.088177
9992.000000;0.088578
9991.000000;0.088891
9990.000000;0.089244
9989.000000;0.089773
9988.000000;0.090470
9987.000000;0.091209
9986.000000;0.091897
9985.000000;0.092540
9984.000000;0.093163
9983.000000;0.093755
9982.000000;0.094321
9981.000000;0.094919
9980.000000;0.095584
9979.000000;0.096273
9978.000000;0.096940
9977.000000;0.097620
9976.000000;0.098358
9975.000000;0.099084
9974.000000;0.099644
9973.000000;0.099975
9972.000000;0.100191
9971.000000;0.100474
9970.000000;0.100918
9969.000000;0.101493
9968.000000;0.102111
9967.000000;0.102696
9966.000000;0.103228
9965.000000;0.103740
9964.000000;0.104254
9963.000000;0.104759
9962.000000;0.105253
9961.000000;0.105807
9960.000000;0.106496
9959.000000;0.107267
9958.000000;0.107940
9957.000000;0.108411
9956.000000;0.108771
9955.000000;0.109185
9954.000000;0.109699
9953.000000;0.110246
9952.000000;0.110777
9951.000000;0.111305
9950.000000;0.111837
9949.000000;0.112367
9948.000000;0.112920
9947.000000;0.113540
9946.000000;0.114208
9945.000000;0.114844
9944.000000;0.115391
9943.000000;0.115865
9942.000000;0.116308
9941.000000;0.116763
9940.000000;0.117282
9939.000000;0.117885
9938.000000;0.118515
9937.000000;0.119103
9936.000000;0.119687
9935.000000;0.120369
9934.000000;0.121146
9933.000000;0.121890
9932.000000;0.122530
9931.000000;0.123149
9930.000000;0.123834
9929.000000;0.124535
9928.000000;0.125157
9927.000000;0.125714
9926.000000;0.126281
9925.000000;0.126870
9924.000000;0.127459
9923.000000;0.128094
9922.000000;0.128860
9921.000000;0.129755
9920.000000;0.130685
9919.000000;0.131550
9918.000000;0.132266
9917.000000;0.132732
9916.000000;0.132913
9915.000000;0.132977
9914.000000;0.133228
9913.000000;0.133849
9912.000000;0.134760
9911.000000;0.135742
9910.000000;0.136632
9909.000000;0.137379
9908.000000;0.138006
9907.000000;0.138570
9906.000000;0.139142
9905.000000;0.139734
9904.000000;0.140280
9903.000000;0.140709
9902.000000;0.141060
9901.000000;0.141494
9900.000000;0.142156
9899.000000;0.143012
9898.000000;0.143816
9897.000000;0.144302
9896.000000;0.144449
9895.000000;0.144550
9894.000000;0.144945
9893.000000;0.145704
9892.000000;0.146605
9891.000000;0.147390
9890.000000;0.147996
9889.000000;0.148549
9888.000000;0.149220
9887.000000;0.150086
9886.000000;0.151071
9885.000000;0.151990
9884.000000;0.152694
9883.000000;0.153204
9882.000000;0.153676
9881.000000;0.154232
9880.000000;0.154867
9879.000000;0.155517
9878.000000;0.156130
9877.000000;0.156665
9876.000000;0.157093
9875.000000;0.157459
9874.000000;0.157907
9873.000000;0.158571
9872.000000;0.159436
9871.000000;0.160342
9870.000000;0.161133
9869.000000;0.161803
9868.000000;0.162478
9867.000000;0.163256
9866.000000;0.164067
9865.000000;0.164722
9864.000000;0.165131
9863.000000;0.165438
9862.000000;0.165898
9861.000000;0.166640
9860.000000;0.167597
9859.000000;0.168609
9858.000000;0.169513
9857.000000;0.170175
9856.000000;0.170566
9855.000000;0.170856
9854.000000;0.171312
9853.000000;0.172012
9852.000000;0.172742
9851.000000;0.173268
9850.000000;0.173633
9849.000000;0.174107
9848.000000;0.174843
9847.000000;0.175729
9846.000000;0.176568
9845.000000;0.177292
9844.000000;0.177954
9843.000000;0.178597
9842.000000;0.179244
9841.000000;0.179959
9840.000000;0.180784
9839.000000;0.181624
9838.000000;0.182297
9837.000000;0.182764
9836.000000;0.183234
9835.000000;0.183931
9834.000000;0.184809
9833.000000;0.185610
9832.000000;0.186204
9831.000000;0.186745
9830.000000;0.187446
9829.000000;0.188294
9828.000000;0.189095
9827.000000;0.189736
9826.000000;0.190309
9825.000000;0.190973
9824.000000;0.191771
9823.000000;0.192595
9822.000000;0.193310
9821.000000;0.193885
9820.000000;0.194430
9819.000000;0.195082
9818.000000;0.195848
9817.000000;0.196608
9816.000000;0.197291
9815.000000;0.197975
9814.000000;0.198760
9813.000000;0.199599
9812.000000;0.200347
9811.000000;0.200963
9810.000000;0.201569
9809.000000;0.202324
9808.000000;0.203274
9807.000000;0.204325
9806.000000;0.205265
9805.000000;0.205895
9804.000000;0.206201
9803.000000;0.206423
9802.000000;0.206855
9801.000000;0.207601
9800.000000;0.208558
9799.000000;0.209569
9798.000000;0.210478
9797.000000;0.211125
9796.000000;0.211462
9795.000000;0.211715
9794.000000;0.212236
9793.000000;0.213134
9792.000000;0.214163
9791.000000;0.215045
9790.000000;0.215750
9789.000000;0.216397
9788.000000;0.217012
9787.000000;0.217545
9786.000000;0.218052
9785.000000;0.218693
9784.000000;0.219548
9783.000000;0.220497
9782.000000;0.221309
9781.000000;0.221842
9780.000000;0.222192
9779.000000;0.222661
9778.000000;0.223476
9777.000000;0.224517
9776.000000;0.225383
9775.000000;0.225807
9774.000000;0.225920
9773.000000;0.226069
9772.000000;0.226476
9771.000000;0.227166
9770.000000;0.228106
9769.000000;0.229257
9768.000000;0.230481
9767.000000;0.231564
9766.000000;0.232356
9765.000000;0.232867
9764.000000;0.233219
9763.000000;0.233583
9762.000000;0.234124
9761.000000;0.234907
9760.000000;0.235838
9759.000000;0.236739
9758.000000;0.237504
9757.000000;0.238169
9756.000000;0.238855
9755.000000;0.239685
9754.000000;0.240700
9753.000000;0.241798
9752.000000;0.242777
9751.000000;0.243521
9750.000000;0.244132
9749.000000;0.244831
9748.000000;0.245740
9747.000000;0.246801
9746.000000;0.247850
9745.000000;0.248717
9744.000000;0.249309
9743.000000;0.249692
9742.000000;0.250057
9741.000000;0.250539
9740.000000;0.251064
9739.000000;0.251488
9738.000000;0.251830
9737.000000;0.252274
9736.000000;0.252942
9735.000000;0.253762
9734.000000;0.254582
9733.000000;0.255300
9732.000000;0.255890
9731.000000;0.256399
9730.000000;0.256994
9729.000000;0.257880
9728.000000;0.259055
9727.000000;0.260205
9726.000000;0.260948
9725.000000;0.261237
9724.000000;0.261447
9723.000000;0.261982
9722.000000;0.262844
9721.000000;0.263655
9720.000000;0.264141
9719.000000;0.264509
9718.000000;0.265204
9717.000000;0.266337
9716.000000;0.267521
9715.000000;0.268316
9714.000000;0.268722
9713.000000;0.269097
9712.000000;0.269727
9711.000000;0.270601
9710.000000;0.271538
9709.000000;0.272358
9708.000000;0.272982
9707.000000;0.273507
9706.000000;0.274187
9705.000000;0.275181
9704.000000;0.276333
9703.000000;0.277321
9702.000000;0.278029
9701.000000;0.278632
9700.000000;0.279279
9699.000000;0.279892
9698.000000;0.280366
9697.000000;0.280797
9696.000000;0.281380
9695.000000;0.282160
9694.000000;0.283010
9693.000000;0.283787
9692.000000;0.284430
9691.000000;0.284939
9690.000000;0.285352
9689.000000;0.285756
9688.000000;0.286274
9687.000000;0.287027
9686.000000;0.288060
9685.000000;0.289271
9684.000000;0.290427
9683.000000;0.291350
9682.000000;0.292070
9681.000000;0.292700
9680.000000;0.293211
9679.000000;0.293508
9678.000000;0.293725
9677.000000;0.294203
9676.000000;0.295062
9675.000000;0.295993
9674.000000;0.296647
9673.000000;0.297081
9672.000000;0.297630
9671.000000;0.298442
9670.000000;0.299372
9669.000000;0.300255
9668.000000;0.301061
9667.000000;0.301781
9666.000000;0.302360
9665.000000;0.302830
9664.000000;0.303354
9663.000000;0.304070
9662.000000;0.304988
9661.000000;0.306059
9660.000000;0.307224
9659.000000;0.308352
9658.000000;0.309253
9657.000000;0.309873
9656.000000;0.310396
9655.000000;0.311058
9654.000000;0.311883
9653.000000;0.312663
9652.000000;0.313187
9651.000000;0.313447
9650.000000;0.313635
9649.000000;0.313974
9648.000000;0.314565
9647.000000;0.315362
9646.000000;0.316263
9645.000000;0.317167
9644.000000;0.317966
9643.000000;0.318557
9642.000000;0.318931
9641.000000;0.319228
9640.000000;0.319645
9639.000000;0.320301
9638.000000;0.321198
9637.000000;0.322239
9636.000000;0.323249
9635.000000;0.324050
9634.000000;0.324627
9633.000000;0.325147
9632.000000;0.325717
9631.000000;0.326201
9630.000000;0.326430
9629.000000;0.326576
9628.000000;0.327109
9627.000000;0.328303
9626.000000;0.329914
9625.000000;0.331389
9624.000000;0.332317
9623.000000;0.332652
9622.000000;0.332658
9621.000000;0.332730
9620.000000;0.333131
9619.000000;0.333782
9618.000000;0.334361
9617.000000;0.334702
9616.000000;0.335023
9615.000000;0.335659
9614.000000;0.336629
9613.000000;0.337594
9612.000000;0.338219
9611.000000;0.338506
9610.000000;0.338772
9609.000000;0.339359
9608.000000;0.340362
9607.000000;0.341580
9606.000000;0.342743
9605.000000;0.343777
9604.000000;0.344760
9603.000000;0.345608
9602.000000;0.345985
9601.000000;0.345673
9600.000000;0.344963
9599.000000;0.344503
9598.000000;0.344757
9597.000000;0.345683
9596.000000;0.346903
9595.000000;0.348062
9594.000000;0.349056
9593.000000;0.350041
9592.000000;0.351226
9591.000000;0.352570
9590.000000;0.353708
9589.000000;0.354290
9588.000000;0.354397
9587.000000;0.354466
9586.000000;0.354781
9585.000000;0.355205
9584.000000;0.355472
9583.000000;0.355600
9582.000000;0.355876
9581.000000;0.356524
9580.000000;0.357502
9579.000000;0.358564
9578.000000;0.359428
9577.000000;0.359945
9576.000000;0.360228
9575.000000;0.360622
9574.000000;0.361382
9573.000000;0.362347
9572.000000;0.363019
9571.000000;0.363059
9570.000000;0.362676
9569.000000;0.362433
9568.000000;0.362693
9567.000000;0.363324
9566.000000;0.363980
9565.000000;0.364561
9564.000000;0.365280
9563.000000;0.366279
9562.000000;0.367364
9561.000000;0.368200
9560.000000;0.368680
9559.000000;0.368955
9558.000000;0.369183
9557.000000;0.369420
9556.000000;0.369749
9555.000000;0.370300
9554.000000;0.371073
9553.000000;0.371887
9552.000000;0.372592
9551.000000;0.373225
9550.000000;0.373864
9549.000000;0.374461
9548.000000;0.374944
9547.000000;0.375373
9546.000000;0.375854
9545.000000;0.376367
9544.000000;0.376823
9543.000000;0.377230
9542.000000;0.377674
9541.000000;0.378147
9540.000000;0.378557
9539.000000;0.378901
9538.000000;0.379273
9537.000000;0.379674
9536.000000;0.379971
9535.000000;0.380095
9534.000000;0.380165
9533.000000;0.380348
9532.000000;0.380661
9531.000000;0.380999
9530.000000;0.381281
9529.000000;0.381528
9528.000000;0.381841
9527.000000;0.382347
9526.000000;0.383090
9525.000000;0.383931
9524.000000;0.384638
9523.000000;0.385100
9522.000000;0.385403
9521.000000;0.385667
9520.000000;0.385914
9519.000000;0.386157
9518.000000;0.386506
9517.000000;0.387036
9516.000000;0.387624
9515.000000;0.388075
9514.000000;0.388382
9513.000000;0.388717
9512.000000;0.389146
9511.000000;0.389503
9510.000000;0.389630
9509.000000;0.389635
9508.000000;0.389781
9507.000000;0.390150
9506.000000;0.390514
9505.000000;0.390611
9504.000000;0.390499
9503.000000;0.390560
9502.000000;0.391099
9501.000000;0.391979
9500.000000;0.392746
9499.000000;0.393128
9498.000000;0.393272
9497.000000;0.393437
9496.000000;0.393604
9495.000000;0.393591
9494.000000;0.393471
9493.000000;0.393632
9492.000000;0.394350
9491.000000;0.395454
9490.000000;0.396506
9489.000000;0.397193
9488.000000;0.397447
9487.000000;0.397296
9486.000000;0.396826
9485.000000;0.396244
9484.000000;0.395807
9483.000000;0.395644
9482.000000;0.395707
9481.000000;0.395916
9480.000000;0.396236
9479.000000;0.396627
9478.000000;0.397033
9477.000000;0.397497
9476.000000;0.398160
9475.000000;0.399061
9474.000000;0.399954
9473.000000;0.400458
9472.000000;0.400400
9471.000000;0.399978
9470.000000;0.399568
9469.000000;0.399403
9468.000000;0.399435
9467.000000;0.399484
9466.000000;0.399511
9465.000000;0.399701
9464.000000;0.400243
9463.000000;0.401012
9462.000000;0.401571
9461.000000;0.401590
9460.000000;0.401251
9459.000000;0.401093
9458.000000;0.401405
9457.000000;0.401869
9456.000000;0.401933
9455.000000;0.401502
9454.000000;0.401092
9453.000000;0.401254
9452.000000;0.401994
9451.000000;0.402830
9450.000000;0.403294
9449.000000;0.403236
9448.000000;0.402746
9447.000000;0.402005
9446.000000;0.401285
9445.000000;0.400919
9444.000000;0.401106
9443.000000;0.401741
9442.000000;0.402491
9441.000000;0.403016
9440.000000;0.403145
9439.000000;0.402959
9438.000000;0.402775
9437.000000;0.402955
9436.000000;0.403582
9435.000000;0.404326
9434.000000;0.404719
9433.000000;0.404583
9432.000000;0.404130
9431.000000;0.403667
9430.000000;0.403319
9429.000000;0.403067
9428.000000;0.402943
9427.000000;0.403066
9426.000000;0.403463
9425.000000;0.403948
9424.000000;0.404252
9423.000000;0.404299
9422.000000;0.404266
9421.000000;0.404323
9420.000000;0.404374
9419.000000;0.404187
9418.000000;0.403778
9417.000000;0.403475
9416.000000;0.403497
9415.000000;0.403616
9414.000000;0.403428
9413.000000;0.402897
9412.000000;0.402427
9411.000000;0.402392
9410.000000;0.402765
9409.000000;0.403242
9408.000000;0.403602
9407.000000;0.403861
9406.000000;0.404166
9405.000000;0.404589
9404.000000;0.404984
9403.000000;0.405062
9402.000000;0.404678
9401.000000;0.404043
9400.000000;0.403560
9399.000000;0.403454
9398.000000;0.403647
9397.000000;0.403939
9396.000000;0.404126
9395.000000;0.403969
9394.000000;0.403313
9393.000000;0.402346
9392.000000;0.401525
9391.000000;0.401100
9390.000000;0.400876
9389.000000;0.400595
9388.000000;0.400345
9387.000000;0.400371
9386.000000;0.400609
9385.000000;0.400686
9384.000000;0.400415
9383.000000;0.400024
9382.000000;0.399846
9381.000000;0.399928
9380.000000;0.400001
9379.000000;0.399743
9378.000000;0.399064
9377.000000;0.398230
9376.000000;0.397694
9375.000000;0.397664
9374.000000;0.397855
9373.000000;0.397794
9372.000000;0.397343
9371.000000;0.396785
9370.000000;0.396440
9369.000000;0.396413
9368.000000;0.396702
9367.000000;0.397263
9366.000000;0.397878
9365.000000;0.398218
9364.000000;0.398177
9363.000000;0.397966
9362.000000;0.397713
9361.000000;0.397220
9360.000000;0.396319
9359.000000;0.395259
9358.000000;0.394436
9357.000000;0.393901
9356.000000;0.393467
9355.000000;0.393237
9354.000000;0.393577
9353.000000;0.394450
9352.000000;0.395172
9351.000000;0.395105
9350.000000;0.394369
9349.000000;0.393549
9348.000000;0.392864
9347.000000;0.392024
9346.000000;0.390905
9345.000000;0.389998
9344.000000;0.389911
9343.000000;0.390617
9342.000000;0.391453
9341.000000;0.391819
9340.000000;0.391669
9339.000000;0.391265
9338.000000;0.390690
9337.000000;0.389832
9336.000000;0.388750
9335.000000;0.387819
9334.000000;0.387403
9333.000000;0.387498
9332.000000;0.387761
9331.000000;0.387870
9330.000000;0.387759
9329.000000;0.387571
9328.000000;0.387478
9327.000000;0.387542
9326.000000;0.387678
9325.000000;0.387714
9324.000000;0.387534
9323.000000;0.387181
9322.000000;0.386752
9321.000000;0.386217
9320.000000;0.385457
9319.000000;0.384534
9318.000000;0.383782
9317.000000;0.383476
9316.000000;0.383485
9315.000000;0.383438
9314.000000;0.383217
9313.000000;0.383048
9312.000000;0.383029
9311.000000;0.382832
9310.000000;0.382137
9309.000000;0.381196
9308.000000;0.380645
9307.000000;0.380741
9306.000000;0.381065
9305.000000;0.381054
9304.000000;0.380596
9303.000000;0.379953
9302.000000;0.379316
9301.000000;0.378681
9300.000000;0.378034
9299.000000;0.377396
9298.000000;0.376711
9297.000000;0.375897
9296.000000;0.375061
9295.000000;0.374471
9294.000000;0.374272
9293.000000;0.374329
9292.000000;0.374378
9291.000000;0.374239
9290.000000;0.373897
9289.000000;0.373527
9288.000000;0.373463
9287.000000;0.373926
9286.000000;0.374676
9285.000000;0.375074
9284.000000;0.374677
9283.000000;0.373712
9282.000000;0.372827
9281.000000;0.372423
9280.000000;0.372324
9279.000000;0.372055
9278.000000;0.371310
9277.000000;0.370174
9276.000000;0.369016
9275.000000;0.368221
9274.000000;0.367916
9273.000000;0.367885
9272.000000;0.367762
9271.000000;0.367345
9270.000000;0.366720
9269.000000;0.366074
9268.000000;0.365462
9267.000000;0.364786
9266.000000;0.364004
9265.000000;0.363266
9264.000000;0.362821
9263.000000;0.362773
9262.000000;0.362967
9261.000000;0.363117
9260.000000;0.363052
9259.000000;0.362774
9258.000000;0.362332
9257.000000;0.361683
9256.000000;0.360784
9255.000000;0.359759
9254.000000;0.358923
9253.000000;0.358551
9252.000000;0.358616
9251.000000;0.358770
9250.000000;0.358641
9249.000000;0.358213
9248.000000;0.357848
9247.000000;0.357886
9246.000000;0.358208
9245.000000;0.358287
9244.000000;0.357694
9243.000000;0.356531
9242.000000;0.355327
9241.000000;0.354551
9240.000000;0.354270
9239.000000;0.354185
9238.000000;0.353940
9237.000000;0.353373
9236.000000;0.352557
9235.000000;0.351652
9234.000000;0.350783
9233.000000;0.350050
9232.000000;0.349593
9231.000000;0.349522
9230.000000;0.349759
9229.000000;0.350024
9228.000000;0.350036
9227.000000;0.349725
9226.000000;0.349201
9225.000000;0.348569
9224.000000;0.347829
9223.000000;0.346965
9222.000000;0.346084
9221.000000;0.345413
9220.000000;0.345137
9219.000000;0.345232
9218.000000;0.345472
9217.000000;0.345599
9216.000000;0.345470
9215.000000;0.345042
9214.000000;0.344299
9213.000000;0.343291
9212.000000;0.342222
9211.000000;0.341364
9210.000000;0.340831
9209.000000;0.340494
9208.000000;0.340177
9207.000000;0.339855
9206.000000;0.339618
9205.000000;0.339467
9204.000000;0.339239
9203.000000;0.338757
9202.000000;0.338022
9201.000000;0.337232
9200.000000;0.336591
9199.000000;0.336093
9198.000000;0.335533
9197.000000;0.334775
9196.000000;0.333971
9195.000000;0.333417
9194.000000;0.333194
9193.000000;0.333031
9192.000000;0.332598
9191.000000;0.331856
9190.000000;0.331054
9189.000000;0.330434
9188.000000;0.330035
9187.000000;0.329768
9186.000000;0.329562
9185.000000;0.329413
9184.000000;0.329338
9183.000000;0.329324
9182.000000;0.329293
9181.000000;0.329107
9180.000000;0.328657
9179.000000;0.327996
9178.000000;0.327367
9177.000000;0.327006
9176.000000;0.326843
9175.000000;0.326471
9174.000000;0.325539
9173.000000;0.324212
9172.000000;0.323097
9171.000000;0.322626
9170.000000;0.322605
9169.000000;0.322494
9168.000000;0.322048
9167.000000;0.321515
9166.000000;0.321212
9165.000000;0.321121
9164.000000;0.320989
9163.000000;0.320664
9162.000000;0.320215
9161.000000;0.319796
9160.000000;0.319492
9159.000000;0.319291
9158.000000;0.319120
9157.000000;0.318887
9156.000000;0.318509
9155.000000;0.317915
9154.000000;0.317080
9153.000000;0.316127
9152.000000;0.315340
9151.000000;0.314955
9150.000000;0.314909
9149.000000;0.314901
9148.000000;0.314709
9147.000000;0.314323
9146.000000;0.313776
9145.000000;0.313036
9144.000000;0.312144
9143.000000;0.311303
9142.000000;0.310688
9141.000000;0.310257
9140.000000;0.309840
9139.000000;0.309315
9138.000000;0.308655
9137.000000;0.307911
9136.000000;0.307272
9135.000000;0.306994
9134.000000;0.307132
9133.000000;0.307397
9132.000000;0.307411
9131.000000;0.307032
9130.000000;0.306389
9129.000000;0.305710
9128.000000;0.305234
9127.000000;0.305115
9126.000000;0.305231
9125.000000;0.305168
9124.000000;0.304640
9123.000000;0.303852
9122.000000;0.303259
9121.000000;0.303006
9120.000000;0.302833
9119.000000;0.302466
9118.000000;0.301857
9117.000000;0.301071
9116.000000;0.300210
9115.000000;0.299530
9114.000000;0.299340
9113.000000;0.299631
9112.000000;0.299973
9111.000000;0.299909
9110.000000;0.299342
9109.000000;0.298468
9108.000000;0.297497
9107.000000;0.296603
9106.000000;0.295970
9105.000000;0.295678
9104.000000;0.295579
9103.000000;0.295440
9102.000000;0.295179
9101.000000;0.294857
9100.000000;0.294496
9099.000000;0.294079
9098.000000;0.293681
9097.000000;0.293429
9096.000000;0.293273
9095.000000;0.292952
9094.000000;0.292279
9093.000000;0.291378
9092.000000;0.290559
9091.000000;0.289993
9090.000000;0.289604
9089.000000;0.289224
9088.000000;0.288782
9087.000000;0.288330
9086.000000;0.287961
9085.000000;0.287739
9084.000000;0.287663
9083.000000;0.287616
9082.000000;0.287407
9081.000000;0.286939
9080.000000;0.286333
9079.000000;0.285815
9078.000000;0.285451
9077.000000;0.285057
9076.000000;0.284415
9075.000000;0.283524
9074.000000;0.282599
9073.000000;0.281889
9072.000000;0.281553
9071.000000;0.281598
9070.000000;0.281823
9069.000000;0.281889
9068.000000;0.281580
9067.000000;0.281018
9066.000000;0.280503
9065.000000;0.280177
9064.000000;0.279930
9063.000000;0.279614
9062.000000;0.279209
9061.000000;0.278757
9060.000000;0.278288
9059.000000;0.277893
9058.000000;0.277732
9057.000000;0.277840
9056.000000;0.277983
9055.000000;0.277815
9054.000000;0.277198
9053.000000;0.276284
