Criado como novo conjunto de dados;"0307_DANIEL.spp","6482.1 Secs"
cm-1;Abs
10000.000000;0.269395
9999.000000;0.268384
9998.000000;0.267443
9997.000000;0.266461
9996.000000;0.265339
9995.000000;0.264132
9994.000000;0.262916
9993.000000;0.261720
9992.000000;0.260580
9991.000000;0.259569
9990.000000;0.258669
9989.000000;0.257752
9988.000000;0.256738
9987.000000;0.255699
9986.000000;0.254713
9985.000000;0.253744
9984.000000;0.252698
9983.000000;0.251521
9982.000000;0.250204
9981.000000;0.248814
9980.000000;0.247530
9979.000000;0.246511
9978.000000;0.245657
9977.000000;0.244657
9976.000000;0.243345
9975.000000;0.241911
9974.000000;0.240653
9973.000000;0.239651
9972.000000;0.238757
9971.000000;0.237795
9970.000000;0.236679
9969.000000;0.235424
9968.000000;0.234146
9967.000000;0.232990
9966.000000;0.231980
9965.000000;0.231002
9964.000000;0.229954
9963.000000;0.228846
9962.000000;0.227704
9961.000000;0.226499
9960.000000;0.225228
9959.000000;0.223975
9958.000000;0.222797
9957.000000;0.221639
9956.000000;0.220429
9955.000000;0.219193
9954.000000;0.218024
9953.000000;0.216972
9952.000000;0.216022
9951.000000;0.215108
9950.000000;0.214121
9949.000000;0.212983
9948.000000;0.211740
9947.000000;0.210513
9946.000000;0.209347
9945.000000;0.208178
9944.000000;0.206966
9943.000000;0.205745
9942.000000;0.204537
9941.000000;0.203313
9940.000000;0.202087
9939.000000;0.200920
9938.000000;0.199798
9937.000000;0.198619
9936.000000;0.197360
9935.000000;0.196144
9934.000000;0.195069
9933.000000;0.194067
9932.000000;0.193009
9931.000000;0.191855
9930.000000;0.190634
9929.000000;0.189356
9928.000000;0.188041
9927.000000;0.186765
9926.000000;0.185599
9925.000000;0.184525
9924.000000;0.183453
9923.000000;0.182292
9922.000000;0.181007
9921.000000;0.179655
9920.000000;0.178360
9919.000000;0.177179
9918.000000;0.175983
9917.000000;0.174604
9916.000000;0.173098
9915.000000;0.171742
9914.000000;0.170706
9913.000000;0.169833
9912.000000;0.168851
9911.000000;0.167689
9910.000000;0.166479
9909.000000;0.165303
9908.000000;0.164082
9907.000000;0.162721
9906.000000;0.161259
9905.000000;0.159840
9904.000000;0.158564
9903.000000;0.157404
9902.000000;0.156262
9901.000000;0.155082
9900.000000;0.153876
9899.000000;0.152661
9898.000000;0.151420
9897.000000;0.150155
9896.000000;0.148903
9895.000000;0.147651
9894.000000;0.146296
9893.000000;0.144794
9892.000000;0.143282
9891.000000;0.141935
9890.000000;0.140742
9889.000000;0.139534
9888.000000;0.138231
9887.000000;0.136924
9886.000000;0.135710
9885.000000;0.134558
9884.000000;0.133370
9883.000000;0.132096
9882.000000;0.130759
9881.000000;0.129428
9880.000000;0.128156
9879.000000;0.126912
9878.000000;0.125588
9877.000000;0.124141
9876.000000;0.122678
9875.000000;0.121318
9874.000000;0.120023
9873.000000;0.118677
9872.000000;0.117279
9871.000000;0.115927
9870.000000;0.114657
9869.000000;0.113428
9868.000000;0.112240
9867.000000;0.111112
9866.000000;0.109952
9865.000000;0.108632
9864.000000;0.107187
9863.000000;0.105798
9862.000000;0.104550
9861.000000;0.103345
9860.000000;0.102080
9859.000000;0.100745
9858.000000;0.099332
9857.000000;0.097815
9856.000000;0.096273
9855.000000;0.094870
9854.000000;0.093646
9853.000000;0.092443
9852.000000;0.091121
9851.000000;0.089714
9850.000000;0.088326
9849.000000;0.086977
9848.000000;0.085625
9847.000000;0.084252
9846.000000;0.082861
9845.000000;0.081443
9844.000000;0.080003
9843.000000;0.078537
9842.000000;0.077003
9841.000000;0.075394
9840.000000;0.073858
9839.000000;0.072586
9838.000000;0.071550
9837.000000;0.070472
9836.000000;0.069141
9835.000000;0.067618
9834.000000;0.066089
9833.000000;0.064626
9832.000000;0.063197
9831.000000;0.061789
9830.000000;0.060393
9829.000000;0.058949
9828.000000;0.057412
9827.000000;0.055847
9826.000000;0.054366
9825.000000;0.052988
9824.000000;0.051625
9823.000000;0.050201
9822.000000;0.048742
9821.000000;0.047338
9820.000000;0.046049
9819.000000;0.044833
9818.000000;0.043572
9817.000000;0.042179
9816.000000;0.040670
9815.000000;0.039116
9814.000000;0.037560
9813.000000;0.036025
9812.000000;0.034549
9811.000000;0.033137
9810.000000;0.031695
9809.000000;0.030118
9808.000000;0.028427
9807.000000;0.026744
9806.000000;0.025153
9805.000000;0.023654
9804.000000;0.022232
9803.000000;0.020866
9802.000000;0.019494
9801.000000;0.018059
9800.000000;0.016587
9799.000000;0.015126
9798.000000;0.013649
9797.000000;0.012109
9796.000000;0.010548
9795.000000;0.009044
9794.000000;0.007570
9793.000000;0.006039
9792.000000;0.004449
9791.000000;0.002861
9790.000000;0.001259
9789.000000;-0.000425
9788.000000;-0.002150
9787.000000;-0.003803
9786.000000;-0.005368
9785.000000;-0.006926
9784.000000;-0.008484
9783.000000;-0.009969
9782.000000;-0.011419
9781.000000;-0.012985
9780.000000;-0.014684
9779.000000;-0.016333
9778.000000;-0.017795
9777.000000;-0.019149
9776.000000;-0.020542
9775.000000;-0.021999
9774.000000;-0.023479
9773.000000;-0.024989
9772.000000;-0.026550
9771.000000;-0.028138
9770.000000;-0.029746
9769.000000;-0.031420
9768.000000;-0.033172
9767.000000;-0.034933
9766.000000;-0.036650
9765.000000;-0.038353
9764.000000;-0.040053
9763.000000;-0.041685
9762.000000;-0.043210
9761.000000;-0.044707
9760.000000;-0.046291
9759.000000;-0.047996
9758.000000;-0.049777
9757.000000;-0.051562
9756.000000;-0.053267
9755.000000;-0.054841
9754.000000;-0.056333
9753.000000;-0.057867
9752.000000;-0.059519
9751.000000;-0.061272
9750.000000;-0.063087
9749.000000;-0.064917
9748.000000;-0.066662
9747.000000;-0.068225
9746.000000;-0.069673
9745.000000;-0.071209
9744.000000;-0.072943
9743.000000;-0.074768
9742.000000;-0.076529
9741.000000;-0.078220
9740.000000;-0.079939
9739.000000;-0.081728
9738.000000;-0.083525
9737.000000;-0.085239
9736.000000;-0.086813
9735.000000;-0.088268
9734.000000;-0.089710
9733.000000;-0.091245
9732.000000;-0.092875
9731.000000;-0.094535
9730.000000;-0.096228
9729.000000;-0.098035
9728.000000;-0.099979
9727.000000;-0.101965
9726.000000;-0.103900
9725.000000;-0.105767
9724.000000;-0.107574
9723.000000;-0.109299
9722.000000;-0.110960
9721.000000;-0.112632
9720.000000;-0.114366
9719.000000;-0.116138
9718.000000;-0.117922
9717.000000;-0.119725
9716.000000;-0.121538
9715.000000;-0.123326
9714.000000;-0.125099
9713.000000;-0.126912
9712.000000;-0.128761
9711.000000;-0.130561
9710.000000;-0.132273
9709.000000;-0.133970
9708.000000;-0.135741
9707.000000;-0.137587
9706.000000;-0.139467
9705.000000;-0.141357
9704.000000;-0.143233
9703.000000;-0.145061
9702.000000;-0.146855
9701.000000;-0.148694
9700.000000;-0.150629
9699.000000;-0.152624
9698.000000;-0.154603
9697.000000;-0.156510
9696.000000;-0.158301
9695.000000;-0.159978
9694.000000;-0.161644
9693.000000;-0.163433
9692.000000;-0.165359
9691.000000;-0.167291
9690.000000;-0.169126
9689.000000;-0.170903
9688.000000;-0.172712
9687.000000;-0.174591
9686.000000;-0.176556
9685.000000;-0.178627
9684.000000;-0.180753
9683.000000;-0.182794
9682.000000;-0.184648
9681.000000;-0.186373
9680.000000;-0.188114
9679.000000;-0.189944
9678.000000;-0.191836
9677.000000;-0.193727
9676.000000;-0.195587
9675.000000;-0.197440
9674.000000;-0.199371
9673.000000;-0.201452
9672.000000;-0.203638
9671.000000;-0.205782
9670.000000;-0.207781
9669.000000;-0.209662
9668.000000;-0.211515
9667.000000;-0.213397
9666.000000;-0.215340
9665.000000;-0.217377
9664.000000;-0.219500
9663.000000;-0.221642
9662.000000;-0.223741
9661.000000;-0.225798
9660.000000;-0.227822
9659.000000;-0.229785
9658.000000;-0.231688
9657.000000;-0.233612
9656.000000;-0.235652
9655.000000;-0.237791
9654.000000;-0.239894
9653.000000;-0.241840
9652.000000;-0.243650
9651.000000;-0.245484
9650.000000;-0.247512
9649.000000;-0.249761
9648.000000;-0.252086
9647.000000;-0.254301
9646.000000;-0.256350
9645.000000;-0.258320
9644.000000;-0.260305
9643.000000;-0.262320
9642.000000;-0.264354
9641.000000;-0.266427
9640.000000;-0.268572
9639.000000;-0.270765
9638.000000;-0.272928
9637.000000;-0.275008
9636.000000;-0.277025
9635.000000;-0.279047
9634.000000;-0.281117
9633.000000;-0.283211
9632.000000;-0.285283
9631.000000;-0.287337
9630.000000;-0.289416
9629.000000;-0.291530
9628.000000;-0.293658
9627.000000;-0.295819
9626.000000;-0.298069
9625.000000;-0.300376
9624.000000;-0.302604
9623.000000;-0.304682
9622.000000;-0.306728
9621.000000;-0.308902
9620.000000;-0.311196
9619.000000;-0.313477
9618.000000;-0.315699
9617.000000;-0.317934
9616.000000;-0.320203
9615.000000;-0.322406
9614.000000;-0.324470
9613.000000;-0.326458
9612.000000;-0.328491
9611.000000;-0.330629
9610.000000;-0.332843
9609.000000;-0.335059
9608.000000;-0.337207
9607.000000;-0.339275
9606.000000;-0.341346
9605.000000;-0.343528
9604.000000;-0.345849
9603.000000;-0.348248
9602.000000;-0.350654
9601.000000;-0.353035
9600.000000;-0.355353
9599.000000;-0.357556
9598.000000;-0.359636
9597.000000;-0.361653
9596.000000;-0.363686
9595.000000;-0.365774
9594.000000;-0.367911
9593.000000;-0.370070
9592.000000;-0.372247
9591.000000;-0.374481
9590.000000;-0.376809
9589.000000;-0.379182
9588.000000;-0.381475
9587.000000;-0.383639
9586.000000;-0.385787
9585.000000;-0.388056
9584.000000;-0.390443
9583.000000;-0.392826
9582.000000;-0.395129
9581.000000;-0.397371
9580.000000;-0.399586
9579.000000;-0.401781
9578.000000;-0.403978
9577.000000;-0.406214
9576.000000;-0.408503
9575.000000;-0.410831
9574.000000;-0.413180
9573.000000;-0.415521
9572.000000;-0.417783
9571.000000;-0.419918
9570.000000;-0.421984
9569.000000;-0.424116
9568.000000;-0.426409
9567.000000;-0.428828
9566.000000;-0.431239
9565.000000;-0.433499
9564.000000;-0.435569
9563.000000;-0.437579
9562.000000;-0.439720
9561.000000;-0.442030
9560.000000;-0.444351
9559.000000;-0.446534
9558.000000;-0.448611
9557.000000;-0.450709
9556.000000;-0.452874
9555.000000;-0.455080
9554.000000;-0.457336
9553.000000;-0.459666
9552.000000;-0.462028
9551.000000;-0.464351
9550.000000;-0.466623
9549.000000;-0.468849
9548.000000;-0.470995
9547.000000;-0.473048
9546.000000;-0.475090
9545.000000;-0.477183
9544.000000;-0.479245
9543.000000;-0.481184
9542.000000;-0.483093
9541.000000;-0.485160
9540.000000;-0.487408
9539.000000;-0.489672
9538.000000;-0.491851
9537.000000;-0.494013
9536.000000;-0.496230
9535.000000;-0.498465
9534.000000;-0.500650
9533.000000;-0.502778
9532.000000;-0.504849
9531.000000;-0.506842
9530.000000;-0.508774
9529.000000;-0.510691
9528.000000;-0.512581
9527.000000;-0.514375
9526.000000;-0.516093
9525.000000;-0.517891
9524.000000;-0.519896
9523.000000;-0.522066
9522.000000;-0.524244
9521.000000;-0.526302
9520.000000;-0.528206
9519.000000;-0.530004
9518.000000;-0.531791
9517.000000;-0.533624
9516.000000;-0.535455
9515.000000;-0.537177
9514.000000;-0.538778
9513.000000;-0.540376
9512.000000;-0.542093
9511.000000;-0.543940
9510.000000;-0.545846
9509.000000;-0.547751
9508.000000;-0.549638
9507.000000;-0.551503
9506.000000;-0.553329
9505.000000;-0.555077
9504.000000;-0.556717
9503.000000;-0.558271
9502.000000;-0.559810
9501.000000;-0.561382
9500.000000;-0.562986
9499.000000;-0.564620
9498.000000;-0.566311
9497.000000;-0.568029
9496.000000;-0.569648
9495.000000;-0.571074
9494.000000;-0.572364
9493.000000;-0.573632
9492.000000;-0.574899
9491.000000;-0.576103
9490.000000;-0.577253
9489.000000;-0.578424
9488.000000;-0.579641
9487.000000;-0.580850
9486.000000;-0.582026
9485.000000;-0.583196
9484.000000;-0.584377
9483.000000;-0.585560
9482.000000;-0.586762
9481.000000;-0.587982
9480.000000;-0.589129
9479.000000;-0.590085
9478.000000;-0.590867
9477.000000;-0.591638
9476.000000;-0.592542
9475.000000;-0.593587
9474.000000;-0.594698
9473.000000;-0.595784
9472.000000;-0.596756
9471.000000;-0.597566
9470.000000;-0.598269
9469.000000;-0.598980
9468.000000;-0.599760
9467.000000;-0.600595
9466.000000;-0.601455
9465.000000;-0.602291
9464.000000;-0.602984
9463.000000;-0.603432
9462.000000;-0.603717
9461.000000;-0.604073
9460.000000;-0.604639
9459.000000;-0.605345
9458.000000;-0.606053
9457.000000;-0.606715
9456.000000;-0.607328
9455.000000;-0.607829
9454.000000;-0.608141
9453.000000;-0.608263
9452.000000;-0.608274
9451.000000;-0.608276
9450.000000;-0.608360
9449.000000;-0.608572
9448.000000;-0.608854
9447.000000;-0.609063
9446.000000;-0.609102
9445.000000;-0.609006
9444.000000;-0.608886
9443.000000;-0.608835
9442.000000;-0.608885
9441.000000;-0.608997
9440.000000;-0.609050
9439.000000;-0.608928
9438.000000;-0.608650
9437.000000;-0.608381
9436.000000;-0.608248
9435.000000;-0.608199
9434.000000;-0.608092
9433.000000;-0.607860
9432.000000;-0.607552
9431.000000;-0.607233
9430.000000;-0.606924
9429.000000;-0.606615
9428.000000;-0.606273
9427.000000;-0.605849
9426.000000;-0.605318
9425.000000;-0.604727
9424.000000;-0.604160
9423.000000;-0.603651
9422.000000;-0.603160
9421.000000;-0.602624
9420.000000;-0.602011
9419.000000;-0.601321
9418.000000;-0.600578
9417.000000;-0.599825
9416.000000;-0.599123
9415.000000;-0.598519
9414.000000;-0.598008
9413.000000;-0.597533
9412.000000;-0.597031
9411.000000;-0.596458
9410.000000;-0.595781
9409.000000;-0.594979
9408.000000;-0.594087
9407.000000;-0.593210
9406.000000;-0.592418
9405.000000;-0.591641
9404.000000;-0.590753
9403.000000;-0.589756
9402.000000;-0.588792
9401.000000;-0.587929
9400.000000;-0.587053
9399.000000;-0.586036
9398.000000;-0.584949
9397.000000;-0.583984
9396.000000;-0.583207
9395.000000;-0.582495
9394.000000;-0.581710
9393.000000;-0.580822
9392.000000;-0.579850
9391.000000;-0.578793
9390.000000;-0.577665
9389.000000;-0.576540
9388.000000;-0.575492
9387.000000;-0.574522
9386.000000;-0.573551
9385.000000;-0.572489
9384.000000;-0.571307
9383.000000;-0.570052
9382.000000;-0.568795
9381.000000;-0.567560
9380.000000;-0.566338
9379.000000;-0.565178
9378.000000;-0.564171
9377.000000;-0.563308
9376.000000;-0.562396
9375.000000;-0.561229
9374.000000;-0.559808
9373.000000;-0.558324
9372.000000;-0.556939
9371.000000;-0.555659
9370.000000;-0.554424
9369.000000;-0.553228
9368.000000;-0.552111
9367.000000;-0.551091
9366.000000;-0.550122
9365.000000;-0.549099
9364.000000;-0.547911
9363.000000;-0.546535
9362.000000;-0.545065
9361.000000;-0.543623
9360.000000;-0.542246
9359.000000;-0.540914
9358.000000;-0.539638
9357.000000;-0.538460
9356.000000;-0.537349
9355.000000;-0.536184
9354.000000;-0.534856
9353.000000;-0.533378
9352.000000;-0.531892
9351.000000;-0.530577
9350.000000;-0.529514
9349.000000;-0.528605
9348.000000;-0.527644
9347.000000;-0.526507
9346.000000;-0.525230
9345.000000;-0.523898
9344.000000;-0.522513
9343.000000;-0.521051
9342.000000;-0.519570
9341.000000;-0.518170
9340.000000;-0.516862
9339.000000;-0.515581
9338.000000;-0.514312
9337.000000;-0.513093
9336.000000;-0.511920
9335.000000;-0.510731
9334.000000;-0.509494
9333.000000;-0.508217
9332.000000;-0.506901
9331.000000;-0.505543
9330.000000;-0.504202
9329.000000;-0.502966
9328.000000;-0.501844
9327.000000;-0.500765
9326.000000;-0.499662
9325.000000;-0.498497
9324.000000;-0.497226
9323.000000;-0.495847
9322.000000;-0.494479
9321.000000;-0.493278
9320.000000;-0.492251
9319.000000;-0.491239
9318.000000;-0.490089
9317.000000;-0.488792
9316.000000;-0.487427
9315.000000;-0.486079
9314.000000;-0.484827
9313.000000;-0.483709
9312.000000;-0.482664
9311.000000;-0.481561
9310.000000;-0.480323
9309.000000;-0.478977
9308.000000;-0.477589
9307.000000;-0.476225
9306.000000;-0.474958
9305.000000;-0.473831
9304.000000;-0.472765
9303.000000;-0.471621
9302.000000;-0.470352
9301.000000;-0.469053
9300.000000;-0.467808
9299.000000;-0.466584
9298.000000;-0.465322
9297.000000;-0.464033
9296.000000;-0.462782
9295.000000;-0.461601
9294.000000;-0.460488
9293.000000;-0.459438
9292.000000;-0.458426
9291.000000;-0.457391
9290.000000;-0.456273
9289.000000;-0.455063
9288.000000;-0.453798
9287.000000;-0.452566
9286.000000;-0.451472
9285.000000;-0.450544
9284.000000;-0.449642
9283.000000;-0.448553
9282.000000;-0.447217
9281.000000;-0.445808
9280.000000;-0.444561
9279.000000;-0.443538
9278.000000;-0.442618
9277.000000;-0.441661
9276.000000;-0.440632
9275.000000;-0.439569
9274.000000;-0.438498
9273.000000;-0.437394
9272.000000;-0.436236
9271.000000;-0.435063
9270.000000;-0.433941
9269.000000;-0.432882
9268.000000;-0.431826
9267.000000;-0.430736
9266.000000;-0.429655
9265.000000;-0.428642
9264.000000;-0.427675
9263.000000;-0.426688
9262.000000;-0.425657
9261.000000;-0.424598
9260.000000;-0.423523
9259.000000;-0.422452
9258.000000;-0.421442
9257.000000;-0.420517
9256.000000;-0.419600
9255.000000;-0.418600
9254.000000;-0.417556
9253.000000;-0.416590
9252.000000;-0.415735
9251.000000;-0.414872
9250.000000;-0.413881
9249.000000;-0.412768
9248.000000;-0.411636
9247.000000;-0.410581
9246.000000;-0.409649
9245.000000;-0.408816
9244.000000;-0.407984
9243.000000;-0.407054
9242.000000;-0.406022
9241.000000;-0.404979
9240.000000;-0.403992
9239.000000;-0.403039
9238.000000;-0.402062
9237.000000;-0.401053
9236.000000;-0.400050
9235.000000;-0.399095
9234.000000;-0.398196
9233.000000;-0.397319
9232.000000;-0.396408
9231.000000;-0.395447
9230.000000;-0.394482
9229.000000;-0.393560
9228.000000;-0.392666
9227.000000;-0.391770
9226.000000;-0.390891
9225.000000;-0.390061
9224.000000;-0.389253
9223.000000;-0.388403
9222.000000;-0.387495
9221.000000;-0.386571
9220.000000;-0.385658
9219.000000;-0.384758
9218.000000;-0.383887
9217.000000;-0.383072
9216.000000;-0.382303
9215.000000;-0.381536
9214.000000;-0.380733
9213.000000;-0.379867
9212.000000;-0.378921
9211.000000;-0.377936
9210.000000;-0.377031
9209.000000;-0.376288
9208.000000;-0.375637
9207.000000;-0.374927
9206.000000;-0.374105
9205.000000;-0.373246
9204.000000;-0.372427
9203.000000;-0.371652
9202.000000;-0.370899
9201.000000;-0.370153
9200.000000;-0.369379
9199.000000;-0.368544
9198.000000;-0.367676
9197.000000;-0.366860
9196.000000;-0.366135
9195.000000;-0.365461
9194.000000;-0.364775
9193.000000;-0.364040
9192.000000;-0.363238
9191.000000;-0.362371
9190.000000;-0.361475
9189.000000;-0.360590
9188.000000;-0.359715
9187.000000;-0.358849
9186.000000;-0.358047
9185.000000;-0.357373
9184.000000;-0.356813
9183.000000;-0.356294
9182.000000;-0.355757
9181.000000;-0.355166
9180.000000;-0.354451
9179.000000;-0.353577
9178.000000;-0.352653
9177.000000;-0.351877
9176.000000;-0.351321
9175.000000;-0.350851
9174.000000;-0.350277
9173.000000;-0.349542
9172.000000;-0.348719
9171.000000;-0.347907
9170.000000;-0.347146
9169.000000;-0.346417
9168.000000;-0.345682
9167.000000;-0.344938
9166.000000;-0.344228
9165.000000;-0.343579
9164.000000;-0.342947
9163.000000;-0.342282
9162.000000;-0.341607
9161.000000;-0.340989
9160.000000;-0.340435
9159.000000;-0.339890
9158.000000;-0.339323
9157.000000;-0.338746
9156.000000;-0.338161
9155.000000;-0.337545
9154.000000;-0.336912
9153.000000;-0.336302
9152.000000;-0.335712
9151.000000;-0.335092
9150.000000;-0.334438
9149.000000;-0.333806
9148.000000;-0.333228
9147.000000;-0.332654
9146.000000;-0.332013
9145.000000;-0.331296
9144.000000;-0.330562
9143.000000;-0.329884
9142.000000;-0.329284
9141.000000;-0.328700
9140.000000;-0.328040
9139.000000;-0.327303
9138.000000;-0.326615
9137.000000;-0.326099
9136.000000;-0.325720
9135.000000;-0.325324
9134.000000;-0.324818
9133.000000;-0.324236
9132.000000;-0.323651
9131.000000;-0.323090
9130.000000;-0.322543
9129.000000;-0.321987
9128.000000;-0.321398
9127.000000;-0.320780
9126.000000;-0.320184
9125.000000;-0.319656
9124.000000;-0.319162
9123.000000;-0.318629
9122.000000;-0.318048
9121.000000;-0.317490
9120.000000;-0.317018
9119.000000;-0.316629
9118.000000;-0.316280
9117.000000;-0.315902
9116.000000;-0.315418
9115.000000;-0.314795
9114.000000;-0.314103
9113.000000;-0.313452
9112.000000;-0.312890
9111.000000;-0.312396
9110.000000;-0.311953
9109.000000;-0.311564
9108.000000;-0.311190
9107.000000;-0.310768
9106.000000;-0.310278
9105.000000;-0.309750
9104.000000;-0.309204
9103.000000;-0.308647
9102.000000;-0.308119
9101.000000;-0.307683
9100.000000;-0.307344
9099.000000;-0.307022
9098.000000;-0.306636
9097.000000;-0.306155
9096.000000;-0.305610
9095.000000;-0.305071
9094.000000;-0.304607
9093.000000;-0.304214
9092.000000;-0.303801
9091.000000;-0.303296
9090.000000;-0.302751
9089.000000;-0.302274
9088.000000;-0.301885
9087.000000;-0.301510
9086.000000;-0.301106
