Criado como novo conjunto de dados;"0307_DANIEL.spp","54184.6 Secs"
cm-1;Abs
10000.000000;0.495890
9999.000000;0.495033
9998.000000;0.494178
9997.000000;0.493324
9996.000000;0.492473
9995.000000;0.491623
9994.000000;0.490774
9993.000000;0.489928
9992.000000;0.489083
9991.000000;0.488240
9990.000000;0.487397
9989.000000;0.486561
9988.000000;0.485723
9987.000000;0.484877
9986.000000;0.484010
9985.000000;0.483066
9984.000000;0.481977
9983.000000;0.480738
9982.000000;0.479430
9981.000000;0.478165
9980.000000;0.477001
9979.000000;0.475905
9978.000000;0.474810
9977.000000;0.473669
9976.000000;0.472478
9975.000000;0.471279
9974.000000;0.470143
9973.000000;0.469120
9972.000000;0.468159
9971.000000;0.467129
9970.000000;0.465924
9969.000000;0.464562
9968.000000;0.463175
9967.000000;0.461933
9966.000000;0.460965
9965.000000;0.460262
9964.000000;0.459615
9963.000000;0.458713
9962.000000;0.457408
9961.000000;0.455857
9960.000000;0.454353
9959.000000;0.453023
9958.000000;0.451753
9957.000000;0.450397
9956.000000;0.448975
9955.000000;0.447652
9954.000000;0.446548
9953.000000;0.445609
9952.000000;0.444646
9951.000000;0.443505
9950.000000;0.442217
9949.000000;0.440964
9948.000000;0.439883
9947.000000;0.438930
9946.000000;0.437964
9945.000000;0.436896
9944.000000;0.435707
9943.000000;0.434389
9942.000000;0.432975
9941.000000;0.431594
9940.000000;0.430382
9939.000000;0.429316
9938.000000;0.428262
9937.000000;0.427176
9936.000000;0.426132
9935.000000;0.425139
9934.000000;0.424060
9933.000000;0.422800
9932.000000;0.421454
9931.000000;0.420173
9930.000000;0.418976
9929.000000;0.417781
9928.000000;0.416542
9927.000000;0.415238
9926.000000;0.413801
9925.000000;0.412213
9924.000000;0.410634
9923.000000;0.409286
9922.000000;0.408180
9921.000000;0.407078
9920.000000;0.405771
9919.000000;0.404312
9918.000000;0.402928
9917.000000;0.401778
9916.000000;0.400834
9915.000000;0.399927
9914.000000;0.398874
9913.000000;0.397590
9912.000000;0.396147
9911.000000;0.394715
9910.000000;0.393404
9909.000000;0.392187
9908.000000;0.390973
9907.000000;0.389726
9906.000000;0.388467
9905.000000;0.387200
9904.000000;0.385905
9903.000000;0.384602
9902.000000;0.383372
9901.000000;0.382260
9900.000000;0.381201
9899.000000;0.380082
9898.000000;0.378874
9897.000000;0.377660
9896.000000;0.376501
9895.000000;0.375335
9894.000000;0.374042
9893.000000;0.372575
9892.000000;0.370994
9891.000000;0.369387
9890.000000;0.367815
9889.000000;0.366328
9888.000000;0.364963
9887.000000;0.363707
9886.000000;0.362501
9885.000000;0.361310
9884.000000;0.360137
9883.000000;0.358970
9882.000000;0.357760
9881.000000;0.356495
9880.000000;0.355219
9879.000000;0.353961
9878.000000;0.352665
9877.000000;0.351254
9876.000000;0.349720
9875.000000;0.348132
9874.000000;0.346594
9873.000000;0.345223
9872.000000;0.344095
9871.000000;0.343131
9870.000000;0.342065
9869.000000;0.340654
9868.000000;0.338928
9867.000000;0.337178
9866.000000;0.335671
9865.000000;0.334420
9864.000000;0.333247
9863.000000;0.331994
9862.000000;0.330648
9861.000000;0.329288
9860.000000;0.327969
9859.000000;0.326679
9858.000000;0.325372
9857.000000;0.324046
9856.000000;0.322739
9855.000000;0.321474
9854.000000;0.320203
9853.000000;0.318847
9852.000000;0.317369
9851.000000;0.315808
9850.000000;0.314258
9849.000000;0.312815
9848.000000;0.311527
9847.000000;0.310353
9846.000000;0.309181
9845.000000;0.307913
9844.000000;0.306511
9843.000000;0.304994
9842.000000;0.303408
9841.000000;0.301832
9840.000000;0.300346
9839.000000;0.298958
9838.000000;0.297584
9837.000000;0.296161
9836.000000;0.294712
9835.000000;0.293282
9834.000000;0.291852
9833.000000;0.290387
9832.000000;0.288931
9831.000000;0.287552
9830.000000;0.286204
9829.000000;0.284749
9828.000000;0.283127
9827.000000;0.281438
9826.000000;0.279836
9825.000000;0.278388
9824.000000;0.277066
9823.000000;0.275784
9822.000000;0.274438
9821.000000;0.272970
9820.000000;0.271432
9819.000000;0.269922
9818.000000;0.268453
9817.000000;0.266918
9816.000000;0.265265
9815.000000;0.263614
9814.000000;0.262160
9813.000000;0.260954
9812.000000;0.259838
9811.000000;0.258591
9810.000000;0.257104
9809.000000;0.255431
9808.000000;0.253718
9807.000000;0.252077
9806.000000;0.250517
9805.000000;0.248980
9804.000000;0.247423
9803.000000;0.245846
9802.000000;0.244260
9801.000000;0.242676
9800.000000;0.241129
9799.000000;0.239661
9798.000000;0.238262
9797.000000;0.236863
9796.000000;0.235426
9795.000000;0.233986
9794.000000;0.232577
9793.000000;0.231171
9792.000000;0.229712
9791.000000;0.228166
9790.000000;0.226513
9789.000000;0.224745
9788.000000;0.222949
9787.000000;0.221296
9786.000000;0.219856
9785.000000;0.218461
9784.000000;0.216876
9783.000000;0.215091
9782.000000;0.213341
9781.000000;0.211792
9780.000000;0.210335
9779.000000;0.208741
9778.000000;0.206957
9777.000000;0.205135
9776.000000;0.203427
9775.000000;0.201844
9774.000000;0.200303
9773.000000;0.198744
9772.000000;0.197175
9771.000000;0.195648
9770.000000;0.194202
9769.000000;0.192801
9768.000000;0.191334
9767.000000;0.189711
9766.000000;0.187965
9765.000000;0.186228
9764.000000;0.184583
9763.000000;0.182978
9762.000000;0.181339
9761.000000;0.179704
9760.000000;0.178184
9759.000000;0.176774
9758.000000;0.175281
9757.000000;0.173508
9756.000000;0.171488
9755.000000;0.169478
9754.000000;0.167696
9753.000000;0.166137
9752.000000;0.164655
9751.000000;0.163156
9750.000000;0.161642
9749.000000;0.160097
9748.000000;0.158444
9747.000000;0.156650
9746.000000;0.154778
9745.000000;0.152871
9744.000000;0.150876
9743.000000;0.148764
9742.000000;0.146680
9741.000000;0.144848
9740.000000;0.143317
9739.000000;0.141895
9738.000000;0.140376
9737.000000;0.138735
9736.000000;0.137068
9735.000000;0.135425
9734.000000;0.133794
9733.000000;0.132191
9732.000000;0.130638
9731.000000;0.129063
9730.000000;0.127344
9729.000000;0.125470
9728.000000;0.123581
9727.000000;0.121785
9726.000000;0.120011
9725.000000;0.118101
9724.000000;0.116020
9723.000000;0.113909
9722.000000;0.111937
9721.000000;0.110153
9720.000000;0.108474
9719.000000;0.106790
9718.000000;0.105062
9717.000000;0.103339
9716.000000;0.101666
9715.000000;0.099999
9714.000000;0.098237
9713.000000;0.096336
9712.000000;0.094355
9711.000000;0.092384
9710.000000;0.090467
9709.000000;0.088609
9708.000000;0.086794
9707.000000;0.084973
9706.000000;0.083070
9705.000000;0.081090
9704.000000;0.079165
9703.000000;0.077422
9702.000000;0.075828
9701.000000;0.074219
9700.000000;0.072482
9699.000000;0.070636
9698.000000;0.068739
9697.000000;0.066824
9696.000000;0.064931
9695.000000;0.063116
9694.000000;0.061363
9693.000000;0.059547
9692.000000;0.057564
9691.000000;0.055461
9690.000000;0.053401
9689.000000;0.051501
9688.000000;0.049733
9687.000000;0.047967
9686.000000;0.046075
9685.000000;0.044034
9684.000000;0.041941
9683.000000;0.039924
9682.000000;0.038021
9681.000000;0.036172
9680.000000;0.034318
9679.000000;0.032457
9678.000000;0.030595
9677.000000;0.028708
9676.000000;0.026795
9675.000000;0.024901
9674.000000;0.023031
9673.000000;0.021104
9672.000000;0.019047
9671.000000;0.016895
9670.000000;0.014721
9669.000000;0.012535
9668.000000;0.010339
9667.000000;0.008210
9666.000000;0.006221
9665.000000;0.004291
9664.000000;0.002254
9663.000000;0.000091
9662.000000;-0.002026
9661.000000;-0.003961
9660.000000;-0.005772
9659.000000;-0.007596
9658.000000;-0.009486
9657.000000;-0.011452
9656.000000;-0.013560
9655.000000;-0.015859
9654.000000;-0.018246
9653.000000;-0.020509
9652.000000;-0.022515
9651.000000;-0.024320
9650.000000;-0.026104
9649.000000;-0.028038
9648.000000;-0.030191
9647.000000;-0.032481
9646.000000;-0.034729
9645.000000;-0.036816
9644.000000;-0.038784
9643.000000;-0.040793
9642.000000;-0.042953
9641.000000;-0.045232
9640.000000;-0.047485
9639.000000;-0.049553
9638.000000;-0.051391
9637.000000;-0.053128
9636.000000;-0.054980
9635.000000;-0.057041
9634.000000;-0.059207
9633.000000;-0.061327
9632.000000;-0.063394
9631.000000;-0.065511
9630.000000;-0.067735
9629.000000;-0.070047
9628.000000;-0.072428
9627.000000;-0.074878
9626.000000;-0.077340
9625.000000;-0.079716
9624.000000;-0.081968
9623.000000;-0.084138
9622.000000;-0.086248
9621.000000;-0.088253
9620.000000;-0.090134
9619.000000;-0.091964
9618.000000;-0.093867
9617.000000;-0.095933
9616.000000;-0.098184
9615.000000;-0.100566
9614.000000;-0.102956
9613.000000;-0.105249
9612.000000;-0.107444
9611.000000;-0.109617
9610.000000;-0.111820
9609.000000;-0.114053
9608.000000;-0.116320
9607.000000;-0.118626
9606.000000;-0.120919
9605.000000;-0.123124
9604.000000;-0.125257
9603.000000;-0.127429
9602.000000;-0.129683
9601.000000;-0.131928
9600.000000;-0.134088
9599.000000;-0.136230
9598.000000;-0.138466
9597.000000;-0.140801
9596.000000;-0.143153
9595.000000;-0.145480
9594.000000;-0.147789
9593.000000;-0.150056
9592.000000;-0.152223
9591.000000;-0.154291
9590.000000;-0.156351
9589.000000;-0.158498
9588.000000;-0.160757
9587.000000;-0.163081
9586.000000;-0.165407
9585.000000;-0.167717
9584.000000;-0.170065
9583.000000;-0.172498
9582.000000;-0.174952
9581.000000;-0.177262
9580.000000;-0.179327
9579.000000;-0.181234
9578.000000;-0.183185
9577.000000;-0.185319
9576.000000;-0.187650
9575.000000;-0.190107
9574.000000;-0.192587
9573.000000;-0.195015
9572.000000;-0.197397
9571.000000;-0.199811
9570.000000;-0.202286
9569.000000;-0.204737
9568.000000;-0.207070
9567.000000;-0.209294
9566.000000;-0.211470
9565.000000;-0.213605
9564.000000;-0.215680
9563.000000;-0.217750
9562.000000;-0.219915
9561.000000;-0.222190
9560.000000;-0.224477
9559.000000;-0.226692
9558.000000;-0.228840
9557.000000;-0.230964
9556.000000;-0.233105
9555.000000;-0.235324
9554.000000;-0.237690
9553.000000;-0.240194
9552.000000;-0.242697
9551.000000;-0.245007
9550.000000;-0.247012
9549.000000;-0.248782
9548.000000;-0.250575
9547.000000;-0.252657
9546.000000;-0.255061
9545.000000;-0.257518
9544.000000;-0.259722
9543.000000;-0.261640
9542.000000;-0.263495
9541.000000;-0.265485
9540.000000;-0.267609
9539.000000;-0.269775
9538.000000;-0.271968
9537.000000;-0.274233
9536.000000;-0.276576
9535.000000;-0.278933
9534.000000;-0.281221
9533.000000;-0.283385
9532.000000;-0.285417
9531.000000;-0.287372
9530.000000;-0.289305
9529.000000;-0.291191
9528.000000;-0.292961
9527.000000;-0.294635
9526.000000;-0.296377
9525.000000;-0.298363
9524.000000;-0.300634
9523.000000;-0.303081
9522.000000;-0.305527
9521.000000;-0.307807
9520.000000;-0.309831
9519.000000;-0.311659
9518.000000;-0.313469
9517.000000;-0.315390
9516.000000;-0.317379
9515.000000;-0.319284
9514.000000;-0.321005
9513.000000;-0.322566
9512.000000;-0.324053
9511.000000;-0.325562
9510.000000;-0.327183
9509.000000;-0.328962
9508.000000;-0.330839
9507.000000;-0.332663
9506.000000;-0.334319
9505.000000;-0.335840
9504.000000;-0.337368
9503.000000;-0.339009
9502.000000;-0.340746
9501.000000;-0.342499
9500.000000;-0.344222
9499.000000;-0.345930
9498.000000;-0.347634
9497.000000;-0.349300
9496.000000;-0.350876
9495.000000;-0.352341
9494.000000;-0.353728
9493.000000;-0.355106
9492.000000;-0.356546
9491.000000;-0.358056
9490.000000;-0.359545
9489.000000;-0.360876
9488.000000;-0.361992
9487.000000;-0.362954
9486.000000;-0.363851
9485.000000;-0.364736
9484.000000;-0.365694
9483.000000;-0.366872
9482.000000;-0.368325
9481.000000;-0.369848
9480.000000;-0.371089
9479.000000;-0.371894
9478.000000;-0.372459
9477.000000;-0.373122
9476.000000;-0.374050
9475.000000;-0.375184
9474.000000;-0.376387
9473.000000;-0.377559
9472.000000;-0.378636
9471.000000;-0.379574
9470.000000;-0.380384
9469.000000;-0.381150
9468.000000;-0.381973
9467.000000;-0.382887
9466.000000;-0.383795
9465.000000;-0.384521
9464.000000;-0.384953
9463.000000;-0.385197
9462.000000;-0.385515
9461.000000;-0.386088
9460.000000;-0.386837
9459.000000;-0.387533
9458.000000;-0.388072
9457.000000;-0.388565
9456.000000;-0.389154
9455.000000;-0.389802
9454.000000;-0.390328
9453.000000;-0.390602
9452.000000;-0.390654
9451.000000;-0.390623
9450.000000;-0.390667
9449.000000;-0.390892
9448.000000;-0.391301
9447.000000;-0.391742
9446.000000;-0.391988
9445.000000;-0.391927
9444.000000;-0.391675
9443.000000;-0.391457
9442.000000;-0.391389
9441.000000;-0.391417
9440.000000;-0.391438
9439.000000;-0.391423
9438.000000;-0.391402
9437.000000;-0.391368
9436.000000;-0.391265
9435.000000;-0.391031
9434.000000;-0.390664
9433.000000;-0.390228
9432.000000;-0.389809
9431.000000;-0.389463
9430.000000;-0.389184
9429.000000;-0.388943
9428.000000;-0.388724
9427.000000;-0.388504
9426.000000;-0.388223
9425.000000;-0.387829
9424.000000;-0.387350
9423.000000;-0.386879
9422.000000;-0.386454
9421.000000;-0.386012
9420.000000;-0.385473
9419.000000;-0.384815
9418.000000;-0.384052
9417.000000;-0.383221
9416.000000;-0.382435
9415.000000;-0.381875
9414.000000;-0.381621
9413.000000;-0.381507
9412.000000;-0.381243
9411.000000;-0.380685
9410.000000;-0.379928
9409.000000;-0.379125
9408.000000;-0.378314
9407.000000;-0.377424
9406.000000;-0.376404
9405.000000;-0.375278
9404.000000;-0.374136
9403.000000;-0.373099
9402.000000;-0.372249
9401.000000;-0.371543
9400.000000;-0.370815
9399.000000;-0.369926
9398.000000;-0.368893
9397.000000;-0.367842
9396.000000;-0.366859
9395.000000;-0.365943
9394.000000;-0.365072
9393.000000;-0.364239
9392.000000;-0.363397
9391.000000;-0.362453
9390.000000;-0.361366
9389.000000;-0.360216
9388.000000;-0.359125
9387.000000;-0.358113
9386.000000;-0.357089
9385.000000;-0.355963
9384.000000;-0.354740
9383.000000;-0.353501
9382.000000;-0.352325
9381.000000;-0.351242
9380.000000;-0.350238
9379.000000;-0.349268
9378.000000;-0.348277
9377.000000;-0.347215
9376.000000;-0.346043
9375.000000;-0.344747
9374.000000;-0.343366
9373.000000;-0.342006
9372.000000;-0.340763
9371.000000;-0.339643
9370.000000;-0.338569
9369.000000;-0.337481
9368.000000;-0.336383
9367.000000;-0.335281
9366.000000;-0.334131
9365.000000;-0.332889
9364.000000;-0.331598
9363.000000;-0.330360
9362.000000;-0.329225
9361.000000;-0.328135
9360.000000;-0.326988
9359.000000;-0.325713
9358.000000;-0.324324
9357.000000;-0.322915
9356.000000;-0.321607
9355.000000;-0.320448
9354.000000;-0.319367
9353.000000;-0.318262
9352.000000;-0.317116
9351.000000;-0.315979
9350.000000;-0.314843
9349.000000;-0.313625
9348.000000;-0.312285
9347.000000;-0.310892
9346.000000;-0.309532
9345.000000;-0.308202
9344.000000;-0.306845
9343.000000;-0.305459
9342.000000;-0.304090
9341.000000;-0.302761
9340.000000;-0.301468
9339.000000;-0.300233
9338.000000;-0.299103
9337.000000;-0.298081
9336.000000;-0.297103
9335.000000;-0.296074
9334.000000;-0.294913
9333.000000;-0.293582
9332.000000;-0.292142
9331.000000;-0.290767
9330.000000;-0.289623
9329.000000;-0.288693
9328.000000;-0.287757
9327.000000;-0.286589
9326.000000;-0.285147
9325.000000;-0.283571
9324.000000;-0.282036
9323.000000;-0.280651
9322.000000;-0.279441
9321.000000;-0.278384
9320.000000;-0.277422
9319.000000;-0.276479
9318.000000;-0.275467
9317.000000;-0.274308
9316.000000;-0.273000
9315.000000;-0.271652
9314.000000;-0.270402
9313.000000;-0.269285
9312.000000;-0.268211
9311.000000;-0.267086
9310.000000;-0.265897
9309.000000;-0.264658
9308.000000;-0.263336
9307.000000;-0.261923
9306.000000;-0.260517
9305.000000;-0.259247
9304.000000;-0.258103
9303.000000;-0.256948
9302.000000;-0.255714
9301.000000;-0.254488
9300.000000;-0.253357
9299.000000;-0.252257
9298.000000;-0.251051
9297.000000;-0.249719
9296.000000;-0.248385
9295.000000;-0.247171
9294.000000;-0.246091
9293.000000;-0.245098
9292.000000;-0.244152
9291.000000;-0.243223
9290.000000;-0.242259
9289.000000;-0.241216
9288.000000;-0.240106
9287.000000;-0.239000
9286.000000;-0.237962
9285.000000;-0.236985
9284.000000;-0.235972
9283.000000;-0.234815
9282.000000;-0.233504
9281.000000;-0.232146
9280.000000;-0.230874
9279.000000;-0.229721
9278.000000;-0.228616
9277.000000;-0.227486
9276.000000;-0.226325
9275.000000;-0.225178
9274.000000;-0.224081
9273.000000;-0.223040
9272.000000;-0.222030
9271.000000;-0.221020
9270.000000;-0.219994
9269.000000;-0.218982
9268.000000;-0.218020
9267.000000;-0.217085
9266.000000;-0.216093
9265.000000;-0.214991
9264.000000;-0.213843
9263.000000;-0.212782
9262.000000;-0.211867
9261.000000;-0.211018
9260.000000;-0.210107
9259.000000;-0.209085
9258.000000;-0.207999
9257.000000;-0.206906
9256.000000;-0.205805
9255.000000;-0.204684
9254.000000;-0.203590
9253.000000;-0.202607
9252.000000;-0.201757
9251.000000;-0.200944
9250.000000;-0.200042
9249.000000;-0.199012
9248.000000;-0.197921
9247.000000;-0.196857
9246.000000;-0.195868
9245.000000;-0.194960
9244.000000;-0.194103
9243.000000;-0.193224
9242.000000;-0.192244
9241.000000;-0.191167
9240.000000;-0.190108
9239.000000;-0.189199
9238.000000;-0.188445
9237.000000;-0.187704
9236.000000;-0.186820
9235.000000;-0.185777
9234.000000;-0.184719
9233.000000;-0.183814
9232.000000;-0.183081
9231.000000;-0.182356
9230.000000;-0.181461
9229.000000;-0.180387
9228.000000;-0.179296
9227.000000;-0.178351
9226.000000;-0.177566
9225.000000;-0.176847
9224.000000;-0.176117
9223.000000;-0.175356
9222.000000;-0.174562
9221.000000;-0.173713
9220.000000;-0.172808
9219.000000;-0.171883
9218.000000;-0.170995
9217.000000;-0.170202
9216.000000;-0.169539
9215.000000;-0.168985
9214.000000;-0.168437
9213.000000;-0.167775
9212.000000;-0.166957
9211.000000;-0.166031
9210.000000;-0.165048
9209.000000;-0.164016
9208.000000;-0.162953
9207.000000;-0.161938
9206.000000;-0.161064
9205.000000;-0.160351
9204.000000;-0.159721
9203.000000;-0.159054
9202.000000;-0.158258
9201.000000;-0.157326
9200.000000;-0.156341
9199.000000;-0.155432
9198.000000;-0.154667
9197.000000;-0.154010
9196.000000;-0.153382
9195.000000;-0.152747
9194.000000;-0.152110
9193.000000;-0.151462
9192.000000;-0.150776
9191.000000;-0.150043
9190.000000;-0.149276
9189.000000;-0.148477
9188.000000;-0.147651
9187.000000;-0.146851
9186.000000;-0.146140
9185.000000;-0.145504
9184.000000;-0.144844
9183.000000;-0.144094
9182.000000;-0.143304
9181.000000;-0.142578
9180.000000;-0.141937
9179.000000;-0.141318
9178.000000;-0.140672
9177.000000;-0.140023
9176.000000;-0.139404
9175.000000;-0.138782
9174.000000;-0.138088
9173.000000;-0.137294
9172.000000;-0.136452
9171.000000;-0.135633
9170.000000;-0.134872
9169.000000;-0.134168
9168.000000;-0.133521
9167.000000;-0.132938
9166.000000;-0.132388
9165.000000;-0.131805
9164.000000;-0.131145
9163.000000;-0.130443
9162.000000;-0.129778
9161.000000;-0.129186
9160.000000;-0.128633
9159.000000;-0.128075
9158.000000;-0.127511
9157.000000;-0.126959
9156.000000;-0.126416
9155.000000;-0.125879
9154.000000;-0.125368
9153.000000;-0.124897
9152.000000;-0.124418
9151.000000;-0.123835
9150.000000;-0.123106
9149.000000;-0.122284
9148.000000;-0.121465
9147.000000;-0.120700
9146.000000;-0.119993
9145.000000;-0.119329
9144.000000;-0.118698
9143.000000;-0.118097
9142.000000;-0.117537
9141.000000;-0.117030
9140.000000;-0.116555
9139.000000;-0.116066
9138.000000;-0.115542
9137.000000;-0.115030
9136.000000;-0.114571
9135.000000;-0.114129
9134.000000;-0.113638
9133.000000;-0.113119
9132.000000;-0.112682
9131.000000;-0.112352
9130.000000;-0.111977
9129.000000;-0.111355
9128.000000;-0.110460
9127.000000;-0.109491
9126.000000;-0.108697
9125.000000;-0.108182
9124.000000;-0.107862
9123.000000;-0.107561
9122.000000;-0.107138
9121.000000;-0.106566
9120.000000;-0.105943
9119.000000;-0.105401
9118.000000;-0.104985
9117.000000;-0.104619
9116.000000;-0.104197
9115.000000;-0.103684
9114.000000;-0.103109
9113.000000;-0.102507
9112.000000;-0.101907
9111.000000;-0.101361
9110.000000;-0.100925
9109.000000;-0.100596
9108.000000;-0.100297
9107.000000;-0.099956
9106.000000;-0.099571
9105.000000;-0.099179
9104.000000;-0.098787
9103.000000;-0.098353
9102.000000;-0.097837
9101.000000;-0.097255
9100.000000;-0.096667
9099.000000;-0.096120
9098.000000;-0.095607
9097.000000;-0.095096
9096.000000;-0.094581
9095.000000;-0.094100
9094.000000;-0.093681
9093.000000;-0.093279
9092.000000;-0.092825
9091.000000;-0.092314
9090.000000;-0.091820
9089.000000;-0.091410
9088.000000;-0.091073
9087.000000;-0.090750
9086.000000;-0.090398
9085.000000;-0.090005
9084.000000;-0.089561
9083.000000;-0.089075
9082.000000;-0.088612
9081.000000;-0.088255
