Criado como novo conjunto de dados;"0307_DANIEL.spp","74885.7 Secs"
cm-1;Abs
10000.000000;0.557702
9999.000000;0.556960
9998.000000;0.556220
9997.000000;0.555481
9996.000000;0.554743
9995.000000;0.554006
9994.000000;0.553271
9993.000000;0.552537
9992.000000;0.551803
9991.000000;0.551111
9990.000000;0.550432
9989.000000;0.549785
9988.000000;0.549138
9987.000000;0.548323
9986.000000;0.547189
9985.000000;0.545868
9984.000000;0.544762
9983.000000;0.544158
9982.000000;0.543902
9981.000000;0.543551
9980.000000;0.542848
9979.000000;0.541941
9978.000000;0.541111
9977.000000;0.540415
9976.000000;0.539697
9975.000000;0.538859
9974.000000;0.537974
9973.000000;0.537082
9972.000000;0.536032
9971.000000;0.534682
9970.000000;0.533200
9969.000000;0.531991
9968.000000;0.531270
9967.000000;0.530816
9966.000000;0.530252
9965.000000;0.529496
9964.000000;0.528790
9963.000000;0.528317
9962.000000;0.527932
9961.000000;0.527328
9960.000000;0.526357
9959.000000;0.525116
9958.000000;0.523819
9957.000000;0.522658
9956.000000;0.521732
9955.000000;0.521042
9954.000000;0.520534
9953.000000;0.520166
9952.000000;0.519870
9951.000000;0.519463
9950.000000;0.518746
9949.000000;0.517755
9948.000000;0.516793
9947.000000;0.516081
9946.000000;0.515439
9945.000000;0.514478
9944.000000;0.513077
9943.000000;0.511533
9942.000000;0.510234
9941.000000;0.509315
9940.000000;0.508619
9939.000000;0.507870
9938.000000;0.506848
9937.000000;0.505529
9936.000000;0.504141
9935.000000;0.502986
9934.000000;0.502134
9933.000000;0.501365
9932.000000;0.500443
9931.000000;0.499392
9930.000000;0.498409
9929.000000;0.497564
9928.000000;0.496674
9927.000000;0.495512
9926.000000;0.494084
9925.000000;0.492686
9924.000000;0.491671
9923.000000;0.491154
9922.000000;0.490944
9921.000000;0.490762
9920.000000;0.490466
9919.000000;0.490019
9918.000000;0.489316
9917.000000;0.488237
9916.000000;0.486895
9915.000000;0.485691
9914.000000;0.484973
9913.000000;0.484683
9912.000000;0.484388
9911.000000;0.483667
9910.000000;0.482449
9909.000000;0.481035
9908.000000;0.479830
9907.000000;0.478992
9906.000000;0.478305
9905.000000;0.477416
9904.000000;0.476228
9903.000000;0.474975
9902.000000;0.473874
9901.000000;0.472836
9900.000000;0.471628
9899.000000;0.470252
9898.000000;0.469000
9897.000000;0.468124
9896.000000;0.467558
9895.000000;0.466993
9894.000000;0.466168
9893.000000;0.465059
9892.000000;0.463877
9891.000000;0.462902
9890.000000;0.462276
9889.000000;0.461880
9888.000000;0.461432
9887.000000;0.460724
9886.000000;0.459776
9885.000000;0.458769
9884.000000;0.457840
9883.000000;0.456961
9882.000000;0.455976
9881.000000;0.454768
9880.000000;0.453391
9879.000000;0.452011
9878.000000;0.450735
9877.000000;0.449532
9876.000000;0.448362
9875.000000;0.447305
9874.000000;0.446502
9873.000000;0.445976
9872.000000;0.445555
9871.000000;0.444942
9870.000000;0.443850
9869.000000;0.442202
9868.000000;0.440265
9867.000000;0.438502
9866.000000;0.437171
9865.000000;0.436098
9864.000000;0.434965
9863.000000;0.433748
9862.000000;0.432701
9861.000000;0.431935
9860.000000;0.431236
9859.000000;0.430368
9858.000000;0.429363
9857.000000;0.428398
9856.000000;0.427508
9855.000000;0.426565
9854.000000;0.425487
9853.000000;0.424334
9852.000000;0.423253
9851.000000;0.422363
9850.000000;0.421664
9849.000000;0.420990
9848.000000;0.420126
9847.000000;0.419049
9846.000000;0.417945
9845.000000;0.416906
9844.000000;0.415743
9843.000000;0.414258
9842.000000;0.412613
9841.000000;0.411213
9840.000000;0.410235
9839.000000;0.409432
9838.000000;0.408452
9837.000000;0.407182
9836.000000;0.405738
9835.000000;0.404273
9834.000000;0.402927
9833.000000;0.401840
9832.000000;0.401043
9831.000000;0.400357
9830.000000;0.399501
9829.000000;0.398348
9828.000000;0.397014
9827.000000;0.395712
9826.000000;0.394564
9825.000000;0.393562
9824.000000;0.392631
9823.000000;0.391684
9822.000000;0.390657
9821.000000;0.389544
9820.000000;0.388400
9819.000000;0.387237
9818.000000;0.385912
9817.000000;0.384242
9816.000000;0.382308
9815.000000;0.380548
9814.000000;0.379382
9813.000000;0.378729
9812.000000;0.378058
9811.000000;0.376975
9810.000000;0.375594
9809.000000;0.374247
9808.000000;0.373026
9807.000000;0.371780
9806.000000;0.370418
9805.000000;0.369002
9804.000000;0.367597
9803.000000;0.366234
9802.000000;0.364990
9801.000000;0.363904
9800.000000;0.362836
9799.000000;0.361598
9798.000000;0.360237
9797.000000;0.358992
9796.000000;0.357956
9795.000000;0.357012
9794.000000;0.356096
9793.000000;0.355291
9792.000000;0.354566
9791.000000;0.353690
9790.000000;0.352525
9789.000000;0.351191
9788.000000;0.349802
9787.000000;0.348237
9786.000000;0.346405
9785.000000;0.344542
9784.000000;0.343007
9783.000000;0.341865
9782.000000;0.340863
9781.000000;0.339780
9780.000000;0.338615
9779.000000;0.337457
9778.000000;0.336322
9777.000000;0.335133
9776.000000;0.333777
9775.000000;0.332239
9774.000000;0.330717
9773.000000;0.329465
9772.000000;0.328436
9771.000000;0.327239
9770.000000;0.325579
9769.000000;0.323631
9768.000000;0.321800
9767.000000;0.320264
9766.000000;0.318932
9765.000000;0.317705
9764.000000;0.316521
9763.000000;0.315266
9762.000000;0.313893
9761.000000;0.312585
9760.000000;0.311525
9759.000000;0.310573
9758.000000;0.309430
9757.000000;0.308084
9756.000000;0.306810
9755.000000;0.305706
9754.000000;0.304527
9753.000000;0.303050
9752.000000;0.301337
9751.000000;0.299586
9750.000000;0.297942
9749.000000;0.296540
9748.000000;0.295458
9747.000000;0.294529
9746.000000;0.293419
9745.000000;0.292012
9744.000000;0.290491
9743.000000;0.288973
9742.000000;0.287325
9741.000000;0.285501
9740.000000;0.283769
9739.000000;0.282371
9738.000000;0.281151
9737.000000;0.279755
9736.000000;0.278068
9735.000000;0.276258
9734.000000;0.274511
9733.000000;0.272940
9732.000000;0.271623
9731.000000;0.270505
9730.000000;0.269353
9729.000000;0.268013
9728.000000;0.266637
9727.000000;0.265422
9726.000000;0.264213
9725.000000;0.262656
9724.000000;0.260736
9723.000000;0.258885
9722.000000;0.257460
9721.000000;0.256299
9720.000000;0.254958
9719.000000;0.253247
9718.000000;0.251415
9717.000000;0.249833
9716.000000;0.248614
9715.000000;0.247534
9714.000000;0.246267
9713.000000;0.244651
9712.000000;0.242740
9711.000000;0.240706
9710.000000;0.238745
9709.000000;0.237029
9708.000000;0.235597
9707.000000;0.234287
9706.000000;0.232905
9705.000000;0.231464
9704.000000;0.230104
9703.000000;0.228781
9702.000000;0.227226
9701.000000;0.225316
9700.000000;0.223254
9699.000000;0.221287
9698.000000;0.219441
9697.000000;0.217700
9696.000000;0.216216
9695.000000;0.215061
9694.000000;0.213951
9693.000000;0.212526
9692.000000;0.210838
9691.000000;0.209275
9690.000000;0.207995
9689.000000;0.206732
9688.000000;0.205211
9687.000000;0.203472
9686.000000;0.201707
9685.000000;0.199967
9684.000000;0.198185
9683.000000;0.196328
9682.000000;0.194415
9681.000000;0.192475
9680.000000;0.190560
9679.000000;0.188720
9678.000000;0.186923
9677.000000;0.185096
9676.000000;0.183280
9675.000000;0.181636
9674.000000;0.180224
9673.000000;0.178872
9672.000000;0.177347
9671.000000;0.175592
9670.000000;0.173759
9669.000000;0.172041
9668.000000;0.170502
9667.000000;0.169021
9666.000000;0.167400
9665.000000;0.165583
9664.000000;0.163752
9663.000000;0.162098
9662.000000;0.160544
9661.000000;0.158819
9660.000000;0.156814
9659.000000;0.154713
9658.000000;0.152720
9657.000000;0.150808
9656.000000;0.148835
9655.000000;0.146787
9654.000000;0.144809
9653.000000;0.143070
9652.000000;0.141661
9651.000000;0.140533
9650.000000;0.139443
9649.000000;0.138042
9648.000000;0.136159
9647.000000;0.133975
9646.000000;0.131865
9645.000000;0.130066
9644.000000;0.128519
9643.000000;0.126964
9642.000000;0.125124
9641.000000;0.122893
9640.000000;0.120428
9639.000000;0.118029
9638.000000;0.115869
9637.000000;0.113879
9636.000000;0.111921
9635.000000;0.109984
9634.000000;0.108143
9633.000000;0.106417
9632.000000;0.104781
9631.000000;0.103258
9630.000000;0.101840
9629.000000;0.100374
9628.000000;0.098675
9627.000000;0.096781
9626.000000;0.094939
9625.000000;0.093311
9624.000000;0.091799
9623.000000;0.090221
9622.000000;0.088527
9621.000000;0.086743
9620.000000;0.084821
9619.000000;0.082670
9618.000000;0.080316
9617.000000;0.077921
9616.000000;0.075647
9615.000000;0.073588
9614.000000;0.071788
9613.000000;0.070200
9612.000000;0.068597
9611.000000;0.066666
9610.000000;0.064276
9609.000000;0.061634
9608.000000;0.059106
9607.000000;0.056925
9606.000000;0.055094
9605.000000;0.053468
9604.000000;0.051820
9603.000000;0.049881
9602.000000;0.047502
9601.000000;0.044866
9600.000000;0.042436
9599.000000;0.040575
9598.000000;0.039213
9597.000000;0.037909
9596.000000;0.036250
9595.000000;0.034154
9594.000000;0.031856
9593.000000;0.029667
9592.000000;0.027750
9591.000000;0.026025
9590.000000;0.024251
9589.000000;0.022224
9588.000000;0.019964
9587.000000;0.017722
9586.000000;0.015792
9585.000000;0.014264
9584.000000;0.012939
9583.000000;0.011464
9582.000000;0.009573
9581.000000;0.007279
9580.000000;0.004848
9579.000000;0.002598
9578.000000;0.000632
9577.000000;-0.001266
9576.000000;-0.003445
9575.000000;-0.006010
9574.000000;-0.008636
9573.000000;-0.010822
9572.000000;-0.012386
9571.000000;-0.013649
9570.000000;-0.015134
9569.000000;-0.017108
9568.000000;-0.019465
9567.000000;-0.021919
9566.000000;-0.024222
9565.000000;-0.026246
9564.000000;-0.028029
9563.000000;-0.029762
9562.000000;-0.031656
9561.000000;-0.033773
9560.000000;-0.036041
9559.000000;-0.038366
9558.000000;-0.040646
9557.000000;-0.042699
9556.000000;-0.044374
9555.000000;-0.045794
9554.000000;-0.047336
9553.000000;-0.049273
9552.000000;-0.051499
9551.000000;-0.053702
9550.000000;-0.055743
9549.000000;-0.057754
9548.000000;-0.059927
9547.000000;-0.062312
9546.000000;-0.064790
9545.000000;-0.067148
9544.000000;-0.069167
9543.000000;-0.070725
9542.000000;-0.071884
9541.000000;-0.072887
9540.000000;-0.074041
9539.000000;-0.075577
9538.000000;-0.077533
9537.000000;-0.079744
9536.000000;-0.081969
9535.000000;-0.084050
9534.000000;-0.085969
9533.000000;-0.087789
9532.000000;-0.089613
9531.000000;-0.091556
9530.000000;-0.093638
9529.000000;-0.095685
9528.000000;-0.097475
9527.000000;-0.099028
9526.000000;-0.100650
9525.000000;-0.102579
9524.000000;-0.104700
9523.000000;-0.106727
9522.000000;-0.108571
9521.000000;-0.110386
9520.000000;-0.112275
9519.000000;-0.114138
9518.000000;-0.115825
9517.000000;-0.117322
9516.000000;-0.118708
9515.000000;-0.120026
9514.000000;-0.121277
9513.000000;-0.122491
9512.000000;-0.123732
9511.000000;-0.125037
9510.000000;-0.126401
9509.000000;-0.127843
9508.000000;-0.129431
9507.000000;-0.131207
9506.000000;-0.133060
9505.000000;-0.134746
9504.000000;-0.136119
9503.000000;-0.137307
9502.000000;-0.138598
9501.000000;-0.140119
9500.000000;-0.141724
9499.000000;-0.143213
9498.000000;-0.144588
9497.000000;-0.146009
9496.000000;-0.147587
9495.000000;-0.149292
9494.000000;-0.150998
9493.000000;-0.152510
9492.000000;-0.153580
9491.000000;-0.154067
9490.000000;-0.154117
9489.000000;-0.154130
9488.000000;-0.154503
9487.000000;-0.155396
9486.000000;-0.156701
9485.000000;-0.158152
9484.000000;-0.159469
9483.000000;-0.160499
9482.000000;-0.161295
9481.000000;-0.162038
9480.000000;-0.162843
9479.000000;-0.163661
9478.000000;-0.164371
9477.000000;-0.164950
9476.000000;-0.165519
9475.000000;-0.166222
9474.000000;-0.167078
9473.000000;-0.167957
9472.000000;-0.168713
9471.000000;-0.169335
9470.000000;-0.169939
9469.000000;-0.170640
9468.000000;-0.171466
9467.000000;-0.172367
9466.000000;-0.173224
9465.000000;-0.173853
9464.000000;-0.174122
9463.000000;-0.174128
9462.000000;-0.174175
9461.000000;-0.174491
9460.000000;-0.175000
9459.000000;-0.175458
9458.000000;-0.175772
9457.000000;-0.176072
9456.000000;-0.176479
9455.000000;-0.176931
9454.000000;-0.177257
9453.000000;-0.177371
9452.000000;-0.177336
9451.000000;-0.177286
9450.000000;-0.177298
9449.000000;-0.177333
9448.000000;-0.177285
9447.000000;-0.177094
9446.000000;-0.176819
9445.000000;-0.176589
9444.000000;-0.176484
9443.000000;-0.176481
9442.000000;-0.176481
9441.000000;-0.176373
9440.000000;-0.176108
9439.000000;-0.175752
9438.000000;-0.175449
9437.000000;-0.175288
9436.000000;-0.175223
9435.000000;-0.175142
9434.000000;-0.174961
9433.000000;-0.174606
9432.000000;-0.173974
9431.000000;-0.173032
9430.000000;-0.171929
9429.000000;-0.170922
9428.000000;-0.170167
9427.000000;-0.169622
9426.000000;-0.169145
9425.000000;-0.168605
9424.000000;-0.167927
9423.000000;-0.167135
9422.000000;-0.166367
9421.000000;-0.165730
9420.000000;-0.165133
9419.000000;-0.164361
9418.000000;-0.163392
9417.000000;-0.162498
9416.000000;-0.161890
9415.000000;-0.161357
9414.000000;-0.160457
9413.000000;-0.159103
9412.000000;-0.157772
9411.000000;-0.156993
9410.000000;-0.156720
9409.000000;-0.156397
9408.000000;-0.155620
9407.000000;-0.154541
9406.000000;-0.153547
9405.000000;-0.152695
9404.000000;-0.151684
9403.000000;-0.150323
9402.000000;-0.148820
9401.000000;-0.147511
9400.000000;-0.146445
9399.000000;-0.145391
9398.000000;-0.144207
9397.000000;-0.143053
9396.000000;-0.142195
9395.000000;-0.141697
9394.000000;-0.141332
9393.000000;-0.140774
9392.000000;-0.139813
9391.000000;-0.138410
9390.000000;-0.136635
9389.000000;-0.134623
9388.000000;-0.132607
9387.000000;-0.130876
9386.000000;-0.129570
9385.000000;-0.128520
9384.000000;-0.127398
9383.000000;-0.126057
9382.000000;-0.124643
9381.000000;-0.123341
9380.000000;-0.122142
9379.000000;-0.120927
9378.000000;-0.119653
9377.000000;-0.118318
9376.000000;-0.116828
9375.000000;-0.115089
9374.000000;-0.113231
9373.000000;-0.111587
9372.000000;-0.110383
9371.000000;-0.109526
9370.000000;-0.108722
9369.000000;-0.107699
9368.000000;-0.106301
9367.000000;-0.104520
9366.000000;-0.102561
9365.000000;-0.100779
9364.000000;-0.099438
9363.000000;-0.098510
9362.000000;-0.097749
9361.000000;-0.096910
9360.000000;-0.095833
9359.000000;-0.094416
9358.000000;-0.092642
9357.000000;-0.090670
9356.000000;-0.088775
9355.000000;-0.087106
9354.000000;-0.085533
9353.000000;-0.083823
9352.000000;-0.081974
9351.000000;-0.080318
9350.000000;-0.079210
9349.000000;-0.078640
9348.000000;-0.078180
9347.000000;-0.077323
9346.000000;-0.075871
9345.000000;-0.074025
9344.000000;-0.072157
9343.000000;-0.070516
9342.000000;-0.069108
9341.000000;-0.067812
9340.000000;-0.066555
9339.000000;-0.065350
9338.000000;-0.064162
9337.000000;-0.062836
9336.000000;-0.061250
9335.000000;-0.059500
9334.000000;-0.057836
9333.000000;-0.056380
9332.000000;-0.055040
9331.000000;-0.053720
9330.000000;-0.052484
9329.000000;-0.051430
9328.000000;-0.050477
9327.000000;-0.049407
9326.000000;-0.048061
9325.000000;-0.046423
9324.000000;-0.044569
9323.000000;-0.042633
9322.000000;-0.040797
9321.000000;-0.039189
9320.000000;-0.037809
9319.000000;-0.036595
9318.000000;-0.035510
9317.000000;-0.034488
9316.000000;-0.033388
9315.000000;-0.032095
9314.000000;-0.030626
9313.000000;-0.029028
9312.000000;-0.027276
9311.000000;-0.025416
9310.000000;-0.023736
9309.000000;-0.022535
9308.000000;-0.021723
9307.000000;-0.020885
9306.000000;-0.019756
9305.000000;-0.018439
9304.000000;-0.017077
9303.000000;-0.015567
9302.000000;-0.013785
9301.000000;-0.011886
9300.000000;-0.010180
9299.000000;-0.008781
9298.000000;-0.007552
9297.000000;-0.006367
9296.000000;-0.005235
9295.000000;-0.004166
9294.000000;-0.003083
9293.000000;-0.001892
9292.000000;-0.000558
9291.000000;0.000903
9290.000000;0.002429
9289.000000;0.003913
9288.000000;0.005251
9287.000000;0.006417
9286.000000;0.007449
9285.000000;0.008382
9284.000000;0.009272
9283.000000;0.010242
9282.000000;0.011451
9281.000000;0.012983
9280.000000;0.014814
9279.000000;0.016813
9278.000000;0.018714
9277.000000;0.020161
9276.000000;0.020963
9275.000000;0.021341
9274.000000;0.021810
9273.000000;0.022735
9272.000000;0.024061
9271.000000;0.025506
9270.000000;0.026913
9269.000000;0.028333
9268.000000;0.029830
9267.000000;0.031347
9266.000000;0.032766
9265.000000;0.034028
9264.000000;0.035146
9263.000000;0.036153
9262.000000;0.037076
9261.000000;0.037948
9260.000000;0.038811
9259.000000;0.039703
9258.000000;0.040672
9257.000000;0.041787
9256.000000;0.043113
9255.000000;0.044615
9254.000000;0.046105
9253.000000;0.047354
9252.000000;0.048318
9251.000000;0.049230
9250.000000;0.050372
9249.000000;0.051751
9248.000000;0.053068
9247.000000;0.054046
9246.000000;0.054751
9245.000000;0.055510
9244.000000;0.056566
9243.000000;0.057866
9242.000000;0.059176
9241.000000;0.060339
9240.000000;0.061367
9239.000000;0.062346
9238.000000;0.063316
9237.000000;0.064242
9236.000000;0.065090
9235.000000;0.065908
9234.000000;0.066823
9233.000000;0.067943
9232.000000;0.069242
9231.000000;0.070555
9230.000000;0.071706
9229.000000;0.072644
9228.000000;0.073474
9227.000000;0.074361
9226.000000;0.075404
9225.000000;0.076574
9224.000000;0.077737
9223.000000;0.078778
9222.000000;0.079693
9221.000000;0.080586
9220.000000;0.081553
9219.000000;0.082612
9218.000000;0.083719
9217.000000;0.084814
9216.000000;0.085870
9215.000000;0.086931
9214.000000;0.088082
9213.000000;0.089325
9212.000000;0.090489
9211.000000;0.091382
9210.000000;0.092038
9209.000000;0.092702
9208.000000;0.093525
9207.000000;0.094423
9206.000000;0.095291
9205.000000;0.096197
9204.000000;0.097206
9203.000000;0.098159
9202.000000;0.098850
9201.000000;0.099360
9200.000000;0.099992
9199.000000;0.100866
9198.000000;0.101813
9197.000000;0.102684
9196.000000;0.103566
9195.000000;0.104597
9194.000000;0.105757
9193.000000;0.106944
9192.000000;0.108124
9191.000000;0.109262
9190.000000;0.110252
9189.000000;0.111044
9188.000000;0.111765
9187.000000;0.112586
9186.000000;0.113521
9185.000000;0.114460
9184.000000;0.115327
9183.000000;0.116108
9182.000000;0.116785
9181.000000;0.117386
9180.000000;0.118032
9179.000000;0.118816
9178.000000;0.119654
9177.000000;0.120397
9176.000000;0.121070
9175.000000;0.121879
9174.000000;0.122957
9173.000000;0.124206
9172.000000;0.125427
9171.000000;0.126505
9170.000000;0.127430
9169.000000;0.128226
9168.000000;0.128933
9167.000000;0.129624
9166.000000;0.130357
9165.000000;0.131108
9164.000000;0.131815
9163.000000;0.132476
9162.000000;0.133166
9161.000000;0.133903
9160.000000;0.134568
9159.000000;0.135040
9158.000000;0.135424
9157.000000;0.136022
9156.000000;0.137004
9155.000000;0.138205
9154.000000;0.139313
9153.000000;0.140189
9152.000000;0.140885
9151.000000;0.141448
9150.000000;0.141891
9149.000000;0.142321
9148.000000;0.142885
9147.000000;0.143565
9146.000000;0.144208
9145.000000;0.144796
9144.000000;0.145496
9143.000000;0.146371
9142.000000;0.147247
9141.000000;0.147980
9140.000000;0.148660
9139.000000;0.149416
9138.000000;0.150197
9137.000000;0.150895
9136.000000;0.151553
9135.000000;0.152248
9134.000000;0.152903
9133.000000;0.153418
9132.000000;0.153898
9131.000000;0.154533
9130.000000;0.155313
9129.000000;0.156041
9128.000000;0.156611
9127.000000;0.157094
9126.000000;0.157570
9125.000000;0.158086
9124.000000;0.158778
9123.000000;0.159812
9122.000000;0.161102
9121.000000;0.162245
9120.000000;0.162871
9119.000000;0.163016
9118.000000;0.163087
9117.000000;0.163463
9116.000000;0.164166
9115.000000;0.164921
9114.000000;0.165512
9113.000000;0.166047
9112.000000;0.166799
9111.000000;0.167807
9110.000000;0.168800
9109.000000;0.169539
9108.000000;0.170090
9107.000000;0.170619
9106.000000;0.171095
9105.000000;0.171388
9104.000000;0.171541
9103.000000;0.171744
9102.000000;0.172075
9101.000000;0.172488
9100.000000;0.173009
9099.000000;0.173740
9098.000000;0.174648
9097.000000;0.175530
9096.000000;0.176249
9095.000000;0.176857
9094.000000;0.177458
9093.000000;0.178088
9092.000000;0.178729
9091.000000;0.179336
9090.000000;0.179820
9089.000000;0.180169
9088.000000;0.180551
9087.000000;0.181156
9086.000000;0.181910
9085.000000;0.182537
9084.000000;0.182915
9083.000000;0.183208
9082.000000;0.183589
9081.000000;0.184054
9080.000000;0.184587
9079.000000;0.185298
9078.000000;0.186226
9077.000000;0.187128
9076.000000;0.187667
9075.000000;0.187776
9074.000000;0.187707
9073.000000;0.187765
9072.000000;0.188076
9071.000000;0.188575
9070.000000;0.189104
9069.000000;0.189516
9068.000000;0.189790
9067.000000;0.190062
9066.000000;0.190481
