Criado como novo conjunto de dados;"0307_DANIEL.spp","33843.7 Secs"
cm-1;Abs
10000.000000;1.142949
9999.000000;1.141700
9998.000000;1.140455
9997.000000;1.139214
9996.000000;1.137976
9995.000000;1.136742
9994.000000;1.135510
9993.000000;1.134285
9992.000000;1.133053
9991.000000;1.132165
9990.000000;1.131766
9989.000000;1.131598
9988.000000;1.131146
9987.000000;1.130081
9986.000000;1.128515
9985.000000;1.126799
9984.000000;1.125144
9983.000000;1.123518
9982.000000;1.121901
9981.000000;1.120528
9980.000000;1.119694
9979.000000;1.119341
9978.000000;1.119020
9977.000000;1.118352
9976.000000;1.117383
9975.000000;1.116318
9974.000000;1.115086
9973.000000;1.113429
9972.000000;1.111389
9971.000000;1.109431
9970.000000;1.107946
9969.000000;1.106842
9968.000000;1.105791
9967.000000;1.104724
9966.000000;1.103829
9965.000000;1.103079
9964.000000;1.102036
9963.000000;1.100236
9962.000000;1.097681
9961.000000;1.094844
9960.000000;1.092361
9959.000000;1.090799
9958.000000;1.090482
9957.000000;1.091213
9956.000000;1.092158
9955.000000;1.092308
9954.000000;1.091274
9953.000000;1.089532
9952.000000;1.087841
9951.000000;1.086561
9950.000000;1.085586
9949.000000;1.084691
9948.000000;1.083712
9947.000000;1.082502
9946.000000;1.080978
9945.000000;1.079250
9944.000000;1.077529
9943.000000;1.075909
9942.000000;1.074356
9941.000000;1.072850
9940.000000;1.071395
9939.000000;1.069917
9938.000000;1.068348
9937.000000;1.066814
9936.000000;1.065519
9935.000000;1.064393
9934.000000;1.063075
9933.000000;1.061387
9932.000000;1.059646
9931.000000;1.058342
9930.000000;1.057612
9929.000000;1.057163
9928.000000;1.056634
9927.000000;1.055885
9926.000000;1.054951
9925.000000;1.053839
9924.000000;1.052428
9923.000000;1.050566
9922.000000;1.048301
9921.000000;1.045991
9920.000000;1.044083
9919.000000;1.042755
9918.000000;1.041846
9917.000000;1.041092
9916.000000;1.040264
9915.000000;1.039096
9914.000000;1.037332
9913.000000;1.035047
9912.000000;1.032770
9911.000000;1.031074
9910.000000;1.030090
9909.000000;1.029542
9908.000000;1.029118
9907.000000;1.028601
9906.000000;1.027721
9905.000000;1.026198
9904.000000;1.024063
9903.000000;1.021788
9902.000000;1.019913
9901.000000;1.018587
9900.000000;1.017522
9899.000000;1.016360
9898.000000;1.015005
9897.000000;1.013600
9896.000000;1.012250
9895.000000;1.010912
9894.000000;1.009607
9893.000000;1.008555
9892.000000;1.007846
9891.000000;1.007005
9890.000000;1.005272
9889.000000;1.002539
9888.000000;0.999739
9887.000000;0.997998
9886.000000;0.997498
9885.000000;0.997440
9884.000000;0.997013
9883.000000;0.996101
9882.000000;0.995010
9881.000000;0.993881
9880.000000;0.992567
9879.000000;0.990903
9878.000000;0.988915
9877.000000;0.986840
9876.000000;0.985035
9875.000000;0.983732
9874.000000;0.982793
9873.000000;0.981829
9872.000000;0.980622
9871.000000;0.979298
9870.000000;0.977989
9869.000000;0.976562
9868.000000;0.974896
9867.000000;0.973240
9866.000000;0.971953
9865.000000;0.970928
9864.000000;0.969614
9863.000000;0.967753
9862.000000;0.965814
9861.000000;0.964445
9860.000000;0.963639
9859.000000;0.962732
9858.000000;0.961230
9857.000000;0.959371
9856.000000;0.957787
9855.000000;0.956758
9854.000000;0.955974
9853.000000;0.954900
9852.000000;0.953220
9851.000000;0.951012
9850.000000;0.948703
9849.000000;0.946869
9848.000000;0.945836
9847.000000;0.945347
9846.000000;0.944739
9845.000000;0.943548
9844.000000;0.941863
9843.000000;0.940027
9842.000000;0.938193
9841.000000;0.936325
9840.000000;0.934465
9839.000000;0.932726
9838.000000;0.931078
9837.000000;0.929369
9836.000000;0.927578
9835.000000;0.925815
9834.000000;0.924071
9833.000000;0.922187
9832.000000;0.920168
9831.000000;0.918299
9830.000000;0.916786
9829.000000;0.915458
9828.000000;0.914020
9827.000000;0.912506
9826.000000;0.911207
9825.000000;0.910169
9824.000000;0.908994
9823.000000;0.907329
9822.000000;0.905417
9821.000000;0.903930
9820.000000;0.903196
9819.000000;0.902737
9818.000000;0.901714
9817.000000;0.899788
9816.000000;0.897377
9815.000000;0.895075
9814.000000;0.893068
9813.000000;0.891209
9812.000000;0.889423
9811.000000;0.887779
9810.000000;0.886276
9809.000000;0.884836
9808.000000;0.883516
9807.000000;0.882454
9806.000000;0.881553
9805.000000;0.880426
9804.000000;0.878797
9803.000000;0.876795
9802.000000;0.874778
9801.000000;0.872998
9800.000000;0.871528
9799.000000;0.870341
9798.000000;0.869287
9797.000000;0.868145
9796.000000;0.866817
9795.000000;0.865363
9794.000000;0.863762
9793.000000;0.861818
9792.000000;0.859498
9791.000000;0.857193
9790.000000;0.855345
9789.000000;0.853893
9788.000000;0.852366
9787.000000;0.850537
9786.000000;0.848702
9785.000000;0.847272
9784.000000;0.846292
9783.000000;0.845446
9782.000000;0.844361
9781.000000;0.842813
9780.000000;0.840833
9779.000000;0.838728
9778.000000;0.836874
9777.000000;0.835372
9776.000000;0.833984
9775.000000;0.832425
9774.000000;0.830604
9773.000000;0.828540
9772.000000;0.826279
9771.000000;0.823993
9770.000000;0.821955
9769.000000;0.820238
9768.000000;0.818594
9767.000000;0.816829
9766.000000;0.815113
9765.000000;0.813674
9764.000000;0.812345
9763.000000;0.810770
9762.000000;0.808989
9761.000000;0.807435
9760.000000;0.806283
9759.000000;0.805191
9758.000000;0.803793
9757.000000;0.802126
9756.000000;0.800339
9755.000000;0.798315
9754.000000;0.795923
9753.000000;0.793398
9752.000000;0.791095
9751.000000;0.788999
9750.000000;0.786878
9749.000000;0.784848
9748.000000;0.783356
9747.000000;0.782473
9746.000000;0.781587
9745.000000;0.779995
9744.000000;0.777621
9743.000000;0.774938
9742.000000;0.772417
9741.000000;0.770266
9740.000000;0.768508
9739.000000;0.767044
9738.000000;0.765656
9737.000000;0.764170
9736.000000;0.762608
9735.000000;0.761059
9734.000000;0.759488
9733.000000;0.757814
9732.000000;0.756087
9731.000000;0.754411
9730.000000;0.752727
9729.000000;0.750906
9728.000000;0.749031
9727.000000;0.747347
9726.000000;0.745862
9725.000000;0.744250
9724.000000;0.742294
9723.000000;0.740258
9722.000000;0.738626
9721.000000;0.737533
9720.000000;0.736574
9719.000000;0.735140
9718.000000;0.732876
9717.000000;0.729871
9716.000000;0.726570
9715.000000;0.723541
9714.000000;0.721187
9713.000000;0.719568
9712.000000;0.718401
9711.000000;0.717278
9710.000000;0.715958
9709.000000;0.714517
9708.000000;0.713180
9707.000000;0.711942
9706.000000;0.710408
9705.000000;0.708138
9704.000000;0.705188
9703.000000;0.702175
9702.000000;0.699736
9701.000000;0.697969
9700.000000;0.696419
9699.000000;0.694550
9698.000000;0.692188
9697.000000;0.689612
9696.000000;0.687284
9695.000000;0.685449
9694.000000;0.683894
9693.000000;0.682139
9692.000000;0.679891
9691.000000;0.677300
9690.000000;0.674759
9689.000000;0.672524
9688.000000;0.670562
9687.000000;0.668652
9686.000000;0.666583
9685.000000;0.664336
9684.000000;0.662136
9683.000000;0.660242
9682.000000;0.658646
9681.000000;0.657059
9680.000000;0.655262
9679.000000;0.653332
9678.000000;0.651436
9677.000000;0.649559
9676.000000;0.647611
9675.000000;0.645674
9674.000000;0.643884
9673.000000;0.642137
9672.000000;0.640163
9671.000000;0.637948
9670.000000;0.635832
9669.000000;0.634066
9668.000000;0.632425
9667.000000;0.630427
9666.000000;0.627855
9665.000000;0.624962
9664.000000;0.622185
9663.000000;0.619757
9662.000000;0.617587
9661.000000;0.615453
9660.000000;0.613293
9659.000000;0.611252
9658.000000;0.609453
9657.000000;0.607788
9656.000000;0.606042
9655.000000;0.604157
9654.000000;0.602215
9653.000000;0.600200
9652.000000;0.597993
9651.000000;0.595646
9650.000000;0.593443
9649.000000;0.591529
9648.000000;0.589625
9647.000000;0.587282
9646.000000;0.584390
9645.000000;0.581319
9644.000000;0.578597
9643.000000;0.576512
9642.000000;0.574936
9641.000000;0.573410
9640.000000;0.571461
9639.000000;0.568975
9638.000000;0.566292
9637.000000;0.563877
9636.000000;0.561916
9635.000000;0.560251
9634.000000;0.558572
9633.000000;0.556606
9632.000000;0.554233
9631.000000;0.551601
9630.000000;0.549083
9629.000000;0.546917
9628.000000;0.544904
9627.000000;0.542614
9626.000000;0.539964
9625.000000;0.537411
9624.000000;0.535464
9623.000000;0.534089
9622.000000;0.532730
9621.000000;0.530860
9620.000000;0.528456
9619.000000;0.525911
9618.000000;0.523564
9617.000000;0.521364
9616.000000;0.519004
9615.000000;0.516338
9614.000000;0.513587
9613.000000;0.511076
9612.000000;0.508825
9611.000000;0.506538
9610.000000;0.504016
9609.000000;0.501454
9608.000000;0.499208
9607.000000;0.497333
9606.000000;0.495494
9605.000000;0.493355
9604.000000;0.490949
9603.000000;0.488575
9602.000000;0.486399
9601.000000;0.484272
9600.000000;0.481946
9599.000000;0.479348
9598.000000;0.476593
9597.000000;0.473855
9596.000000;0.471334
9595.000000;0.469229
9594.000000;0.467552
9593.000000;0.466006
9592.000000;0.464209
9591.000000;0.462076
9590.000000;0.459780
9589.000000;0.457391
9588.000000;0.454820
9587.000000;0.452186
9586.000000;0.449879
9585.000000;0.448027
9584.000000;0.446172
9583.000000;0.443773
9582.000000;0.440867
9581.000000;0.437919
9580.000000;0.435176
9579.000000;0.432546
9578.000000;0.430025
9577.000000;0.427740
9576.000000;0.425530
9575.000000;0.422950
9574.000000;0.419932
9573.000000;0.417060
9572.000000;0.414890
9571.000000;0.413253
9570.000000;0.411522
9569.000000;0.409336
9568.000000;0.406802
9567.000000;0.404153
9566.000000;0.401576
9565.000000;0.399300
9564.000000;0.397467
9563.000000;0.395867
9562.000000;0.394041
9561.000000;0.391720
9560.000000;0.389004
9559.000000;0.386149
9558.000000;0.383420
9557.000000;0.381109
9556.000000;0.379340
9555.000000;0.377762
9554.000000;0.375703
9553.000000;0.372866
9552.000000;0.369683
9551.000000;0.366812
9550.000000;0.364452
9549.000000;0.362313
9548.000000;0.360126
9547.000000;0.357895
9546.000000;0.355693
9545.000000;0.353455
9544.000000;0.351067
9543.000000;0.348513
9542.000000;0.345877
9541.000000;0.343280
9540.000000;0.340869
9539.000000;0.338771
9538.000000;0.336988
9537.000000;0.335386
9536.000000;0.333790
9535.000000;0.332049
9534.000000;0.330029
9533.000000;0.327679
9532.000000;0.325162
9531.000000;0.322806
9530.000000;0.320815
9529.000000;0.319056
9528.000000;0.317245
9527.000000;0.315284
9526.000000;0.313295
9525.000000;0.311336
9524.000000;0.309246
9523.000000;0.306847
9522.000000;0.304194
9521.000000;0.301555
9520.000000;0.299202
9519.000000;0.297306
9518.000000;0.295895
9517.000000;0.294792
9516.000000;0.293635
9515.000000;0.292117
9514.000000;0.290242
9513.000000;0.288263
9512.000000;0.286358
9511.000000;0.284434
9510.000000;0.282283
9509.000000;0.279873
9508.000000;0.277457
9507.000000;0.275405
9506.000000;0.273879
9505.000000;0.272617
9504.000000;0.271107
9503.000000;0.269072
9502.000000;0.266753
9501.000000;0.264577
9500.000000;0.262612
9499.000000;0.260550
9498.000000;0.258248
9497.000000;0.256066
9496.000000;0.254508
9495.000000;0.253652
9494.000000;0.253065
9493.000000;0.252230
9492.000000;0.250947
9491.000000;0.249354
9490.000000;0.247712
9489.000000;0.246197
9488.000000;0.244837
9487.000000;0.243591
9486.000000;0.242455
9485.000000;0.241443
9484.000000;0.240497
9483.000000;0.239517
9482.000000;0.238512
9481.000000;0.237614
9480.000000;0.236888
9479.000000;0.236211
9478.000000;0.235381
9477.000000;0.234248
9476.000000;0.232699
9475.000000;0.230692
9474.000000;0.228445
9473.000000;0.226473
9472.000000;0.225216
9471.000000;0.224656
9470.000000;0.224409
9469.000000;0.224149
9468.000000;0.223796
9467.000000;0.223304
9466.000000;0.222519
9465.000000;0.221358
9464.000000;0.220025
9463.000000;0.218900
9462.000000;0.218239
9461.000000;0.218006
9460.000000;0.217939
9459.000000;0.217751
9458.000000;0.217305
9457.000000;0.216669
9456.000000;0.216034
9455.000000;0.215580
9454.000000;0.215382
9453.000000;0.215323
9452.000000;0.215104
9451.000000;0.214447
9450.000000;0.213390
9449.000000;0.212318
9448.000000;0.211591
9447.000000;0.211243
9446.000000;0.211111
9445.000000;0.211160
9444.000000;0.211463
9443.000000;0.211898
9442.000000;0.212129
9441.000000;0.211986
9440.000000;0.211681
9439.000000;0.211511
9438.000000;0.211495
9437.000000;0.211455
9436.000000;0.211350
9435.000000;0.211360
9434.000000;0.211639
9433.000000;0.212121
9432.000000;0.212566
9431.000000;0.212744
9430.000000;0.212614
9429.000000;0.212376
9428.000000;0.212317
9427.000000;0.212571
9426.000000;0.213036
9425.000000;0.213581
9424.000000;0.214252
9423.000000;0.215139
9422.000000;0.216135
9421.000000;0.216961
9420.000000;0.217473
9419.000000;0.217781
9418.000000;0.218048
9417.000000;0.218275
9416.000000;0.218387
9415.000000;0.218444
9414.000000;0.218645
9413.000000;0.219113
9412.000000;0.219755
9411.000000;0.220364
9410.000000;0.220858
9409.000000;0.221393
9408.000000;0.222229
9407.000000;0.223445
9406.000000;0.224807
9405.000000;0.225961
9404.000000;0.226783
9403.000000;0.227483
9402.000000;0.228358
9401.000000;0.229477
9400.000000;0.230651
9399.000000;0.231659
9398.000000;0.232471
9397.000000;0.233261
9396.000000;0.234228
9395.000000;0.235394
9394.000000;0.236550
9393.000000;0.237426
9392.000000;0.237944
9391.000000;0.238265
9390.000000;0.238590
9389.000000;0.238991
9388.000000;0.239496
9387.000000;0.240220
9386.000000;0.241293
9385.000000;0.242661
9384.000000;0.244086
9383.000000;0.245377
9382.000000;0.246543
9381.000000;0.247680
9380.000000;0.248788
9379.000000;0.249759
9378.000000;0.250531
9377.000000;0.251199
9376.000000;0.251972
9375.000000;0.253012
9374.000000;0.254285
9373.000000;0.255600
9372.000000;0.256832
9371.000000;0.258060
9370.000000;0.259411
9369.000000;0.260828
9368.000000;0.262099
9367.000000;0.263118
9366.000000;0.263995
9365.000000;0.264856
9364.000000;0.265674
9363.000000;0.266391
9362.000000;0.267116
9361.000000;0.268081
9360.000000;0.269417
9359.000000;0.271053
9358.000000;0.272799
9357.000000;0.274464
9356.000000;0.275927
9355.000000;0.277182
9354.000000;0.278284
9353.000000;0.279242
9352.000000;0.280015
9351.000000;0.280686
9350.000000;0.281525
9349.000000;0.282752
9348.000000;0.284252
9347.000000;0.285672
9346.000000;0.286807
9345.000000;0.287780
9344.000000;0.288823
9343.000000;0.290026
9342.000000;0.291354
9341.000000;0.292782
9340.000000;0.294278
9339.000000;0.295710
9338.000000;0.296914
9337.000000;0.297879
9336.000000;0.298757
9335.000000;0.299668
9334.000000;0.300567
9333.000000;0.301390
9332.000000;0.302261
9331.000000;0.303445
9330.000000;0.305032
9329.000000;0.306752
9328.000000;0.308205
9327.000000;0.309246
9326.000000;0.310080
9325.000000;0.311005
9324.000000;0.312158
9323.000000;0.313531
9322.000000;0.315040
9321.000000;0.316496
9320.000000;0.317644
9319.000000;0.318411
9318.000000;0.319080
9317.000000;0.320043
9316.000000;0.321384
9315.000000;0.322824
9314.000000;0.324088
9313.000000;0.325196
9312.000000;0.326348
9311.000000;0.327652
9310.000000;0.329044
9309.000000;0.330401
9308.000000;0.331624
9307.000000;0.332650
9306.000000;0.333476
9305.000000;0.334221
9304.000000;0.335102
9303.000000;0.336290
9302.000000;0.337747
9301.000000;0.339193
9300.000000;0.340302
9299.000000;0.340997
9298.000000;0.341535
9297.000000;0.342242
9296.000000;0.343193
9295.000000;0.344219
9294.000000;0.345197
9293.000000;0.346223
9292.000000;0.347490
9291.000000;0.349057
9290.000000;0.350777
9289.000000;0.352391
9288.000000;0.353651
9287.000000;0.354448
9286.000000;0.354885
9285.000000;0.355231
9284.000000;0.355775
9283.000000;0.356674
9282.000000;0.357896
9281.000000;0.359249
9280.000000;0.360513
9279.000000;0.361614
9278.000000;0.362656
9277.000000;0.363751
9276.000000;0.364859
9275.000000;0.365892
9274.000000;0.366928
9273.000000;0.368155
9272.000000;0.369622
9271.000000;0.371155
9270.000000;0.372540
9269.000000;0.373659
9268.000000;0.374440
9267.000000;0.374871
9266.000000;0.375142
9265.000000;0.375598
9264.000000;0.376424
9263.000000;0.377466
9262.000000;0.378471
9261.000000;0.379387
9260.000000;0.380311
9259.000000;0.381300
9258.000000;0.382384
9257.000000;0.383652
9256.000000;0.385083
9255.000000;0.386359
9254.000000;0.387098
9253.000000;0.387331
9252.000000;0.387551
9251.000000;0.388218
9250.000000;0.389347
9249.000000;0.390609
9248.000000;0.391693
9247.000000;0.392513
9246.000000;0.393180
9245.000000;0.393914
9244.000000;0.394869
9243.000000;0.395957
9242.000000;0.396894
9241.000000;0.397489
9240.000000;0.397860
9239.000000;0.398275
9238.000000;0.398868
9237.000000;0.399572
9236.000000;0.400297
9235.000000;0.401036
9234.000000;0.401808
9233.000000;0.402596
9232.000000;0.403421
9231.000000;0.404400
9230.000000;0.405633
9229.000000;0.407029
9228.000000;0.408309
9227.000000;0.409263
9226.000000;0.409982
9225.000000;0.410771
9224.000000;0.411806
9223.000000;0.412941
9222.000000;0.413868
9221.000000;0.414428
9220.000000;0.414708
9219.000000;0.414921
9218.000000;0.415284
9217.000000;0.415971
9216.000000;0.417011
9215.000000;0.418192
9214.000000;0.419190
9213.000000;0.419870
9212.000000;0.420402
9211.000000;0.421016
9210.000000;0.421723
9209.000000;0.422373
9208.000000;0.422913
9207.000000;0.423493
9206.000000;0.424304
9205.000000;0.425407
9204.000000;0.426704
9203.000000;0.427994
9202.000000;0.429065
9201.000000;0.429821
9200.000000;0.430381
9199.000000;0.430984
9198.000000;0.431730
9197.000000;0.432441
9196.000000;0.432857
9195.000000;0.432954
9194.000000;0.433021
9193.000000;0.433389
9192.000000;0.434147
9191.000000;0.435130
9190.000000;0.436147
9189.000000;0.437122
9188.000000;0.438037
9187.000000;0.438841
9186.000000;0.439490
9185.000000;0.440031
9184.000000;0.440552
9183.000000;0.441070
9182.000000;0.441533
9181.000000;0.441953
9180.000000;0.442445
9179.000000;0.443092
9178.000000;0.443820
9177.000000;0.444486
9176.000000;0.445054
9175.000000;0.445628
9174.000000;0.446316
9173.000000;0.447121
9172.000000;0.447940
9171.000000;0.448625
9170.000000;0.449036
9169.000000;0.449135
9168.000000;0.449072
9167.000000;0.449148
9166.000000;0.449613
9165.000000;0.450492
9164.000000;0.451602
9163.000000;0.452696
9162.000000;0.453581
9161.000000;0.454162
9160.000000;0.454472
9159.000000;0.454661
9158.000000;0.454894
9157.000000;0.455217
9156.000000;0.455571
9155.000000;0.455953
9154.000000;0.456481
9153.000000;0.457224
9152.000000;0.458032
9151.000000;0.458653
9150.000000;0.459008
9149.000000;0.459301
9148.000000;0.459807
9147.000000;0.460627
9146.000000;0.461627
9145.000000;0.462565
9144.000000;0.463248
9143.000000;0.463650
9142.000000;0.463938
9141.000000;0.464334
9140.000000;0.464919
9139.000000;0.465586
9138.000000;0.466202
9137.000000;0.466749
9136.000000;0.467255
9135.000000;0.467677
9134.000000;0.467952
9133.000000;0.468153
9132.000000;0.468459
9131.000000;0.468931
9130.000000;0.469421
9129.000000;0.469758
9128.000000;0.470004
9127.000000;0.470422
9126.000000;0.471182
9125.000000;0.472143
9124.000000;0.472971
9123.000000;0.473474
9122.000000;0.473768
9121.000000;0.474092
9120.000000;0.474495
9119.000000;0.474816
9118.000000;0.474957
9117.000000;0.475072
9116.000000;0.475385
9115.000000;0.475910
9114.000000;0.476468
9113.000000;0.476951
9112.000000;0.477450
9111.000000;0.478075
9110.000000;0.478767
9109.000000;0.479345
9108.000000;0.479690
9107.000000;0.479800
9106.000000;0.479749
9105.000000;0.479650
9104.000000;0.479658
9103.000000;0.479918
9102.000000;0.480472
9101.000000;0.481246
9100.000000;0.482115
9099.000000;0.482970
9098.000000;0.483737
9097.000000;0.484376
9096.000000;0.484880
9095.000000;0.485244
9094.000000;0.485442
9093.000000;0.485447
9092.000000;0.485311
9091.000000;0.485201
9090.000000;0.485339
9089.000000;0.485864
9088.000000;0.486714
9087.000000;0.487638
9086.000000;0.488337
9085.000000;0.488642
9084.000000;0.488582
9083.000000;0.488355
9082.000000;0.488217
9081.000000;0.488357
9080.000000;0.488782
9079.000000;0.489325
9078.000000;0.489799
9077.000000;0.490172
9076.000000;0.490533
9075.000000;0.490919
9074.000000;0.491240
9073.000000;0.491407
9072.000000;0.491471
9071.000000;0.491575
9070.000000;0.491785
9069.000000;0.492023
9068.000000;0.492184
9067.000000;0.492286
9066.000000;0.492475
9065.000000;0.492855
9064.000000;0.493330
9063.000000;0.493681
9062.000000;0.493845
9061.000000;0.494050
9060.000000;0.494556
9059.000000;0.495296
9058.000000;0.495912
9057.000000;0.496188
9056.000000;0.496285
9055.000000;0.496499
9054.000000;0.496885
9053.000000;0.497281
