Criado como novo conjunto de dados;"0307_DANIEL.spp","36363.7 Secs"
cm-1;Abs
10000.000000;1.023706
9999.000000;1.021410
9998.000000;1.019126
9997.000000;1.016854
9996.000000;1.014593
9995.000000;1.012346
9994.000000;1.010107
9993.000000;1.007887
9992.000000;1.005664
9991.000000;1.003477
9990.000000;1.001248
9989.000000;0.999310
9988.000000;0.997997
9987.000000;0.997038
9986.000000;0.996094
9985.000000;0.995042
9984.000000;0.994052
9983.000000;0.993332
9982.000000;0.992807
9981.000000;0.992021
9980.000000;0.990530
9979.000000;0.988425
9978.000000;0.986305
9977.000000;0.984664
9976.000000;0.983503
9975.000000;0.982585
9974.000000;0.981769
9973.000000;0.980918
9972.000000;0.979783
9971.000000;0.978307
9970.000000;0.976914
9969.000000;0.976144
9968.000000;0.975983
9967.000000;0.975836
9966.000000;0.975183
9965.000000;0.974028
9964.000000;0.972624
9963.000000;0.971042
9962.000000;0.969243
9961.000000;0.967443
9960.000000;0.966087
9959.000000;0.965351
9958.000000;0.964814
9957.000000;0.963794
9956.000000;0.962051
9955.000000;0.960010
9954.000000;0.958266
9953.000000;0.957011
9952.000000;0.956051
9951.000000;0.955171
9950.000000;0.954280
9949.000000;0.953261
9948.000000;0.951978
9947.000000;0.950476
9946.000000;0.948965
9945.000000;0.947546
9944.000000;0.946146
9943.000000;0.944770
9942.000000;0.943547
9941.000000;0.942472
9940.000000;0.941318
9939.000000;0.939983
9938.000000;0.938675
9937.000000;0.937587
9936.000000;0.936565
9935.000000;0.935295
9934.000000;0.933712
9933.000000;0.932019
9932.000000;0.930439
9931.000000;0.929133
9930.000000;0.928208
9929.000000;0.927575
9928.000000;0.926873
9927.000000;0.925753
9926.000000;0.924214
9925.000000;0.922501
9924.000000;0.920780
9923.000000;0.919085
9922.000000;0.917500
9921.000000;0.916128
9920.000000;0.914911
9919.000000;0.913680
9918.000000;0.912371
9917.000000;0.911059
9916.000000;0.909818
9915.000000;0.908692
9914.000000;0.907733
9913.000000;0.906862
9912.000000;0.905796
9911.000000;0.904349
9910.000000;0.902721
9909.000000;0.901217
9908.000000;0.899756
9907.000000;0.898012
9906.000000;0.896044
9905.000000;0.894377
9904.000000;0.893323
9903.000000;0.892559
9902.000000;0.891583
9901.000000;0.890314
9900.000000;0.888986
9899.000000;0.887646
9898.000000;0.886116
9897.000000;0.884355
9896.000000;0.882570
9895.000000;0.880944
9894.000000;0.879523
9893.000000;0.878359
9892.000000;0.877528
9891.000000;0.876906
9890.000000;0.876105
9889.000000;0.874791
9888.000000;0.872965
9887.000000;0.870871
9886.000000;0.868737
9885.000000;0.866749
9884.000000;0.865153
9883.000000;0.864115
9882.000000;0.863432
9881.000000;0.862556
9880.000000;0.861079
9879.000000;0.859126
9878.000000;0.857195
9877.000000;0.855660
9876.000000;0.854554
9875.000000;0.853736
9874.000000;0.853070
9873.000000;0.852372
9872.000000;0.851362
9871.000000;0.849841
9870.000000;0.847909
9869.000000;0.845938
9868.000000;0.844298
9867.000000;0.843081
9866.000000;0.842003
9865.000000;0.840582
9864.000000;0.838539
9863.000000;0.836117
9862.000000;0.833938
9861.000000;0.832498
9860.000000;0.831820
9859.000000;0.831516
9858.000000;0.831037
9857.000000;0.829893
9856.000000;0.827931
9855.000000;0.825565
9854.000000;0.823539
9853.000000;0.822240
9852.000000;0.821331
9851.000000;0.820193
9850.000000;0.818615
9849.000000;0.816849
9848.000000;0.815145
9847.000000;0.813557
9846.000000;0.812148
9845.000000;0.810982
9844.000000;0.809863
9843.000000;0.808414
9842.000000;0.806606
9841.000000;0.804906
9840.000000;0.803667
9839.000000;0.802603
9838.000000;0.801148
9837.000000;0.799213
9836.000000;0.797254
9835.000000;0.795618
9834.000000;0.794152
9833.000000;0.792530
9832.000000;0.790692
9831.000000;0.788815
9830.000000;0.787036
9829.000000;0.785415
9828.000000;0.784051
9827.000000;0.783012
9826.000000;0.782153
9825.000000;0.781162
9824.000000;0.779847
9823.000000;0.778238
9822.000000;0.776419
9821.000000;0.774439
9820.000000;0.772433
9819.000000;0.770658
9818.000000;0.769234
9817.000000;0.767975
9816.000000;0.766629
9815.000000;0.765229
9814.000000;0.763998
9813.000000;0.762958
9812.000000;0.761862
9811.000000;0.760533
9810.000000;0.759053
9809.000000;0.757532
9808.000000;0.755892
9807.000000;0.754028
9806.000000;0.752054
9805.000000;0.750198
9804.000000;0.748534
9803.000000;0.746932
9802.000000;0.745234
9801.000000;0.743367
9800.000000;0.741393
9799.000000;0.739549
9798.000000;0.738140
9797.000000;0.737223
9796.000000;0.736419
9795.000000;0.735211
9794.000000;0.733445
9793.000000;0.731423
9792.000000;0.729530
9791.000000;0.727887
9790.000000;0.726377
9789.000000;0.724875
9788.000000;0.723367
9787.000000;0.721889
9786.000000;0.720382
9785.000000;0.718652
9784.000000;0.716560
9783.000000;0.714275
9782.000000;0.712185
9781.000000;0.710463
9780.000000;0.708843
9779.000000;0.706996
9778.000000;0.705038
9777.000000;0.703420
9776.000000;0.702328
9775.000000;0.701420
9774.000000;0.700233
9773.000000;0.698654
9772.000000;0.696881
9771.000000;0.695101
9770.000000;0.693336
9769.000000;0.691534
9768.000000;0.689637
9767.000000;0.687610
9766.000000;0.685482
9765.000000;0.683356
9764.000000;0.681303
9763.000000;0.679316
9762.000000;0.677417
9761.000000;0.675758
9760.000000;0.674495
9759.000000;0.673554
9758.000000;0.672586
9757.000000;0.671207
9756.000000;0.669304
9755.000000;0.667101
9754.000000;0.664947
9753.000000;0.663044
9752.000000;0.661370
9751.000000;0.659798
9750.000000;0.658217
9749.000000;0.656537
9748.000000;0.654692
9747.000000;0.652729
9746.000000;0.650830
9745.000000;0.649146
9744.000000;0.647611
9743.000000;0.646021
9742.000000;0.644256
9741.000000;0.642331
9740.000000;0.640235
9739.000000;0.637917
9738.000000;0.635467
9737.000000;0.633185
9736.000000;0.631315
9735.000000;0.629799
9734.000000;0.628362
9733.000000;0.626832
9732.000000;0.625264
9731.000000;0.623781
9730.000000;0.622390
9729.000000;0.621001
9728.000000;0.619553
9727.000000;0.618050
9726.000000;0.616487
9725.000000;0.614774
9724.000000;0.612808
9723.000000;0.610592
9722.000000;0.608262
9721.000000;0.605961
9720.000000;0.603733
9719.000000;0.601582
9718.000000;0.599553
9717.000000;0.597688
9716.000000;0.595926
9715.000000;0.594136
9714.000000;0.592274
9713.000000;0.590419
9712.000000;0.588646
9711.000000;0.586925
9710.000000;0.585166
9709.000000;0.583293
9708.000000;0.581253
9707.000000;0.579032
9706.000000;0.576716
9705.000000;0.574488
9704.000000;0.572487
9703.000000;0.570708
9702.000000;0.569066
9701.000000;0.567508
9700.000000;0.565964
9699.000000;0.564231
9698.000000;0.562047
9697.000000;0.559356
9696.000000;0.556470
9695.000000;0.553888
9694.000000;0.551929
9693.000000;0.550542
9692.000000;0.549395
9691.000000;0.548093
9690.000000;0.546369
9689.000000;0.544217
9688.000000;0.541907
9687.000000;0.539809
9686.000000;0.538080
9685.000000;0.536549
9684.000000;0.534927
9683.000000;0.533102
9682.000000;0.531157
9681.000000;0.529160
9680.000000;0.527074
9679.000000;0.524865
9678.000000;0.522567
9677.000000;0.520210
9676.000000;0.517834
9675.000000;0.515592
9674.000000;0.513673
9673.000000;0.512051
9672.000000;0.510418
9671.000000;0.508493
9670.000000;0.506283
9669.000000;0.503965
9668.000000;0.501646
9667.000000;0.499371
9666.000000;0.497223
9665.000000;0.495194
9664.000000;0.493048
9663.000000;0.490573
9662.000000;0.487945
9661.000000;0.485623
9660.000000;0.483802
9659.000000;0.482175
9658.000000;0.480308
9657.000000;0.478093
9656.000000;0.475769
9655.000000;0.473616
9654.000000;0.471745
9653.000000;0.470053
9652.000000;0.468290
9651.000000;0.466253
9650.000000;0.464013
9649.000000;0.461857
9648.000000;0.459906
9647.000000;0.457893
9646.000000;0.455464
9645.000000;0.452667
9644.000000;0.449989
9643.000000;0.447877
9642.000000;0.446307
9641.000000;0.444859
9640.000000;0.443145
9639.000000;0.441128
9638.000000;0.439011
9637.000000;0.436904
9636.000000;0.434687
9635.000000;0.432247
9634.000000;0.429722
9633.000000;0.427380
9632.000000;0.425252
9631.000000;0.423080
9630.000000;0.420674
9629.000000;0.418176
9628.000000;0.415822
9627.000000;0.413561
9626.000000;0.411112
9625.000000;0.408412
9624.000000;0.405800
9623.000000;0.403657
9622.000000;0.401969
9621.000000;0.400346
9620.000000;0.398414
9619.000000;0.396084
9618.000000;0.393445
9617.000000;0.390579
9616.000000;0.387585
9615.000000;0.384691
9614.000000;0.382179
9613.000000;0.380124
9612.000000;0.378297
9611.000000;0.376403
9610.000000;0.374361
9609.000000;0.372302
9608.000000;0.370324
9607.000000;0.368327
9606.000000;0.366082
9605.000000;0.363434
9604.000000;0.360473
9603.000000;0.357525
9602.000000;0.354935
9601.000000;0.352785
9600.000000;0.350846
9599.000000;0.348832
9598.000000;0.346675
9597.000000;0.344463
9596.000000;0.342228
9595.000000;0.339912
9594.000000;0.337521
9593.000000;0.335151
9592.000000;0.332824
9591.000000;0.330451
9590.000000;0.328023
9589.000000;0.325709
9588.000000;0.323686
9587.000000;0.321924
9586.000000;0.320191
9585.000000;0.318229
9584.000000;0.315896
9583.000000;0.313222
9582.000000;0.310411
9581.000000;0.307703
9580.000000;0.305173
9579.000000;0.302698
9578.000000;0.300153
9577.000000;0.297597
9576.000000;0.295197
9575.000000;0.293058
9574.000000;0.291132
9573.000000;0.289234
9572.000000;0.287093
9571.000000;0.284519
9570.000000;0.281622
9569.000000;0.278790
9568.000000;0.276334
9567.000000;0.274204
9566.000000;0.272135
9565.000000;0.269975
9564.000000;0.267736
9563.000000;0.265391
9562.000000;0.262840
9561.000000;0.260122
9560.000000;0.257483
9559.000000;0.255139
9558.000000;0.253065
9557.000000;0.251091
9556.000000;0.249086
9555.000000;0.246970
9554.000000;0.244664
9553.000000;0.242167
9552.000000;0.239670
9551.000000;0.237438
9550.000000;0.235521
9549.000000;0.233662
9548.000000;0.231550
9547.000000;0.229155
9546.000000;0.226752
9545.000000;0.224619
9544.000000;0.222764
9543.000000;0.220944
9542.000000;0.218915
9541.000000;0.216613
9540.000000;0.214109
9539.000000;0.211482
9538.000000;0.208794
9537.000000;0.206135
9536.000000;0.203627
9535.000000;0.201349
9534.000000;0.199269
9533.000000;0.197260
9532.000000;0.195193
9531.000000;0.193027
9530.000000;0.190851
9529.000000;0.188806
9528.000000;0.186943
9527.000000;0.185146
9526.000000;0.183241
9525.000000;0.181152
9524.000000;0.178943
9523.000000;0.176726
9522.000000;0.174592
9521.000000;0.172618
9520.000000;0.170837
9519.000000;0.169165
9518.000000;0.167441
9517.000000;0.165600
9516.000000;0.163753
9515.000000;0.162021
9514.000000;0.160353
9513.000000;0.158583
9512.000000;0.156648
9511.000000;0.154644
9510.000000;0.152664
9509.000000;0.150660
9508.000000;0.148550
9507.000000;0.146372
9506.000000;0.144264
9505.000000;0.142319
9504.000000;0.140525
9503.000000;0.138846
9502.000000;0.137306
9501.000000;0.135952
9500.000000;0.134757
9499.000000;0.133581
9498.000000;0.132248
9497.000000;0.130671
9496.000000;0.128919
9495.000000;0.127132
9494.000000;0.125387
9493.000000;0.123659
9492.000000;0.121906
9491.000000;0.120161
9490.000000;0.118511
9489.000000;0.117027
9488.000000;0.115749
9487.000000;0.114674
9486.000000;0.113718
9485.000000;0.112707
9484.000000;0.111493
9483.000000;0.110078
9482.000000;0.108602
9481.000000;0.107220
9480.000000;0.106042
9479.000000;0.105134
9478.000000;0.104480
9477.000000;0.103912
9476.000000;0.103192
9475.000000;0.102194
9474.000000;0.100990
9473.000000;0.099725
9472.000000;0.098479
9471.000000;0.097282
9470.000000;0.096181
9469.000000;0.095196
9468.000000;0.094233
9467.000000;0.093135
9466.000000;0.091876
9465.000000;0.090667
9464.000000;0.089813
9463.000000;0.089425
9462.000000;0.089276
9461.000000;0.088999
9460.000000;0.088425
9459.000000;0.087710
9458.000000;0.087110
9457.000000;0.086686
9456.000000;0.086312
9455.000000;0.085896
9454.000000;0.085506
9453.000000;0.085239
9452.000000;0.085064
9451.000000;0.084859
9450.000000;0.084560
9449.000000;0.084236
9448.000000;0.084000
9447.000000;0.083877
9446.000000;0.083753
9445.000000;0.083500
9444.000000;0.083147
9443.000000;0.082846
9442.000000;0.082645
9441.000000;0.082409
9440.000000;0.082076
9439.000000;0.081878
9438.000000;0.082107
9437.000000;0.082694
9436.000000;0.083232
9435.000000;0.083433
9434.000000;0.083384
9433.000000;0.083318
9432.000000;0.083333
9431.000000;0.083441
9430.000000;0.083689
9429.000000;0.084065
9428.000000;0.084427
9427.000000;0.084704
9426.000000;0.085060
9425.000000;0.085693
9424.000000;0.086537
9423.000000;0.087313
9422.000000;0.087820
9421.000000;0.088060
9420.000000;0.088129
9419.000000;0.088167
9418.000000;0.088382
9417.000000;0.088918
9416.000000;0.089663
9415.000000;0.090312
9414.000000;0.090683
9413.000000;0.090899
9412.000000;0.091231
9411.000000;0.091816
9410.000000;0.092568
9409.000000;0.093320
9408.000000;0.094025
9407.000000;0.094826
9406.000000;0.095892
9405.000000;0.097170
9404.000000;0.098360
9403.000000;0.099220
9402.000000;0.099829
9401.000000;0.100478
9400.000000;0.101337
9399.000000;0.102324
9398.000000;0.103269
9397.000000;0.104108
9396.000000;0.104890
9395.000000;0.105705
9394.000000;0.106612
9393.000000;0.107592
9392.000000;0.108541
9391.000000;0.109353
9390.000000;0.110025
9389.000000;0.110681
9388.000000;0.111477
9387.000000;0.112486
9386.000000;0.113638
9385.000000;0.114782
9384.000000;0.115828
9383.000000;0.116832
9382.000000;0.117878
9381.000000;0.118902
9380.000000;0.119758
9379.000000;0.120462
9378.000000;0.121230
9377.000000;0.122234
9376.000000;0.123443
9375.000000;0.124760
9374.000000;0.126124
9373.000000;0.127408
9372.000000;0.128409
9371.000000;0.129149
9370.000000;0.130002
9369.000000;0.131284
9368.000000;0.132822
9367.000000;0.134177
9366.000000;0.135232
9365.000000;0.136278
9364.000000;0.137506
9363.000000;0.138753
9362.000000;0.139841
9361.000000;0.140913
9360.000000;0.142244
9359.000000;0.143839
9358.000000;0.145413
9357.000000;0.146702
9356.000000;0.147668
9355.000000;0.148457
9354.000000;0.149245
9353.000000;0.150146
9352.000000;0.151183
9351.000000;0.152330
9350.000000;0.153564
9349.000000;0.154848
9348.000000;0.156103
9347.000000;0.157267
9346.000000;0.158371
9345.000000;0.159498
9344.000000;0.160672
9343.000000;0.161843
9342.000000;0.162982
9341.000000;0.164083
9340.000000;0.165100
9339.000000;0.165995
9338.000000;0.166865
9337.000000;0.167898
9336.000000;0.169139
9335.000000;0.170423
9334.000000;0.171605
9333.000000;0.172756
9332.000000;0.174027
9331.000000;0.175410
9330.000000;0.176737
9329.000000;0.177905
9328.000000;0.179010
9327.000000;0.180241
9326.000000;0.181689
9325.000000;0.183257
9324.000000;0.184750
9323.000000;0.186030
9322.000000;0.187117
9321.000000;0.188129
9320.000000;0.189164
9319.000000;0.190238
9318.000000;0.191325
9317.000000;0.192394
9316.000000;0.193413
9315.000000;0.194366
9314.000000;0.195285
9313.000000;0.196222
9312.000000;0.197209
9311.000000;0.198251
9310.000000;0.199369
9309.000000;0.200575
9308.000000;0.201840
9307.000000;0.203113
9306.000000;0.204385
9305.000000;0.205643
9304.000000;0.206798
9303.000000;0.207737
9302.000000;0.208461
9301.000000;0.209111
9300.000000;0.209848
9299.000000;0.210744
9298.000000;0.211821
9297.000000;0.213081
9296.000000;0.214478
9295.000000;0.215888
9294.000000;0.217172
9293.000000;0.218277
9292.000000;0.219268
9291.000000;0.220297
9290.000000;0.221481
9289.000000;0.222784
9288.000000;0.224028
9287.000000;0.225093
9286.000000;0.226070
9285.000000;0.227148
9284.000000;0.228365
9283.000000;0.229557
9282.000000;0.230568
9281.000000;0.231421
9280.000000;0.232250
9279.000000;0.233138
9278.000000;0.234057
9277.000000;0.234912
9276.000000;0.235634
9275.000000;0.236264
9274.000000;0.236960
9273.000000;0.237856
9272.000000;0.238941
9271.000000;0.240136
9270.000000;0.241438
9269.000000;0.242878
9268.000000;0.244339
9267.000000;0.245570
9266.000000;0.246467
9265.000000;0.247203
9264.000000;0.248014
9263.000000;0.248945
9262.000000;0.249921
9261.000000;0.250946
9260.000000;0.252089
9259.000000;0.253292
9258.000000;0.254360
9257.000000;0.255179
9256.000000;0.255859
9255.000000;0.256589
9254.000000;0.257420
9253.000000;0.258265
9252.000000;0.259097
9251.000000;0.260049
9250.000000;0.261256
9249.000000;0.262616
9248.000000;0.263805
9247.000000;0.264577
9246.000000;0.265018
9245.000000;0.265430
9244.000000;0.266021
9243.000000;0.266793
9242.000000;0.267685
9241.000000;0.268683
9240.000000;0.269753
9239.000000;0.270779
9238.000000;0.271705
9237.000000;0.272631
9236.000000;0.273676
9235.000000;0.274761
9234.000000;0.275644
9233.000000;0.276208
9232.000000;0.276627
9231.000000;0.277215
9230.000000;0.278126
9229.000000;0.279224
9228.000000;0.280236
9227.000000;0.281008
9226.000000;0.281606
9225.000000;0.282218
9224.000000;0.282973
9223.000000;0.283880
9222.000000;0.284881
9221.000000;0.285882
9220.000000;0.286759
9219.000000;0.287391
9218.000000;0.287780
9217.000000;0.288094
9216.000000;0.288556
9215.000000;0.289276
9214.000000;0.290177
9213.000000;0.291068
9212.000000;0.291787
9211.000000;0.292327
9210.000000;0.292844
9209.000000;0.293533
9208.000000;0.294475
9207.000000;0.295587
9206.000000;0.296708
9205.000000;0.297702
9204.000000;0.298495
9203.000000;0.299086
9202.000000;0.299561
9201.000000;0.300048
9200.000000;0.300615
9199.000000;0.301222
9198.000000;0.301790
9197.000000;0.302312
9196.000000;0.302901
9195.000000;0.303701
9194.000000;0.304746
9193.000000;0.305892
9192.000000;0.306917
9191.000000;0.307712
9190.000000;0.308354
9189.000000;0.308956
9188.000000;0.309521
9187.000000;0.310008
9186.000000;0.310489
9185.000000;0.311104
9184.000000;0.311842
9183.000000;0.312531
9182.000000;0.313082
9181.000000;0.313640
9180.000000;0.314362
9179.000000;0.315152
9178.000000;0.315778
9177.000000;0.316210
9176.000000;0.316678
9175.000000;0.317365
9174.000000;0.318182
9173.000000;0.318912
9172.000000;0.319499
9171.000000;0.320078
9170.000000;0.320765
9169.000000;0.321516
9168.000000;0.322203
9167.000000;0.322768
9166.000000;0.323268
9165.000000;0.323807
9164.000000;0.324446
9163.000000;0.325160
9162.000000;0.325855
9161.000000;0.326454
9160.000000;0.326968
9159.000000;0.327467
9158.000000;0.327969
9157.000000;0.328397
9156.000000;0.328682
9155.000000;0.328887
9154.000000;0.329164
9153.000000;0.329611
9152.000000;0.330210
9151.000000;0.330908
9150.000000;0.331657
9149.000000;0.332375
9148.000000;0.332940
9147.000000;0.333318
9146.000000;0.333629
9145.000000;0.334011
9144.000000;0.334482
9143.000000;0.334974
9142.000000;0.335480
9141.000000;0.336061
9140.000000;0.336728
9139.000000;0.337409
9138.000000;0.338034
9137.000000;0.338596
9136.000000;0.339118
9135.000000;0.339614
9134.000000;0.340076
9133.000000;0.340444
9132.000000;0.340622
9131.000000;0.340622
9130.000000;0.340683
9129.000000;0.341111
9128.000000;0.341964
9127.000000;0.342982
9126.000000;0.343870
9125.000000;0.344568
9124.000000;0.345181
9123.000000;0.345773
9122.000000;0.346322
9121.000000;0.346794
9120.000000;0.347167
9119.000000;0.347388
9118.000000;0.347448
9117.000000;0.347472
9116.000000;0.347660
9115.000000;0.348086
9114.000000;0.348647
9113.000000;0.349198
9112.000000;0.349672
9111.000000;0.350060
9110.000000;0.350343
9109.000000;0.350556
9108.000000;0.350844
9107.000000;0.351387
9106.000000;0.352203
9105.000000;0.353096
9104.000000;0.353817
9103.000000;0.354276
9102.000000;0.354551
9101.000000;0.354723
9100.000000;0.354793
9099.000000;0.354803
9098.000000;0.354928
9097.000000;0.355340
9096.000000;0.355979
9095.000000;0.356579
9094.000000;0.356932
9093.000000;0.357077
9092.000000;0.357178
9091.000000;0.357335
9090.000000;0.357578
9089.000000;0.357981
9088.000000;0.358630
9087.000000;0.359482
9086.000000;0.360330
9085.000000;0.360949
9084.000000;0.361258
9083.000000;0.361326
9082.000000;0.361291
9081.000000;0.361282
9080.000000;0.361399
9079.000000;0.361696
9078.000000;0.362171
9077.000000;0.362745
9076.000000;0.363253
9075.000000;0.363522
9074.000000;0.363519
9073.000000;0.363422
9072.000000;0.363470
9071.000000;0.363730
9070.000000;0.364055
9069.000000;0.364296
9068.000000;0.364467
9067.000000;0.364673
9066.000000;0.364940
9065.000000;0.365212
9064.000000;0.365507
9063.000000;0.365939
9062.000000;0.366549
9061.000000;0.367183
9060.000000;0.367619
9059.000000;0.367817
9058.000000;0.367964
9057.000000;0.368258
9056.000000;0.368694
9055.000000;0.369069
9054.000000;0.369185
9053.000000;0.369025
