Criado como novo conjunto de dados;"0307_DANIEL.spp","2162.0 Secs"
cm-1;Abs
10000.000000;0.265380
9999.000000;0.264534
9998.000000;0.263622
9997.000000;0.262577
9996.000000;0.261457
9995.000000;0.260382
9994.000000;0.259397
9993.000000;0.258409
9992.000000;0.257302
9991.000000;0.256103
9990.000000;0.254960
9989.000000;0.253959
9988.000000;0.253037
9987.000000;0.252091
9986.000000;0.251079
9985.000000;0.249988
9984.000000;0.248806
9983.000000;0.247579
9982.000000;0.246414
9981.000000;0.245352
9980.000000;0.244301
9979.000000;0.243156
9978.000000;0.241927
9977.000000;0.240700
9976.000000;0.239510
9975.000000;0.238337
9974.000000;0.237201
9973.000000;0.236168
9972.000000;0.235250
9971.000000;0.234344
9970.000000;0.233310
9969.000000;0.232096
9968.000000;0.230785
9967.000000;0.229523
9966.000000;0.228379
9965.000000;0.227285
9964.000000;0.226119
9963.000000;0.224839
9962.000000;0.223534
9961.000000;0.222330
9960.000000;0.221290
9959.000000;0.220390
9958.000000;0.219514
9957.000000;0.218502
9956.000000;0.217254
9955.000000;0.215834
9954.000000;0.214426
9953.000000;0.213171
9952.000000;0.212067
9951.000000;0.211045
9950.000000;0.210052
9949.000000;0.209053
9948.000000;0.207981
9947.000000;0.206774
9946.000000;0.205440
9945.000000;0.204065
9944.000000;0.202757
9943.000000;0.201588
9942.000000;0.200555
9941.000000;0.199573
9940.000000;0.198530
9939.000000;0.197373
9938.000000;0.196147
9937.000000;0.194926
9936.000000;0.193725
9935.000000;0.192506
9934.000000;0.191253
9933.000000;0.190017
9932.000000;0.188872
9931.000000;0.187830
9930.000000;0.186814
9929.000000;0.185728
9928.000000;0.184539
9927.000000;0.183275
9926.000000;0.181972
9925.000000;0.180660
9924.000000;0.179392
9923.000000;0.178209
9922.000000;0.177072
9921.000000;0.175888
9920.000000;0.174636
9919.000000;0.173410
9918.000000;0.172288
9917.000000;0.171230
9916.000000;0.170139
9915.000000;0.168982
9914.000000;0.167770
9913.000000;0.166497
9912.000000;0.165163
9911.000000;0.163822
9910.000000;0.162529
9909.000000;0.161238
9908.000000;0.159856
9907.000000;0.158393
9906.000000;0.156988
9905.000000;0.155765
9904.000000;0.154702
9903.000000;0.153669
9902.000000;0.152529
9901.000000;0.151223
9900.000000;0.149784
9899.000000;0.148307
9898.000000;0.146885
9897.000000;0.145566
9896.000000;0.144354
9895.000000;0.143217
9894.000000;0.142083
9893.000000;0.140870
9892.000000;0.139563
9891.000000;0.138236
9890.000000;0.136950
9889.000000;0.135685
9888.000000;0.134394
9887.000000;0.133089
9886.000000;0.131826
9885.000000;0.130614
9884.000000;0.129399
9883.000000;0.128121
9882.000000;0.126773
9881.000000;0.125421
9880.000000;0.124166
9879.000000;0.123021
9878.000000;0.121843
9877.000000;0.120458
9876.000000;0.118908
9875.000000;0.117443
9874.000000;0.116231
9873.000000;0.115177
9872.000000;0.114076
9871.000000;0.112854
9870.000000;0.111556
9869.000000;0.110207
9868.000000;0.108821
9867.000000;0.107464
9866.000000;0.106162
9865.000000;0.104810
9864.000000;0.103322
9863.000000;0.101814
9862.000000;0.100489
9861.000000;0.099346
9860.000000;0.098166
9859.000000;0.096786
9858.000000;0.095268
9857.000000;0.093768
9856.000000;0.092375
9855.000000;0.091087
9854.000000;0.089835
9853.000000;0.088501
9852.000000;0.087015
9851.000000;0.085451
9850.000000;0.083966
9849.000000;0.082630
9848.000000;0.081399
9847.000000;0.080221
9846.000000;0.079062
9845.000000;0.077846
9844.000000;0.076488
9843.000000;0.075019
9842.000000;0.073567
9841.000000;0.072193
9840.000000;0.070841
9839.000000;0.069462
9838.000000;0.068076
9837.000000;0.066692
9836.000000;0.065269
9835.000000;0.063788
9834.000000;0.062283
9833.000000;0.060769
9832.000000;0.059233
9831.000000;0.057704
9830.000000;0.056245
9829.000000;0.054838
9828.000000;0.053389
9827.000000;0.051859
9826.000000;0.050307
9825.000000;0.048784
9824.000000;0.047288
9823.000000;0.045847
9822.000000;0.044520
9821.000000;0.043267
9820.000000;0.041926
9819.000000;0.040398
9818.000000;0.038760
9817.000000;0.037138
9816.000000;0.035552
9815.000000;0.033986
9814.000000;0.032494
9813.000000;0.031136
9812.000000;0.029847
9811.000000;0.028471
9810.000000;0.026944
9809.000000;0.025362
9808.000000;0.023864
9807.000000;0.022489
9806.000000;0.021151
9805.000000;0.019716
9804.000000;0.018125
9803.000000;0.016453
9802.000000;0.014838
9801.000000;0.013337
9800.000000;0.011885
9799.000000;0.010399
9798.000000;0.008888
9797.000000;0.007409
9796.000000;0.005974
9795.000000;0.004529
9794.000000;0.003024
9793.000000;0.001460
9792.000000;-0.000121
9791.000000;-0.001683
9790.000000;-0.003219
9789.000000;-0.004726
9788.000000;-0.006191
9787.000000;-0.007619
9786.000000;-0.009064
9785.000000;-0.010600
9784.000000;-0.012233
9783.000000;-0.013907
9782.000000;-0.015584
9781.000000;-0.017274
9780.000000;-0.018958
9779.000000;-0.020551
9778.000000;-0.022008
9777.000000;-0.023387
9776.000000;-0.024779
9775.000000;-0.026221
9774.000000;-0.027737
9773.000000;-0.029378
9772.000000;-0.031108
9771.000000;-0.032764
9770.000000;-0.034244
9769.000000;-0.035694
9768.000000;-0.037340
9767.000000;-0.039188
9766.000000;-0.041026
9765.000000;-0.042720
9764.000000;-0.044340
9763.000000;-0.045981
9762.000000;-0.047632
9761.000000;-0.049259
9760.000000;-0.050892
9759.000000;-0.052543
9758.000000;-0.054169
9757.000000;-0.055757
9756.000000;-0.057362
9755.000000;-0.058990
9754.000000;-0.060555
9753.000000;-0.062019
9752.000000;-0.063497
9751.000000;-0.065136
9750.000000;-0.066948
9749.000000;-0.068836
9748.000000;-0.070695
9747.000000;-0.072463
9746.000000;-0.074111
9745.000000;-0.075691
9744.000000;-0.077320
9743.000000;-0.079069
9742.000000;-0.080890
9741.000000;-0.082698
9740.000000;-0.084479
9739.000000;-0.086253
9738.000000;-0.088000
9737.000000;-0.089682
9736.000000;-0.091295
9735.000000;-0.092869
9734.000000;-0.094417
9733.000000;-0.095967
9732.000000;-0.097580
9731.000000;-0.099297
9730.000000;-0.101082
9729.000000;-0.102875
9728.000000;-0.104664
9727.000000;-0.106477
9726.000000;-0.108311
9725.000000;-0.110131
9724.000000;-0.111919
9723.000000;-0.113691
9722.000000;-0.115455
9721.000000;-0.117197
9720.000000;-0.118911
9719.000000;-0.120614
9718.000000;-0.122339
9717.000000;-0.124119
9716.000000;-0.125964
9715.000000;-0.127835
9714.000000;-0.129648
9713.000000;-0.131321
9712.000000;-0.132843
9711.000000;-0.134298
9710.000000;-0.135844
9709.000000;-0.137617
9708.000000;-0.139632
9707.000000;-0.141762
9706.000000;-0.143843
9705.000000;-0.145815
9704.000000;-0.147723
9703.000000;-0.149618
9702.000000;-0.151487
9701.000000;-0.153292
9700.000000;-0.155032
9699.000000;-0.156751
9698.000000;-0.158508
9697.000000;-0.160341
9696.000000;-0.162244
9695.000000;-0.164167
9694.000000;-0.166071
9693.000000;-0.167978
9692.000000;-0.169921
9691.000000;-0.171875
9690.000000;-0.173768
9689.000000;-0.175572
9688.000000;-0.177339
9687.000000;-0.179139
9686.000000;-0.180997
9685.000000;-0.182906
9684.000000;-0.184862
9683.000000;-0.186865
9682.000000;-0.188906
9681.000000;-0.190956
9680.000000;-0.192971
9679.000000;-0.194912
9678.000000;-0.196775
9677.000000;-0.198598
9676.000000;-0.200421
9675.000000;-0.202274
9674.000000;-0.204193
9673.000000;-0.206208
9672.000000;-0.208286
9671.000000;-0.210333
9670.000000;-0.212305
9669.000000;-0.214259
9668.000000;-0.216254
9667.000000;-0.218252
9666.000000;-0.220187
9665.000000;-0.222095
9664.000000;-0.224072
9663.000000;-0.226126
9662.000000;-0.228163
9661.000000;-0.230135
9660.000000;-0.232093
9659.000000;-0.234100
9658.000000;-0.236157
9657.000000;-0.238239
9656.000000;-0.240339
9655.000000;-0.242444
9654.000000;-0.244518
9653.000000;-0.246526
9652.000000;-0.248454
9651.000000;-0.250306
9650.000000;-0.252129
9649.000000;-0.254025
9648.000000;-0.256068
9647.000000;-0.258211
9646.000000;-0.260343
9645.000000;-0.262416
9644.000000;-0.264465
9643.000000;-0.266509
9642.000000;-0.268531
9641.000000;-0.270554
9640.000000;-0.272646
9639.000000;-0.274815
9638.000000;-0.276997
9637.000000;-0.279168
9636.000000;-0.281379
9635.000000;-0.283643
9634.000000;-0.285870
9633.000000;-0.287971
9632.000000;-0.289967
9631.000000;-0.291950
9630.000000;-0.293978
9629.000000;-0.296069
9628.000000;-0.298238
9627.000000;-0.300478
9626.000000;-0.302732
9625.000000;-0.304930
9624.000000;-0.307039
9623.000000;-0.309061
9622.000000;-0.311028
9621.000000;-0.313012
9620.000000;-0.315111
9619.000000;-0.317363
9618.000000;-0.319694
9617.000000;-0.321992
9616.000000;-0.324213
9615.000000;-0.326394
9614.000000;-0.328589
9613.000000;-0.330812
9612.000000;-0.333036
9611.000000;-0.335229
9610.000000;-0.337388
9609.000000;-0.339542
9608.000000;-0.341702
9607.000000;-0.343830
9606.000000;-0.345892
9605.000000;-0.347932
9604.000000;-0.350057
9603.000000;-0.352330
9602.000000;-0.354719
9601.000000;-0.357146
9600.000000;-0.359540
9599.000000;-0.361848
9598.000000;-0.364051
9597.000000;-0.366198
9596.000000;-0.368353
9595.000000;-0.370514
9594.000000;-0.372619
9593.000000;-0.374662
9592.000000;-0.376744
9591.000000;-0.378963
9590.000000;-0.381293
9589.000000;-0.383624
9588.000000;-0.385874
9587.000000;-0.388027
9586.000000;-0.390116
9585.000000;-0.392221
9584.000000;-0.394446
9583.000000;-0.396844
9582.000000;-0.399350
9581.000000;-0.401846
9580.000000;-0.404265
9579.000000;-0.406613
9578.000000;-0.408912
9577.000000;-0.411180
9576.000000;-0.413465
9575.000000;-0.415813
9574.000000;-0.418191
9573.000000;-0.420480
9572.000000;-0.422590
9571.000000;-0.424571
9570.000000;-0.426579
9569.000000;-0.428757
9568.000000;-0.431131
9567.000000;-0.433595
9566.000000;-0.435980
9565.000000;-0.438156
9564.000000;-0.440137
9563.000000;-0.442073
9562.000000;-0.444131
9561.000000;-0.446356
9560.000000;-0.448666
9559.000000;-0.450970
9558.000000;-0.453271
9557.000000;-0.455611
9556.000000;-0.457974
9555.000000;-0.460285
9554.000000;-0.462491
9553.000000;-0.464619
9552.000000;-0.466733
9551.000000;-0.468879
9550.000000;-0.471073
9549.000000;-0.473305
9548.000000;-0.475543
9547.000000;-0.477756
9546.000000;-0.479925
9545.000000;-0.482024
9544.000000;-0.484000
9543.000000;-0.485828
9542.000000;-0.487587
9541.000000;-0.489433
9540.000000;-0.491461
9539.000000;-0.493650
9538.000000;-0.495945
9537.000000;-0.498332
9536.000000;-0.500775
9535.000000;-0.503157
9534.000000;-0.505348
9533.000000;-0.507350
9532.000000;-0.509298
9531.000000;-0.511316
9530.000000;-0.513411
9529.000000;-0.515483
9528.000000;-0.517438
9527.000000;-0.519274
9526.000000;-0.521090
9525.000000;-0.523010
9524.000000;-0.525075
9523.000000;-0.527223
9522.000000;-0.529349
9521.000000;-0.531373
9520.000000;-0.533253
9519.000000;-0.535003
9518.000000;-0.536700
9517.000000;-0.538436
9516.000000;-0.540223
9515.000000;-0.541992
9514.000000;-0.543712
9513.000000;-0.545433
9512.000000;-0.547195
9511.000000;-0.548961
9510.000000;-0.550697
9509.000000;-0.552444
9508.000000;-0.554239
9507.000000;-0.556018
9506.000000;-0.557704
9505.000000;-0.559346
9504.000000;-0.561068
9503.000000;-0.562873
9502.000000;-0.564611
9501.000000;-0.566154
9500.000000;-0.567551
9499.000000;-0.568990
9498.000000;-0.570619
9497.000000;-0.572402
9496.000000;-0.574130
9495.000000;-0.575611
9494.000000;-0.576873
9493.000000;-0.578137
9492.000000;-0.579555
9491.000000;-0.581039
9490.000000;-0.582403
9489.000000;-0.583602
9488.000000;-0.584707
9487.000000;-0.585729
9486.000000;-0.586629
9485.000000;-0.587491
9484.000000;-0.588532
9483.000000;-0.589873
9482.000000;-0.591388
9481.000000;-0.592818
9480.000000;-0.593965
9479.000000;-0.594782
9478.000000;-0.595369
9477.000000;-0.595949
9476.000000;-0.596760
9475.000000;-0.597874
9474.000000;-0.599134
9473.000000;-0.600305
9472.000000;-0.601258
9471.000000;-0.602024
9470.000000;-0.602730
9469.000000;-0.603536
9468.000000;-0.604532
9467.000000;-0.605652
9466.000000;-0.606686
9465.000000;-0.607442
9464.000000;-0.607898
9463.000000;-0.608218
9462.000000;-0.608614
9461.000000;-0.609165
9460.000000;-0.609760
9459.000000;-0.610215
9458.000000;-0.610495
9457.000000;-0.610774
9456.000000;-0.611243
9455.000000;-0.611872
9454.000000;-0.612437
9453.000000;-0.612761
9452.000000;-0.612864
9451.000000;-0.612896
9450.000000;-0.612991
9449.000000;-0.613181
9448.000000;-0.613384
9447.000000;-0.613467
9446.000000;-0.613391
9445.000000;-0.613278
9444.000000;-0.613283
9443.000000;-0.613411
9442.000000;-0.613533
9441.000000;-0.613567
9440.000000;-0.613550
9439.000000;-0.613532
9438.000000;-0.613516
9437.000000;-0.613502
9436.000000;-0.613486
9435.000000;-0.613381
9434.000000;-0.613058
9433.000000;-0.612500
9432.000000;-0.611873
9431.000000;-0.611375
9430.000000;-0.611085
9429.000000;-0.610945
9428.000000;-0.610836
9427.000000;-0.610617
9426.000000;-0.610185
9425.000000;-0.609554
9424.000000;-0.608837
9423.000000;-0.608137
9422.000000;-0.607502
9421.000000;-0.606953
9420.000000;-0.606488
9419.000000;-0.606021
9418.000000;-0.605442
9417.000000;-0.604759
9416.000000;-0.604098
9415.000000;-0.603535
9414.000000;-0.603018
9413.000000;-0.602491
9412.000000;-0.601968
9411.000000;-0.601434
9410.000000;-0.600793
9409.000000;-0.599997
9408.000000;-0.599154
9407.000000;-0.598376
9406.000000;-0.597601
9405.000000;-0.596662
9404.000000;-0.595524
9403.000000;-0.594336
9402.000000;-0.593252
9401.000000;-0.592293
9400.000000;-0.591378
9399.000000;-0.590446
9398.000000;-0.589507
9397.000000;-0.588618
9396.000000;-0.587816
9395.000000;-0.587078
9394.000000;-0.586338
9393.000000;-0.585536
9392.000000;-0.584627
9391.000000;-0.583571
9390.000000;-0.582387
9389.000000;-0.581210
9388.000000;-0.580184
9387.000000;-0.579283
9386.000000;-0.578303
9385.000000;-0.577084
9384.000000;-0.575694
9383.000000;-0.574326
9382.000000;-0.573094
9381.000000;-0.571975
9380.000000;-0.570903
9379.000000;-0.569842
9378.000000;-0.568780
9377.000000;-0.567715
9376.000000;-0.566651
9375.000000;-0.565568
9374.000000;-0.564425
9373.000000;-0.563196
9372.000000;-0.561900
9371.000000;-0.560586
9370.000000;-0.559305
9369.000000;-0.558100
9368.000000;-0.556968
9367.000000;-0.555820
9366.000000;-0.554546
9365.000000;-0.553152
9364.000000;-0.551764
9363.000000;-0.550475
9362.000000;-0.549233
9361.000000;-0.547949
9360.000000;-0.546631
9359.000000;-0.545354
9358.000000;-0.544136
9357.000000;-0.542923
9356.000000;-0.541681
9355.000000;-0.540423
9354.000000;-0.539164
9353.000000;-0.537905
9352.000000;-0.536657
9351.000000;-0.535444
9350.000000;-0.534264
9349.000000;-0.533101
9348.000000;-0.531961
9347.000000;-0.530857
9346.000000;-0.529760
9345.000000;-0.528587
9344.000000;-0.527260
9343.000000;-0.525778
9342.000000;-0.524225
9341.000000;-0.522723
9340.000000;-0.521362
9339.000000;-0.520164
9338.000000;-0.519080
9337.000000;-0.518035
9336.000000;-0.516972
9335.000000;-0.515854
9334.000000;-0.514657
9333.000000;-0.513360
9332.000000;-0.511973
9331.000000;-0.510566
9330.000000;-0.509263
9329.000000;-0.508154
9328.000000;-0.507190
9327.000000;-0.506206
9326.000000;-0.505060
9325.000000;-0.503741
9324.000000;-0.502335
9323.000000;-0.500918
9322.000000;-0.499533
9321.000000;-0.498224
9320.000000;-0.497018
9319.000000;-0.495869
9318.000000;-0.494690
9317.000000;-0.493437
9316.000000;-0.492148
9315.000000;-0.490902
9314.000000;-0.489758
9313.000000;-0.488730
9312.000000;-0.487765
9311.000000;-0.486754
9310.000000;-0.485611
9309.000000;-0.484332
9308.000000;-0.482962
9307.000000;-0.481536
9306.000000;-0.480099
9305.000000;-0.478744
9304.000000;-0.477528
9303.000000;-0.476372
9302.000000;-0.475130
9301.000000;-0.473774
9300.000000;-0.472447
9299.000000;-0.471297
9298.000000;-0.470324
9297.000000;-0.469395
9296.000000;-0.468380
9295.000000;-0.467233
9294.000000;-0.466004
9293.000000;-0.464772
9292.000000;-0.463557
9291.000000;-0.462300
9290.000000;-0.460962
9289.000000;-0.459606
9288.000000;-0.458346
9287.000000;-0.457214
9286.000000;-0.456140
9285.000000;-0.455067
9284.000000;-0.453991
9283.000000;-0.452914
9282.000000;-0.451832
9281.000000;-0.450781
9280.000000;-0.449815
9279.000000;-0.448915
9278.000000;-0.447971
9277.000000;-0.446911
9276.000000;-0.445763
9275.000000;-0.444591
9274.000000;-0.443412
9273.000000;-0.442216
9272.000000;-0.441015
9271.000000;-0.439836
9270.000000;-0.438692
9269.000000;-0.437598
9268.000000;-0.436576
9267.000000;-0.435630
9266.000000;-0.434734
9265.000000;-0.433850
9264.000000;-0.432921
9263.000000;-0.431867
9262.000000;-0.430643
9261.000000;-0.429325
9260.000000;-0.428086
9259.000000;-0.427063
9258.000000;-0.426252
9257.000000;-0.425531
9256.000000;-0.424738
9255.000000;-0.423774
9254.000000;-0.422663
9253.000000;-0.421533
9252.000000;-0.420484
9251.000000;-0.419476
9250.000000;-0.418407
9249.000000;-0.417277
9248.000000;-0.416200
9247.000000;-0.415243
9246.000000;-0.414344
9245.000000;-0.413414
9244.000000;-0.412433
9243.000000;-0.411431
9242.000000;-0.410427
9241.000000;-0.409437
9240.000000;-0.408487
9239.000000;-0.407578
9238.000000;-0.406681
9237.000000;-0.405787
9236.000000;-0.404919
9235.000000;-0.404076
9234.000000;-0.403222
9233.000000;-0.402344
9232.000000;-0.401460
9231.000000;-0.400550
9230.000000;-0.399545
9229.000000;-0.398443
9228.000000;-0.397369
9227.000000;-0.396448
9226.000000;-0.395666
9225.000000;-0.394903
9224.000000;-0.394069
9223.000000;-0.393168
9222.000000;-0.392245
9221.000000;-0.391331
9220.000000;-0.390449
9219.000000;-0.389619
9218.000000;-0.388845
9217.000000;-0.388118
9216.000000;-0.387417
9215.000000;-0.386703
9214.000000;-0.385922
9213.000000;-0.385041
9212.000000;-0.384087
9211.000000;-0.383147
9210.000000;-0.382310
9209.000000;-0.381591
9208.000000;-0.380902
9207.000000;-0.380120
9206.000000;-0.379222
9205.000000;-0.378328
9204.000000;-0.377569
9203.000000;-0.376929
9202.000000;-0.376244
9201.000000;-0.375378
9200.000000;-0.374349
9199.000000;-0.373285
9198.000000;-0.372316
9197.000000;-0.371500
9196.000000;-0.370809
9195.000000;-0.370149
9194.000000;-0.369440
9193.000000;-0.368682
9192.000000;-0.367937
9191.000000;-0.367239
9190.000000;-0.366555
9189.000000;-0.365830
9188.000000;-0.365048
9187.000000;-0.364217
9186.000000;-0.363350
9185.000000;-0.362477
9184.000000;-0.361644
9183.000000;-0.360898
9182.000000;-0.360250
9181.000000;-0.359664
9180.000000;-0.359060
9179.000000;-0.358358
9178.000000;-0.357560
9177.000000;-0.356764
9176.000000;-0.356068
9175.000000;-0.355463
9174.000000;-0.354873
9173.000000;-0.354257
9172.000000;-0.353633
9171.000000;-0.353001
9170.000000;-0.352324
9169.000000;-0.351590
9168.000000;-0.350836
9167.000000;-0.350106
9166.000000;-0.349415
9165.000000;-0.348762
9164.000000;-0.348129
9163.000000;-0.347478
9162.000000;-0.346785
9161.000000;-0.346092
9160.000000;-0.345457
9159.000000;-0.344862
9158.000000;-0.344235
9157.000000;-0.343564
9156.000000;-0.342925
9155.000000;-0.342360
9154.000000;-0.341816
9153.000000;-0.341220
9152.000000;-0.340574
9151.000000;-0.339907
9150.000000;-0.339219
9149.000000;-0.338507
9148.000000;-0.337818
9147.000000;-0.337207
9146.000000;-0.336666
9145.000000;-0.336132
9144.000000;-0.335559
9143.000000;-0.334943
9142.000000;-0.334295
9141.000000;-0.333626
9140.000000;-0.332962
9139.000000;-0.332335
9138.000000;-0.331751
9137.000000;-0.331181
9136.000000;-0.330613
9135.000000;-0.330079
9134.000000;-0.329623
9133.000000;-0.329229
9132.000000;-0.328815
9131.000000;-0.328309
9130.000000;-0.327727
9129.000000;-0.327135
9128.000000;-0.326559
9127.000000;-0.325964
9126.000000;-0.325352
9125.000000;-0.324794
9124.000000;-0.324330
9123.000000;-0.323891
9122.000000;-0.323392
9121.000000;-0.322855
9120.000000;-0.322369
9119.000000;-0.321960
9118.000000;-0.321558
9117.000000;-0.321092
9116.000000;-0.320548
9115.000000;-0.319938
9114.000000;-0.319280
9113.000000;-0.318625
9112.000000;-0.318035
9111.000000;-0.317517
9110.000000;-0.317033
9109.000000;-0.316565
9108.000000;-0.316131
9107.000000;-0.315719
9106.000000;-0.315270
9105.000000;-0.314749
9104.000000;-0.314184
9103.000000;-0.313637
9102.000000;-0.313151
9101.000000;-0.312745
9100.000000;-0.312394
9099.000000;-0.312032
9098.000000;-0.311593
9097.000000;-0.311079
9096.000000;-0.310557
9095.000000;-0.310077
9094.000000;-0.309643
9093.000000;-0.309248
9092.000000;-0.308885
9091.000000;-0.308518
9090.000000;-0.308096
9089.000000;-0.307621
9088.000000;-0.307152
9087.000000;-0.306740
9086.000000;-0.306369
