Criado como novo conjunto de dados;"0307_DANIEL.spp","39424.1 Secs"
cm-1;Abs
10000.000000;1.057228
9999.000000;1.055172
9998.000000;1.053126
9997.000000;1.051089
9996.000000;1.049063
9995.000000;1.047043
9994.000000;1.045039
9993.000000;1.043031
9992.000000;1.041057
9991.000000;1.039047
9990.000000;1.037137
9989.000000;1.034880
9988.000000;1.032427
9987.000000;1.030501
9986.000000;1.029160
9985.000000;1.028234
9984.000000;1.027415
9983.000000;1.026485
9982.000000;1.025282
9981.000000;1.023793
9980.000000;1.022219
9979.000000;1.020847
9978.000000;1.019818
9977.000000;1.019042
9976.000000;1.018353
9975.000000;1.017700
9974.000000;1.017116
9973.000000;1.016531
9972.000000;1.015699
9971.000000;1.014403
9970.000000;1.012708
9969.000000;1.010918
9968.000000;1.009264
9967.000000;1.007751
9966.000000;1.006339
9965.000000;1.005138
9964.000000;1.004272
9963.000000;1.003627
9962.000000;1.002876
9961.000000;1.001784
9960.000000;1.000399
9959.000000;0.998967
9958.000000;0.997710
9957.000000;0.996632
9956.000000;0.995453
9955.000000;0.993827
9954.000000;0.991793
9953.000000;0.989910
9952.000000;0.988703
9951.000000;0.988005
9950.000000;0.987116
9949.000000;0.985631
9948.000000;0.983830
9947.000000;0.982162
9946.000000;0.980687
9945.000000;0.979253
9944.000000;0.977917
9943.000000;0.976834
9942.000000;0.975882
9941.000000;0.974747
9940.000000;0.973364
9939.000000;0.971961
9938.000000;0.970683
9937.000000;0.969475
9936.000000;0.968368
9935.000000;0.967557
9934.000000;0.967032
9933.000000;0.966352
9932.000000;0.965047
9931.000000;0.963168
9930.000000;0.961257
9929.000000;0.959791
9928.000000;0.958784
9927.000000;0.957918
9926.000000;0.956920
9925.000000;0.955736
9924.000000;0.954398
9923.000000;0.952851
9922.000000;0.951040
9921.000000;0.949142
9920.000000;0.947516
9919.000000;0.946340
9918.000000;0.945437
9917.000000;0.944582
9916.000000;0.943856
9915.000000;0.943394
9914.000000;0.942860
9913.000000;0.941570
9912.000000;0.939293
9911.000000;0.936625
9910.000000;0.934344
9909.000000;0.932646
9908.000000;0.931240
9907.000000;0.929970
9906.000000;0.928963
9905.000000;0.928235
9904.000000;0.927538
9903.000000;0.926679
9902.000000;0.925706
9901.000000;0.924640
9900.000000;0.923267
9899.000000;0.921428
9898.000000;0.919367
9897.000000;0.917558
9896.000000;0.916209
9895.000000;0.915091
9894.000000;0.913854
9893.000000;0.912385
9892.000000;0.910835
9891.000000;0.909375
9890.000000;0.908014
9889.000000;0.906641
9888.000000;0.905210
9887.000000;0.903816
9886.000000;0.902511
9885.000000;0.901093
9884.000000;0.899248
9883.000000;0.897011
9882.000000;0.894956
9881.000000;0.893713
9880.000000;0.893318
9879.000000;0.893163
9878.000000;0.892586
9877.000000;0.891387
9876.000000;0.889741
9875.000000;0.887852
9874.000000;0.885888
9873.000000;0.884119
9872.000000;0.882840
9871.000000;0.882066
9870.000000;0.881439
9869.000000;0.880548
9868.000000;0.879275
9867.000000;0.877767
9866.000000;0.876128
9865.000000;0.874277
9864.000000;0.872123
9863.000000;0.869797
9862.000000;0.867637
9861.000000;0.865957
9860.000000;0.864848
9859.000000;0.864110
9858.000000;0.863335
9857.000000;0.862115
9856.000000;0.860328
9855.000000;0.858270
9854.000000;0.856425
9853.000000;0.855033
9852.000000;0.853919
9851.000000;0.852774
9850.000000;0.851517
9849.000000;0.850266
9848.000000;0.849028
9847.000000;0.847591
9846.000000;0.845803
9845.000000;0.843786
9844.000000;0.841780
9843.000000;0.839895
9842.000000;0.838146
9841.000000;0.836653
9840.000000;0.835592
9839.000000;0.834938
9838.000000;0.834371
9837.000000;0.833491
9836.000000;0.832077
9835.000000;0.830184
9834.000000;0.828098
9833.000000;0.826214
9832.000000;0.824807
9831.000000;0.823814
9830.000000;0.822851
9829.000000;0.821523
9828.000000;0.819695
9827.000000;0.817508
9826.000000;0.815249
9825.000000;0.813260
9824.000000;0.811798
9823.000000;0.810852
9822.000000;0.810122
9821.000000;0.809285
9820.000000;0.808242
9819.000000;0.807017
9818.000000;0.805484
9817.000000;0.803424
9816.000000;0.800903
9815.000000;0.798421
9814.000000;0.796523
9813.000000;0.795284
9812.000000;0.794256
9811.000000;0.792922
9810.000000;0.791162
9809.000000;0.789260
9808.000000;0.787525
9807.000000;0.785985
9806.000000;0.784460
9805.000000;0.782830
9804.000000;0.781153
9803.000000;0.779543
9802.000000;0.778044
9801.000000;0.776642
9800.000000;0.775272
9799.000000;0.773800
9798.000000;0.772115
9797.000000;0.770306
9796.000000;0.768664
9795.000000;0.767376
9794.000000;0.766266
9793.000000;0.764957
9792.000000;0.763233
9791.000000;0.761165
9790.000000;0.758957
9789.000000;0.756820
9788.000000;0.754933
9787.000000;0.753328
9786.000000;0.751806
9785.000000;0.750113
9784.000000;0.748238
9783.000000;0.746394
9782.000000;0.744681
9781.000000;0.742989
9780.000000;0.741266
9779.000000;0.739677
9778.000000;0.738337
9777.000000;0.737047
9776.000000;0.735450
9775.000000;0.733405
9774.000000;0.731076
9773.000000;0.728759
9772.000000;0.726728
9771.000000;0.725130
9770.000000;0.723880
9769.000000;0.722678
9768.000000;0.721279
9767.000000;0.719721
9766.000000;0.718156
9765.000000;0.716536
9764.000000;0.714657
9763.000000;0.712514
9762.000000;0.710413
9761.000000;0.708654
9760.000000;0.707218
9759.000000;0.705814
9758.000000;0.704164
9757.000000;0.702220
9756.000000;0.700192
9755.000000;0.698392
9754.000000;0.696945
9753.000000;0.695607
9752.000000;0.693975
9751.000000;0.691923
9750.000000;0.689736
9749.000000;0.687785
9748.000000;0.686179
9747.000000;0.684772
9746.000000;0.683390
9745.000000;0.681922
9744.000000;0.680279
9743.000000;0.678392
9742.000000;0.676298
9741.000000;0.674160
9740.000000;0.672184
9739.000000;0.670479
9738.000000;0.668969
9737.000000;0.667450
9736.000000;0.665802
9735.000000;0.664156
9734.000000;0.662713
9733.000000;0.661383
9732.000000;0.659776
9731.000000;0.657664
9730.000000;0.655302
9729.000000;0.653119
9728.000000;0.651184
9727.000000;0.649216
9726.000000;0.647087
9725.000000;0.645031
9724.000000;0.643259
9723.000000;0.641623
9722.000000;0.639857
9721.000000;0.638010
9720.000000;0.636396
9719.000000;0.635125
9718.000000;0.633913
9717.000000;0.632396
9716.000000;0.630450
9715.000000;0.628143
9714.000000;0.625563
9713.000000;0.622893
9712.000000;0.620509
9711.000000;0.618744
9710.000000;0.617486
9709.000000;0.616210
9708.000000;0.614479
9707.000000;0.612328
9706.000000;0.610070
9705.000000;0.607877
9704.000000;0.605695
9703.000000;0.603478
9702.000000;0.601303
9701.000000;0.599249
9700.000000;0.597305
9699.000000;0.595445
9698.000000;0.593668
9697.000000;0.591915
9696.000000;0.590033
9695.000000;0.587951
9694.000000;0.585805
9693.000000;0.583816
9692.000000;0.582065
9691.000000;0.580473
9690.000000;0.578974
9689.000000;0.577565
9688.000000;0.576164
9687.000000;0.574528
9686.000000;0.572438
9685.000000;0.569964
9684.000000;0.567425
9683.000000;0.565064
9682.000000;0.562849
9681.000000;0.560641
9680.000000;0.558480
9679.000000;0.556547
9678.000000;0.554874
9677.000000;0.553247
9676.000000;0.551446
9675.000000;0.549439
9674.000000;0.547268
9673.000000;0.544871
9672.000000;0.542228
9671.000000;0.539594
9670.000000;0.537378
9669.000000;0.535724
9668.000000;0.534343
9667.000000;0.532800
9666.000000;0.530894
9665.000000;0.528722
9664.000000;0.526484
9663.000000;0.524307
9662.000000;0.522180
9661.000000;0.519981
9660.000000;0.517595
9659.000000;0.515043
9658.000000;0.512485
9657.000000;0.510104
9656.000000;0.507998
9655.000000;0.506150
9654.000000;0.504386
9653.000000;0.502407
9652.000000;0.500026
9651.000000;0.497427
9650.000000;0.495055
9649.000000;0.493163
9648.000000;0.491577
9647.000000;0.489953
9646.000000;0.488144
9645.000000;0.486200
9644.000000;0.484134
9643.000000;0.481885
9642.000000;0.479451
9641.000000;0.476912
9640.000000;0.474317
9639.000000;0.471698
9638.000000;0.469173
9637.000000;0.466894
9636.000000;0.464836
9635.000000;0.462761
9634.000000;0.460488
9633.000000;0.458112
9632.000000;0.455905
9631.000000;0.454017
9630.000000;0.452323
9629.000000;0.450534
9628.000000;0.448422
9627.000000;0.445964
9626.000000;0.443326
9625.000000;0.440752
9624.000000;0.438438
9623.000000;0.436426
9622.000000;0.434574
9621.000000;0.432633
9620.000000;0.430465
9619.000000;0.428161
9618.000000;0.425901
9617.000000;0.423701
9616.000000;0.421432
9615.000000;0.419083
9614.000000;0.416847
9613.000000;0.414824
9612.000000;0.412779
9611.000000;0.410377
9610.000000;0.407612
9609.000000;0.404850
9608.000000;0.402465
9607.000000;0.400553
9606.000000;0.398944
9605.000000;0.397340
9604.000000;0.395402
9603.000000;0.392900
9602.000000;0.389893
9601.000000;0.386735
9600.000000;0.383794
9599.000000;0.381187
9598.000000;0.378793
9597.000000;0.376489
9596.000000;0.374343
9595.000000;0.372526
9594.000000;0.371021
9593.000000;0.369442
9592.000000;0.367284
9591.000000;0.364410
9590.000000;0.361210
9589.000000;0.358188
9588.000000;0.355488
9587.000000;0.352970
9586.000000;0.350623
9585.000000;0.348647
9584.000000;0.347073
9583.000000;0.345533
9582.000000;0.343557
9581.000000;0.341010
9580.000000;0.338137
9579.000000;0.335244
9578.000000;0.332483
9577.000000;0.329872
9576.000000;0.327402
9575.000000;0.325082
9574.000000;0.322941
9573.000000;0.320978
9572.000000;0.319115
9571.000000;0.317174
9570.000000;0.314979
9569.000000;0.312496
9568.000000;0.309897
9567.000000;0.307435
9566.000000;0.305195
9565.000000;0.302960
9564.000000;0.300414
9563.000000;0.297514
9562.000000;0.294587
9561.000000;0.291979
9560.000000;0.289686
9559.000000;0.287459
9558.000000;0.285206
9557.000000;0.283100
9556.000000;0.281267
9555.000000;0.279539
9554.000000;0.277600
9553.000000;0.275292
9552.000000;0.272723
9551.000000;0.270138
9550.000000;0.267759
9549.000000;0.265663
9548.000000;0.263764
9547.000000;0.261914
9546.000000;0.260052
9545.000000;0.258190
9544.000000;0.256280
9543.000000;0.254187
9542.000000;0.251846
9541.000000;0.249346
9540.000000;0.246824
9539.000000;0.244351
9538.000000;0.241917
9537.000000;0.239470
9536.000000;0.236940
9535.000000;0.234344
9534.000000;0.231910
9533.000000;0.229940
9532.000000;0.228432
9531.000000;0.226947
9530.000000;0.224968
9529.000000;0.222395
9528.000000;0.219610
9527.000000;0.217067
9526.000000;0.214907
9525.000000;0.212926
9524.000000;0.210862
9523.000000;0.208699
9522.000000;0.206708
9521.000000;0.205159
9520.000000;0.203981
9519.000000;0.202758
9518.000000;0.201100
9517.000000;0.198995
9516.000000;0.196763
9515.000000;0.194718
9514.000000;0.192907
9513.000000;0.191156
9512.000000;0.189289
9511.000000;0.187307
9510.000000;0.185340
9509.000000;0.183405
9508.000000;0.181287
9507.000000;0.178797
9506.000000;0.176130
9505.000000;0.173799
9504.000000;0.172125
9503.000000;0.170896
9502.000000;0.169637
9501.000000;0.168130
9500.000000;0.166548
9499.000000;0.165113
9498.000000;0.163775
9497.000000;0.162284
9496.000000;0.160477
9495.000000;0.158449
9494.000000;0.156463
9493.000000;0.154722
9492.000000;0.153261
9491.000000;0.152005
9490.000000;0.150862
9489.000000;0.149730
9488.000000;0.148481
9487.000000;0.147049
9486.000000;0.145499
9485.000000;0.143942
9484.000000;0.142423
9483.000000;0.140976
9482.000000;0.139737
9481.000000;0.138841
9480.000000;0.138219
9479.000000;0.137654
9478.000000;0.137054
9477.000000;0.136486
9476.000000;0.135920
9475.000000;0.135124
9474.000000;0.133933
9473.000000;0.132455
9472.000000;0.130891
9471.000000;0.129315
9470.000000;0.127778
9469.000000;0.126443
9468.000000;0.125433
9467.000000;0.124610
9466.000000;0.123744
9465.000000;0.122850
9464.000000;0.122187
9463.000000;0.121887
9462.000000;0.121783
9461.000000;0.121612
9460.000000;0.121273
9459.000000;0.120824
9458.000000;0.120324
9457.000000;0.119759
9456.000000;0.119078
9455.000000;0.118263
9454.000000;0.117395
9453.000000;0.116651
9452.000000;0.116181
9451.000000;0.115977
9450.000000;0.115884
9449.000000;0.115747
9448.000000;0.115533
9447.000000;0.115342
9446.000000;0.115329
9445.000000;0.115581
9444.000000;0.116015
9443.000000;0.116396
9442.000000;0.116490
9441.000000;0.116223
9440.000000;0.115721
9439.000000;0.115232
9438.000000;0.114978
9437.000000;0.114979
9436.000000;0.115025
9435.000000;0.114910
9434.000000;0.114713
9433.000000;0.114727
9432.000000;0.115072
9431.000000;0.115538
9430.000000;0.115901
9429.000000;0.116245
9428.000000;0.116812
9427.000000;0.117608
9426.000000;0.118326
9425.000000;0.118675
9424.000000;0.118666
9423.000000;0.118582
9422.000000;0.118749
9421.000000;0.119316
9420.000000;0.120156
9419.000000;0.120955
9418.000000;0.121478
9417.000000;0.121740
9416.000000;0.121910
9415.000000;0.122120
9414.000000;0.122428
9413.000000;0.122892
9412.000000;0.123529
9411.000000;0.124259
9410.000000;0.124966
9409.000000;0.125590
9408.000000;0.126094
9407.000000;0.126413
9406.000000;0.126617
9405.000000;0.127050
9404.000000;0.128079
9403.000000;0.129650
9402.000000;0.131246
9401.000000;0.132398
9400.000000;0.133127
9399.000000;0.133798
9398.000000;0.134675
9397.000000;0.135727
9396.000000;0.136790
9395.000000;0.137751
9394.000000;0.138554
9393.000000;0.139172
9392.000000;0.139663
9391.000000;0.140226
9390.000000;0.141081
9389.000000;0.142262
9388.000000;0.143559
9387.000000;0.144711
9386.000000;0.145645
9385.000000;0.146478
9384.000000;0.147324
9383.000000;0.148190
9382.000000;0.149093
9381.000000;0.150143
9380.000000;0.151417
9379.000000;0.152818
9378.000000;0.154143
9377.000000;0.155255
9376.000000;0.156140
9375.000000;0.156868
9374.000000;0.157604
9373.000000;0.158578
9372.000000;0.159875
9371.000000;0.161266
9370.000000;0.162381
9369.000000;0.163093
9368.000000;0.163626
9367.000000;0.164316
9366.000000;0.165363
9365.000000;0.166829
9364.000000;0.168682
9363.000000;0.170725
9362.000000;0.172591
9361.000000;0.173948
9360.000000;0.174734
9359.000000;0.175176
9358.000000;0.175591
9357.000000;0.176213
9356.000000;0.177154
9355.000000;0.178430
9354.000000;0.180015
9353.000000;0.181826
9352.000000;0.183680
9351.000000;0.185320
9350.000000;0.186598
9349.000000;0.187601
9348.000000;0.188533
9347.000000;0.189479
9346.000000;0.190420
9345.000000;0.191439
9344.000000;0.192727
9343.000000;0.194299
9342.000000;0.195860
9341.000000;0.197072
9340.000000;0.197895
9339.000000;0.198550
9338.000000;0.199234
9337.000000;0.200015
9336.000000;0.200949
9335.000000;0.202121
9334.000000;0.203532
9333.000000;0.205048
9332.000000;0.206521
9331.000000;0.207909
9330.000000;0.209261
9329.000000;0.210622
9328.000000;0.211966
9327.000000;0.213217
9326.000000;0.214312
9325.000000;0.215290
9324.000000;0.216286
9323.000000;0.217397
9322.000000;0.218572
9321.000000;0.219673
9320.000000;0.220615
9319.000000;0.221420
9318.000000;0.222160
9317.000000;0.222935
9316.000000;0.223881
9315.000000;0.225077
9314.000000;0.226428
9313.000000;0.227675
9312.000000;0.228607
9311.000000;0.229258
9310.000000;0.229919
9309.000000;0.230941
9308.000000;0.232445
9307.000000;0.234154
9306.000000;0.235574
9305.000000;0.236466
9304.000000;0.237123
9303.000000;0.238070
9302.000000;0.239479
9301.000000;0.241031
9300.000000;0.242366
9299.000000;0.243510
9298.000000;0.244744
9297.000000;0.246193
9296.000000;0.247694
9295.000000;0.249019
9294.000000;0.250063
9293.000000;0.250846
9292.000000;0.251477
9291.000000;0.252134
9290.000000;0.252969
9289.000000;0.253990
9288.000000;0.255088
9287.000000;0.256189
9286.000000;0.257284
9285.000000;0.258347
9284.000000;0.259344
9283.000000;0.260342
9282.000000;0.261487
9281.000000;0.262802
9280.000000;0.264095
9279.000000;0.265130
9278.000000;0.265870
9277.000000;0.266508
9276.000000;0.267315
9275.000000;0.268461
9274.000000;0.269882
9273.000000;0.271292
9272.000000;0.272414
9271.000000;0.273259
9270.000000;0.274107
9269.000000;0.275142
9268.000000;0.276231
9267.000000;0.277142
9266.000000;0.277874
9265.000000;0.278622
9264.000000;0.279474
9263.000000;0.280327
9262.000000;0.281098
9261.000000;0.281865
9260.000000;0.282745
9259.000000;0.283759
9258.000000;0.284890
9257.000000;0.286158
9256.000000;0.287561
9255.000000;0.288959
9254.000000;0.290115
9253.000000;0.290851
9252.000000;0.291211
9251.000000;0.291483
9250.000000;0.292024
9249.000000;0.292961
9248.000000;0.294068
9247.000000;0.295012
9246.000000;0.295730
9245.000000;0.296464
9244.000000;0.297419
9243.000000;0.298526
9242.000000;0.299611
9241.000000;0.300654
9240.000000;0.301746
9239.000000;0.302847
9238.000000;0.303762
9237.000000;0.304382
9236.000000;0.304861
9235.000000;0.305477
9234.000000;0.306332
9233.000000;0.307246
9232.000000;0.307973
9231.000000;0.308518
9230.000000;0.309149
9229.000000;0.310059
9228.000000;0.311107
9227.000000;0.312011
9226.000000;0.312731
9225.000000;0.313508
9224.000000;0.314501
9223.000000;0.315564
9222.000000;0.316478
9221.000000;0.317236
9220.000000;0.317976
9219.000000;0.318724
9218.000000;0.319392
9217.000000;0.319953
9216.000000;0.320475
9215.000000;0.321013
9214.000000;0.321597
9213.000000;0.322320
9212.000000;0.323280
9211.000000;0.324399
9210.000000;0.325420
9209.000000;0.326148
9208.000000;0.326610
9207.000000;0.326959
9206.000000;0.327312
9205.000000;0.327746
9204.000000;0.328356
9203.000000;0.329199
9202.000000;0.330196
9201.000000;0.331171
9200.000000;0.331988
9199.000000;0.332636
9198.000000;0.333189
9197.000000;0.333711
9196.000000;0.334237
9195.000000;0.334830
9194.000000;0.335586
9193.000000;0.336531
9192.000000;0.337534
9191.000000;0.338404
9190.000000;0.339102
9189.000000;0.339782
9188.000000;0.340592
9187.000000;0.341502
9186.000000;0.342390
9185.000000;0.343212
9184.000000;0.343983
9183.000000;0.344657
9182.000000;0.345164
9181.000000;0.345544
9180.000000;0.345936
9179.000000;0.346409
9178.000000;0.346922
9177.000000;0.347448
9176.000000;0.348010
9175.000000;0.348582
9174.000000;0.349079
9173.000000;0.349517
9172.000000;0.350057
9171.000000;0.350800
9170.000000;0.351615
9169.000000;0.352292
9168.000000;0.352793
9167.000000;0.353263
9166.000000;0.353794
9165.000000;0.354305
9164.000000;0.354687
9163.000000;0.354993
9162.000000;0.355405
9161.000000;0.356025
9160.000000;0.356757
9159.000000;0.357410
9158.000000;0.357928
9157.000000;0.358437
9156.000000;0.359062
9155.000000;0.359760
9154.000000;0.360416
9153.000000;0.361021
9152.000000;0.361643
9151.000000;0.362252
9150.000000;0.362732
9149.000000;0.363111
9148.000000;0.363612
9147.000000;0.364361
9146.000000;0.365165
9145.000000;0.365738
9144.000000;0.366074
9143.000000;0.366444
9142.000000;0.367043
9141.000000;0.367761
9140.000000;0.368337
9139.000000;0.368617
9138.000000;0.368643
9137.000000;0.368591
9136.000000;0.368680
9135.000000;0.369069
9134.000000;0.369775
9133.000000;0.370694
9132.000000;0.371709
9131.000000;0.372711
9130.000000;0.373533
9129.000000;0.373995
9128.000000;0.374095
9127.000000;0.374089
9126.000000;0.374247
9125.000000;0.374584
9124.000000;0.374927
9123.000000;0.375226
9122.000000;0.375653
9121.000000;0.376345
9120.000000;0.377174
9119.000000;0.377880
9118.000000;0.378380
9117.000000;0.378831
9116.000000;0.379380
9115.000000;0.379977
9114.000000;0.380494
9113.000000;0.380922
9112.000000;0.381376
9111.000000;0.381916
9110.000000;0.382481
9109.000000;0.382993
9108.000000;0.383451
9107.000000;0.383879
9106.000000;0.384245
9105.000000;0.384492
9104.000000;0.384632
9103.000000;0.384763
9102.000000;0.384968
9101.000000;0.385259
9100.000000;0.385623
9099.000000;0.386075
9098.000000;0.386629
9097.000000;0.387224
9096.000000;0.387746
9095.000000;0.388138
9094.000000;0.388457
9093.000000;0.388777
9092.000000;0.389088
9091.000000;0.389333
9090.000000;0.389533
9089.000000;0.389781
9088.000000;0.390119
9087.000000;0.390487
9086.000000;0.390837
9085.000000;0.391208
9084.000000;0.391634
9083.000000;0.392042
9082.000000;0.392331
9081.000000;0.392507
9080.000000;0.392649
9079.000000;0.392778
9078.000000;0.392879
9077.000000;0.393026
9076.000000;0.393352
9075.000000;0.393849
9074.000000;0.394329
9073.000000;0.394669
9072.000000;0.394981
9071.000000;0.395448
9070.000000;0.396056
9069.000000;0.396620
9068.000000;0.397019
9067.000000;0.397274
9066.000000;0.397406
9065.000000;0.397385
9064.000000;0.397276
9063.000000;0.397280
9062.000000;0.397532
9061.000000;0.397911
9060.000000;0.398194
9059.000000;0.398349
9058.000000;0.398543
9057.000000;0.398870
9056.000000;0.399198
9055.000000;0.399356
9054.000000;0.399389
9053.000000;0.399520
