Criado como novo conjunto de dados;"0307_DANIEL.spp","54904.9 Secs"
cm-1;Abs
10000.000000;0.456876
9999.000000;0.456084
9998.000000;0.455294
9997.000000;0.454505
9996.000000;0.453718
9995.000000;0.452932
9994.000000;0.452148
9993.000000;0.451364
9992.000000;0.450584
9991.000000;0.449801
9990.000000;0.449029
9989.000000;0.448194
9988.000000;0.447146
9987.000000;0.445868
9986.000000;0.444477
9985.000000;0.443099
9984.000000;0.441781
9983.000000;0.440530
9982.000000;0.439373
9981.000000;0.438355
9980.000000;0.437463
9979.000000;0.436589
9978.000000;0.435569
9977.000000;0.434284
9976.000000;0.432728
9975.000000;0.431042
9974.000000;0.429465
9973.000000;0.428216
9972.000000;0.427334
9971.000000;0.426636
9970.000000;0.425862
9969.000000;0.424872
9968.000000;0.423690
9967.000000;0.422412
9966.000000;0.421126
9965.000000;0.419932
9964.000000;0.418897
9963.000000;0.417966
9962.000000;0.416966
9961.000000;0.415791
9960.000000;0.414516
9959.000000;0.413289
9958.000000;0.412138
9957.000000;0.410970
9956.000000;0.409728
9955.000000;0.408459
9954.000000;0.407235
9953.000000;0.406084
9952.000000;0.405003
9951.000000;0.403980
9950.000000;0.402960
9949.000000;0.401846
9948.000000;0.400573
9947.000000;0.399173
9946.000000;0.397749
9945.000000;0.396392
9944.000000;0.395138
9943.000000;0.393967
9942.000000;0.392826
9941.000000;0.391658
9940.000000;0.390417
9939.000000;0.389099
9938.000000;0.387791
9937.000000;0.386653
9936.000000;0.385773
9935.000000;0.385028
9934.000000;0.384133
9933.000000;0.382892
9932.000000;0.381372
9931.000000;0.379807
9930.000000;0.378396
9929.000000;0.377212
9928.000000;0.376220
9927.000000;0.375284
9926.000000;0.374200
9925.000000;0.372856
9924.000000;0.371352
9923.000000;0.369884
9922.000000;0.368529
9921.000000;0.367227
9920.000000;0.365954
9919.000000;0.364794
9918.000000;0.363807
9917.000000;0.362922
9916.000000;0.361997
9915.000000;0.360910
9914.000000;0.359580
9913.000000;0.357987
9912.000000;0.356249
9911.000000;0.354596
9910.000000;0.353197
9909.000000;0.352039
9908.000000;0.351014
9907.000000;0.350041
9906.000000;0.349063
9905.000000;0.347982
9904.000000;0.346727
9903.000000;0.345341
9902.000000;0.343943
9901.000000;0.342599
9900.000000;0.341294
9899.000000;0.340014
9898.000000;0.338767
9897.000000;0.337529
9896.000000;0.336238
9895.000000;0.334857
9894.000000;0.333413
9893.000000;0.331949
9892.000000;0.330481
9891.000000;0.329032
9890.000000;0.327666
9889.000000;0.326435
9888.000000;0.325316
9887.000000;0.324215
9886.000000;0.323055
9885.000000;0.321832
9884.000000;0.320588
9883.000000;0.319349
9882.000000;0.318097
9881.000000;0.316805
9880.000000;0.315470
9879.000000;0.314116
9878.000000;0.312770
9877.000000;0.311449
9876.000000;0.310149
9875.000000;0.308822
9874.000000;0.307410
9873.000000;0.305931
9872.000000;0.304520
9871.000000;0.303309
9870.000000;0.302269
9869.000000;0.301205
9868.000000;0.299937
9867.000000;0.298454
9866.000000;0.296877
9865.000000;0.295334
9864.000000;0.293897
9863.000000;0.292583
9862.000000;0.291354
9861.000000;0.290144
9860.000000;0.288909
9859.000000;0.287651
9858.000000;0.286362
9857.000000;0.285008
9856.000000;0.283574
9855.000000;0.282100
9854.000000;0.280619
9853.000000;0.279104
9852.000000;0.277532
9851.000000;0.275975
9850.000000;0.274547
9849.000000;0.273272
9848.000000;0.272060
9847.000000;0.270822
9846.000000;0.269548
9845.000000;0.268248
9844.000000;0.266882
9843.000000;0.265379
9842.000000;0.263713
9841.000000;0.261929
9840.000000;0.260135
9839.000000;0.258475
9838.000000;0.257063
9837.000000;0.255896
9836.000000;0.254832
9835.000000;0.253680
9834.000000;0.252307
9833.000000;0.250711
9832.000000;0.249020
9831.000000;0.247438
9830.000000;0.246119
9829.000000;0.245037
9828.000000;0.243986
9827.000000;0.242735
9826.000000;0.241196
9825.000000;0.239445
9824.000000;0.237632
9823.000000;0.235909
9822.000000;0.234398
9821.000000;0.233132
9820.000000;0.231988
9819.000000;0.230741
9818.000000;0.229245
9817.000000;0.227559
9816.000000;0.225884
9815.000000;0.224373
9814.000000;0.223008
9813.000000;0.221658
9812.000000;0.220228
9811.000000;0.218726
9810.000000;0.217183
9809.000000;0.215554
9808.000000;0.213762
9807.000000;0.211865
9806.000000;0.210102
9805.000000;0.208691
9804.000000;0.207576
9803.000000;0.206447
9802.000000;0.205037
9801.000000;0.203379
9800.000000;0.201723
9799.000000;0.200256
9798.000000;0.198954
9797.000000;0.197685
9796.000000;0.196363
9795.000000;0.194975
9794.000000;0.193515
9793.000000;0.191977
9792.000000;0.190377
9791.000000;0.188748
9790.000000;0.187094
9789.000000;0.185400
9788.000000;0.183674
9787.000000;0.181961
9786.000000;0.180293
9785.000000;0.178661
9784.000000;0.177043
9783.000000;0.175432
9782.000000;0.173819
9781.000000;0.172190
9780.000000;0.170555
9779.000000;0.168974
9778.000000;0.167491
9777.000000;0.166065
9776.000000;0.164589
9775.000000;0.162983
9774.000000;0.161255
9773.000000;0.159485
9772.000000;0.157759
9771.000000;0.156132
9770.000000;0.154605
9769.000000;0.153124
9768.000000;0.151618
9767.000000;0.150052
9766.000000;0.148426
9765.000000;0.146750
9764.000000;0.145039
9763.000000;0.143346
9762.000000;0.141733
9761.000000;0.140186
9760.000000;0.138590
9759.000000;0.136833
9758.000000;0.134930
9757.000000;0.133016
9756.000000;0.131224
9755.000000;0.129592
9754.000000;0.128066
9753.000000;0.126530
9752.000000;0.124858
9751.000000;0.123003
9750.000000;0.121065
9749.000000;0.119231
9748.000000;0.117611
9747.000000;0.116145
9746.000000;0.114678
9745.000000;0.113102
9744.000000;0.111399
9743.000000;0.109608
9742.000000;0.107794
9741.000000;0.106029
9740.000000;0.104344
9739.000000;0.102683
9738.000000;0.100946
9737.000000;0.099102
9736.000000;0.097237
9735.000000;0.095475
9734.000000;0.093869
9733.000000;0.092378
9732.000000;0.090910
9731.000000;0.089376
9730.000000;0.087721
9729.000000;0.085952
9728.000000;0.084132
9727.000000;0.082321
9726.000000;0.080521
9725.000000;0.078698
9724.000000;0.076871
9723.000000;0.075127
9722.000000;0.073527
9721.000000;0.071989
9720.000000;0.070328
9719.000000;0.068435
9718.000000;0.066381
9717.000000;0.064327
9716.000000;0.062351
9715.000000;0.060423
9714.000000;0.058515
9713.000000;0.056679
9712.000000;0.054973
9711.000000;0.053354
9710.000000;0.051708
9709.000000;0.049961
9708.000000;0.048140
9707.000000;0.046306
9706.000000;0.044462
9705.000000;0.042549
9704.000000;0.040527
9703.000000;0.038448
9702.000000;0.036425
9701.000000;0.034526
9700.000000;0.032710
9699.000000;0.030891
9698.000000;0.029047
9697.000000;0.027223
9696.000000;0.025441
9695.000000;0.023645
9694.000000;0.021787
9693.000000;0.019897
9692.000000;0.018038
9691.000000;0.016229
9690.000000;0.014438
9689.000000;0.012654
9688.000000;0.010888
9687.000000;0.009113
9686.000000;0.007246
9685.000000;0.005233
9684.000000;0.003107
9683.000000;0.000958
9682.000000;-0.001161
9681.000000;-0.003272
9680.000000;-0.005416
9679.000000;-0.007553
9678.000000;-0.009554
9677.000000;-0.011327
9676.000000;-0.012982
9675.000000;-0.014776
9674.000000;-0.016853
9673.000000;-0.019070
9672.000000;-0.021163
9671.000000;-0.023048
9670.000000;-0.024869
9669.000000;-0.026754
9668.000000;-0.028665
9667.000000;-0.030530
9666.000000;-0.032449
9665.000000;-0.034605
9664.000000;-0.037014
9663.000000;-0.039438
9662.000000;-0.041613
9661.000000;-0.043498
9660.000000;-0.045273
9659.000000;-0.047132
9658.000000;-0.049110
9657.000000;-0.051121
9656.000000;-0.053095
9655.000000;-0.055049
9654.000000;-0.057033
9653.000000;-0.059065
9652.000000;-0.061118
9651.000000;-0.063173
9650.000000;-0.065228
9649.000000;-0.067282
9648.000000;-0.069323
9647.000000;-0.071345
9646.000000;-0.073354
9645.000000;-0.075370
9644.000000;-0.077430
9643.000000;-0.079578
9642.000000;-0.081832
9641.000000;-0.084166
9640.000000;-0.086529
9639.000000;-0.088866
9638.000000;-0.091111
9637.000000;-0.093189
9636.000000;-0.095106
9635.000000;-0.096995
9634.000000;-0.099021
9633.000000;-0.101214
9632.000000;-0.103455
9631.000000;-0.105635
9630.000000;-0.107765
9629.000000;-0.109898
9628.000000;-0.112016
9627.000000;-0.114070
9626.000000;-0.116096
9625.000000;-0.118213
9624.000000;-0.120477
9623.000000;-0.122799
9622.000000;-0.125032
9621.000000;-0.127123
9620.000000;-0.129146
9619.000000;-0.131207
9618.000000;-0.133343
9617.000000;-0.135538
9616.000000;-0.137782
9615.000000;-0.140089
9614.000000;-0.142442
9613.000000;-0.144779
9612.000000;-0.147062
9611.000000;-0.149335
9610.000000;-0.151662
9609.000000;-0.154010
9608.000000;-0.156266
9607.000000;-0.158363
9606.000000;-0.160361
9605.000000;-0.162364
9604.000000;-0.164423
9603.000000;-0.166540
9602.000000;-0.168717
9601.000000;-0.170970
9600.000000;-0.173295
9599.000000;-0.175675
9598.000000;-0.178097
9597.000000;-0.180521
9596.000000;-0.182860
9595.000000;-0.185055
9594.000000;-0.187166
9593.000000;-0.189329
9592.000000;-0.191601
9591.000000;-0.193892
9590.000000;-0.196076
9589.000000;-0.198142
9588.000000;-0.200197
9587.000000;-0.202346
9586.000000;-0.204604
9585.000000;-0.206931
9584.000000;-0.209291
9583.000000;-0.211669
9582.000000;-0.214060
9581.000000;-0.216456
9580.000000;-0.218842
9579.000000;-0.221174
9578.000000;-0.223406
9577.000000;-0.225582
9576.000000;-0.227842
9575.000000;-0.230258
9574.000000;-0.232704
9573.000000;-0.234970
9572.000000;-0.237028
9571.000000;-0.239068
9570.000000;-0.241245
9569.000000;-0.243503
9568.000000;-0.245732
9567.000000;-0.247972
9566.000000;-0.250316
9565.000000;-0.252677
9564.000000;-0.254850
9563.000000;-0.256825
9562.000000;-0.258866
9561.000000;-0.261213
9560.000000;-0.263804
9559.000000;-0.266381
9558.000000;-0.268777
9557.000000;-0.270995
9556.000000;-0.273092
9555.000000;-0.275108
9554.000000;-0.277102
9553.000000;-0.279145
9552.000000;-0.281252
9551.000000;-0.283390
9550.000000;-0.285556
9549.000000;-0.287805
9548.000000;-0.290154
9547.000000;-0.292530
9546.000000;-0.294812
9545.000000;-0.296929
9544.000000;-0.298890
9543.000000;-0.300769
9542.000000;-0.302683
9541.000000;-0.304747
9540.000000;-0.307009
9539.000000;-0.309403
9538.000000;-0.311800
9537.000000;-0.314099
9536.000000;-0.316286
9535.000000;-0.318407
9534.000000;-0.320503
9533.000000;-0.322583
9532.000000;-0.324630
9531.000000;-0.326633
9530.000000;-0.328595
9529.000000;-0.330540
9528.000000;-0.332506
9527.000000;-0.334510
9526.000000;-0.336521
9525.000000;-0.338488
9524.000000;-0.340422
9523.000000;-0.342407
9522.000000;-0.344490
9521.000000;-0.346589
9520.000000;-0.348562
9519.000000;-0.350362
9518.000000;-0.352096
9517.000000;-0.353899
9516.000000;-0.355799
9515.000000;-0.357728
9514.000000;-0.359615
9513.000000;-0.361453
9512.000000;-0.363271
9511.000000;-0.365095
9510.000000;-0.366936
9509.000000;-0.368789
9508.000000;-0.370612
9507.000000;-0.372320
9506.000000;-0.373842
9505.000000;-0.375214
9504.000000;-0.376614
9503.000000;-0.378212
9502.000000;-0.379997
9501.000000;-0.381779
9500.000000;-0.383419
9499.000000;-0.384988
9498.000000;-0.386636
9497.000000;-0.388351
9496.000000;-0.389948
9495.000000;-0.391300
9494.000000;-0.392503
9493.000000;-0.393765
9492.000000;-0.395198
9491.000000;-0.396737
9490.000000;-0.398230
9489.000000;-0.399564
9488.000000;-0.400740
9487.000000;-0.401866
9486.000000;-0.403063
9485.000000;-0.404356
9484.000000;-0.405660
9483.000000;-0.406895
9482.000000;-0.408053
9481.000000;-0.409139
9480.000000;-0.410094
9479.000000;-0.410853
9478.000000;-0.411469
9477.000000;-0.412128
9476.000000;-0.413009
9475.000000;-0.414141
9474.000000;-0.415388
9473.000000;-0.416576
9472.000000;-0.417610
9471.000000;-0.418504
9470.000000;-0.419329
9469.000000;-0.420160
9468.000000;-0.421068
9467.000000;-0.422096
9466.000000;-0.423181
9465.000000;-0.424120
9464.000000;-0.424703
9463.000000;-0.424925
9462.000000;-0.425041
9461.000000;-0.425351
9460.000000;-0.425960
9459.000000;-0.426745
9458.000000;-0.427522
9457.000000;-0.428189
9456.000000;-0.428739
9455.000000;-0.429194
9454.000000;-0.429559
9453.000000;-0.429808
9452.000000;-0.429911
9451.000000;-0.429900
9450.000000;-0.429888
9449.000000;-0.429984
9448.000000;-0.430161
9447.000000;-0.430272
9446.000000;-0.430217
9445.000000;-0.430065
9444.000000;-0.429982
9443.000000;-0.430069
9442.000000;-0.430288
9441.000000;-0.430517
9440.000000;-0.430625
9439.000000;-0.430535
9438.000000;-0.430290
9437.000000;-0.430051
9436.000000;-0.429957
9435.000000;-0.429963
9434.000000;-0.429880
9433.000000;-0.429589
9432.000000;-0.429172
9431.000000;-0.428795
9430.000000;-0.428523
9429.000000;-0.428295
9428.000000;-0.428048
9427.000000;-0.427769
9426.000000;-0.427435
9425.000000;-0.426989
9424.000000;-0.426418
9423.000000;-0.425792
9422.000000;-0.425196
9421.000000;-0.424637
9420.000000;-0.424057
9419.000000;-0.423422
9418.000000;-0.422773
9417.000000;-0.422187
9416.000000;-0.421708
9415.000000;-0.421285
9414.000000;-0.420809
9413.000000;-0.420209
9412.000000;-0.419532
9411.000000;-0.418875
9410.000000;-0.418256
9409.000000;-0.417602
9408.000000;-0.416860
9407.000000;-0.416051
9406.000000;-0.415183
9405.000000;-0.414203
9404.000000;-0.413089
9403.000000;-0.411964
9402.000000;-0.411002
9401.000000;-0.410230
9400.000000;-0.409506
9399.000000;-0.408705
9398.000000;-0.407854
9397.000000;-0.407027
9396.000000;-0.406189
9395.000000;-0.405233
9394.000000;-0.404156
9393.000000;-0.403107
9392.000000;-0.402216
9391.000000;-0.401416
9390.000000;-0.400518
9389.000000;-0.399418
9388.000000;-0.398193
9387.000000;-0.396969
9386.000000;-0.395774
9385.000000;-0.394561
9384.000000;-0.393328
9383.000000;-0.392132
9382.000000;-0.390998
9381.000000;-0.389888
9380.000000;-0.388780
9379.000000;-0.387716
9378.000000;-0.386721
9377.000000;-0.385739
9376.000000;-0.384683
9375.000000;-0.383536
9374.000000;-0.382329
9373.000000;-0.381064
9372.000000;-0.379737
9371.000000;-0.378425
9370.000000;-0.377266
9369.000000;-0.376293
9368.000000;-0.375357
9367.000000;-0.374281
9366.000000;-0.373058
9365.000000;-0.371841
9364.000000;-0.370730
9363.000000;-0.369642
9362.000000;-0.368421
9361.000000;-0.367035
9360.000000;-0.365604
9359.000000;-0.364262
9358.000000;-0.363037
9357.000000;-0.361873
9356.000000;-0.360714
9355.000000;-0.359542
9354.000000;-0.358332
9353.000000;-0.357056
9352.000000;-0.355717
9351.000000;-0.354364
9350.000000;-0.353050
9349.000000;-0.351803
9348.000000;-0.350632
9347.000000;-0.349526
9346.000000;-0.348448
9345.000000;-0.347341
9344.000000;-0.346180
9343.000000;-0.344982
9342.000000;-0.343745
9341.000000;-0.342429
9340.000000;-0.341031
9339.000000;-0.339631
9338.000000;-0.338311
9337.000000;-0.337062
9336.000000;-0.335820
9335.000000;-0.334583
9334.000000;-0.333394
9333.000000;-0.332237
9332.000000;-0.331024
9331.000000;-0.329730
9330.000000;-0.328458
9329.000000;-0.327322
9328.000000;-0.326318
9327.000000;-0.325351
9326.000000;-0.324329
9325.000000;-0.323178
9324.000000;-0.321847
9323.000000;-0.320371
9322.000000;-0.318898
9321.000000;-0.317583
9320.000000;-0.316426
9319.000000;-0.315300
9318.000000;-0.314113
9317.000000;-0.312885
9316.000000;-0.311666
9315.000000;-0.310458
9314.000000;-0.309253
9313.000000;-0.308073
9312.000000;-0.306935
9311.000000;-0.305809
9310.000000;-0.304653
9309.000000;-0.303450
9308.000000;-0.302204
9307.000000;-0.300919
9306.000000;-0.299618
9305.000000;-0.298345
9304.000000;-0.297111
9303.000000;-0.295867
9302.000000;-0.294572
9301.000000;-0.293271
9300.000000;-0.292047
9299.000000;-0.290927
9298.000000;-0.289857
9297.000000;-0.288761
9296.000000;-0.287587
9295.000000;-0.286327
9294.000000;-0.285046
9293.000000;-0.283859
9292.000000;-0.282833
9291.000000;-0.281894
9290.000000;-0.280890
9289.000000;-0.279762
9288.000000;-0.278584
9287.000000;-0.277443
9286.000000;-0.276337
9285.000000;-0.275229
9284.000000;-0.274125
9283.000000;-0.273053
9282.000000;-0.272005
9281.000000;-0.270951
9280.000000;-0.269894
9279.000000;-0.268846
9278.000000;-0.267793
9277.000000;-0.266720
9276.000000;-0.265647
9275.000000;-0.264577
9274.000000;-0.263439
9273.000000;-0.262171
9272.000000;-0.260850
9271.000000;-0.259660
9270.000000;-0.258677
9269.000000;-0.257773
9268.000000;-0.256773
9267.000000;-0.255668
9266.000000;-0.254601
9265.000000;-0.253682
9264.000000;-0.252868
9263.000000;-0.252026
9262.000000;-0.251047
9261.000000;-0.249913
9260.000000;-0.248698
9259.000000;-0.247540
9258.000000;-0.246544
9257.000000;-0.245692
9256.000000;-0.244848
9255.000000;-0.243894
9254.000000;-0.242852
9253.000000;-0.241856
9252.000000;-0.240999
9251.000000;-0.240223
9250.000000;-0.239383
9249.000000;-0.238389
9248.000000;-0.237286
9247.000000;-0.236187
9246.000000;-0.235171
9245.000000;-0.234250
9244.000000;-0.233401
9243.000000;-0.232590
9242.000000;-0.231767
9241.000000;-0.230880
9240.000000;-0.229917
9239.000000;-0.228906
9238.000000;-0.227883
9237.000000;-0.226865
9236.000000;-0.225857
9235.000000;-0.224886
9234.000000;-0.223997
9233.000000;-0.223225
9232.000000;-0.222542
9231.000000;-0.221825
9230.000000;-0.220926
9229.000000;-0.219815
9228.000000;-0.218666
9227.000000;-0.217716
9226.000000;-0.217015
9225.000000;-0.216365
9224.000000;-0.215545
9223.000000;-0.214541
9222.000000;-0.213521
9221.000000;-0.212633
9220.000000;-0.211892
9219.000000;-0.211219
9218.000000;-0.210514
9217.000000;-0.209693
9216.000000;-0.208749
9215.000000;-0.207776
9214.000000;-0.206894
9213.000000;-0.206119
9212.000000;-0.205355
9211.000000;-0.204520
9210.000000;-0.203642
9209.000000;-0.202798
9208.000000;-0.202017
9207.000000;-0.201275
9206.000000;-0.200543
9205.000000;-0.199813
9204.000000;-0.199077
9203.000000;-0.198331
9202.000000;-0.197582
9201.000000;-0.196823
9200.000000;-0.196033
9199.000000;-0.195191
9198.000000;-0.194307
9197.000000;-0.193407
9196.000000;-0.192520
9195.000000;-0.191670
9194.000000;-0.190866
9193.000000;-0.190100
9192.000000;-0.189363
9191.000000;-0.188666
9190.000000;-0.188016
9189.000000;-0.187376
9188.000000;-0.186675
9187.000000;-0.185886
9186.000000;-0.185068
9185.000000;-0.184293
9184.000000;-0.183576
9183.000000;-0.182877
9182.000000;-0.182157
9181.000000;-0.181403
9180.000000;-0.180626
9179.000000;-0.179859
9178.000000;-0.179158
9177.000000;-0.178552
9176.000000;-0.178006
9175.000000;-0.177453
9174.000000;-0.176850
9173.000000;-0.176192
9172.000000;-0.175475
9171.000000;-0.174680
9170.000000;-0.173833
9169.000000;-0.173029
9168.000000;-0.172369
9167.000000;-0.171859
9166.000000;-0.171397
9165.000000;-0.170857
9164.000000;-0.170197
9163.000000;-0.169469
9162.000000;-0.168753
9161.000000;-0.168087
9160.000000;-0.167445
9159.000000;-0.166763
9158.000000;-0.166000
9157.000000;-0.165206
9156.000000;-0.164505
9155.000000;-0.163984
9154.000000;-0.163590
9153.000000;-0.163197
9152.000000;-0.162740
9151.000000;-0.162243
9150.000000;-0.161702
9149.000000;-0.161049
9148.000000;-0.160282
9147.000000;-0.159544
9146.000000;-0.158973
9145.000000;-0.158514
9144.000000;-0.157990
9143.000000;-0.157342
9142.000000;-0.156679
9141.000000;-0.156100
9140.000000;-0.155559
9139.000000;-0.154954
9138.000000;-0.154264
9137.000000;-0.153550
9136.000000;-0.152878
9135.000000;-0.152276
9134.000000;-0.151730
9133.000000;-0.151191
9132.000000;-0.150617
9131.000000;-0.150041
9130.000000;-0.149540
9129.000000;-0.149122
9128.000000;-0.148706
9127.000000;-0.148239
9126.000000;-0.147760
9125.000000;-0.147320
9124.000000;-0.146882
9123.000000;-0.146377
9122.000000;-0.145815
9121.000000;-0.145278
9120.000000;-0.144823
9119.000000;-0.144439
9118.000000;-0.144077
9117.000000;-0.143679
9116.000000;-0.143199
9115.000000;-0.142653
9114.000000;-0.142112
9113.000000;-0.141622
9112.000000;-0.141146
9111.000000;-0.140631
9110.000000;-0.140096
9109.000000;-0.139609
9108.000000;-0.139183
9107.000000;-0.138775
9106.000000;-0.138348
9105.000000;-0.137892
9104.000000;-0.137386
9103.000000;-0.136822
9102.000000;-0.136259
9101.000000;-0.135798
9100.000000;-0.135469
9099.000000;-0.135181
9098.000000;-0.134809
9097.000000;-0.134306
9096.000000;-0.133720
9095.000000;-0.133142
9094.000000;-0.132647
9093.000000;-0.132243
9092.000000;-0.131867
9091.000000;-0.131435
9090.000000;-0.130917
9089.000000;-0.130361
9088.000000;-0.129846
9087.000000;-0.129428
9086.000000;-0.129103
9085.000000;-0.128802
9084.000000;-0.128434
9083.000000;-0.127971
9082.000000;-0.127507
9081.000000;-0.127169
