Criado como novo conjunto de dados;"0307_DANIEL.spp","7382.1 Secs"
cm-1;Abs
10000.000000;0.285389
9999.000000;0.284222
9998.000000;0.283054
9997.000000;0.281898
9996.000000;0.280707
9995.000000;0.279537
9994.000000;0.278475
9993.000000;0.277474
9992.000000;0.276431
9991.000000;0.275282
9990.000000;0.274059
9989.000000;0.272782
9988.000000;0.271429
9987.000000;0.270064
9986.000000;0.268890
9985.000000;0.268015
9984.000000;0.267250
9983.000000;0.266300
9982.000000;0.265116
9981.000000;0.263899
9980.000000;0.262797
9979.000000;0.261771
9978.000000;0.260758
9977.000000;0.259783
9976.000000;0.258851
9975.000000;0.257874
9974.000000;0.256765
9973.000000;0.255527
9972.000000;0.254208
9971.000000;0.252886
9970.000000;0.251662
9969.000000;0.250590
9968.000000;0.249586
9967.000000;0.248524
9966.000000;0.247411
9965.000000;0.246356
9964.000000;0.245373
9963.000000;0.244353
9962.000000;0.243238
9961.000000;0.242079
9960.000000;0.240899
9959.000000;0.239667
9958.000000;0.238425
9957.000000;0.237296
9956.000000;0.236297
9955.000000;0.235281
9954.000000;0.234139
9953.000000;0.232931
9952.000000;0.231756
9951.000000;0.230593
9950.000000;0.229385
9949.000000;0.228174
9948.000000;0.227047
9947.000000;0.225999
9946.000000;0.224935
9945.000000;0.223776
9944.000000;0.222511
9943.000000;0.221193
9942.000000;0.219911
9941.000000;0.218735
9940.000000;0.217661
9939.000000;0.216634
9938.000000;0.215603
9937.000000;0.214517
9936.000000;0.213311
9935.000000;0.211988
9934.000000;0.210699
9933.000000;0.209618
9932.000000;0.208700
9931.000000;0.207703
9930.000000;0.206471
9929.000000;0.205096
9928.000000;0.203753
9927.000000;0.202490
9926.000000;0.201260
9925.000000;0.200051
9924.000000;0.198896
9923.000000;0.197786
9922.000000;0.196665
9921.000000;0.195490
9920.000000;0.194255
9919.000000;0.192977
9918.000000;0.191685
9917.000000;0.190398
9916.000000;0.189109
9915.000000;0.187808
9914.000000;0.186524
9913.000000;0.185267
9912.000000;0.183980
9911.000000;0.182613
9910.000000;0.181236
9909.000000;0.179975
9908.000000;0.178839
9907.000000;0.177697
9906.000000;0.176459
9905.000000;0.175178
9904.000000;0.173962
9903.000000;0.172857
9902.000000;0.171841
9901.000000;0.170833
9900.000000;0.169706
9899.000000;0.168379
9898.000000;0.166926
9897.000000;0.165519
9896.000000;0.164217
9895.000000;0.162930
9894.000000;0.161591
9893.000000;0.160258
9892.000000;0.158998
9891.000000;0.157770
9890.000000;0.156510
9889.000000;0.155230
9888.000000;0.153974
9887.000000;0.152716
9886.000000;0.151398
9885.000000;0.150022
9884.000000;0.148657
9883.000000;0.147364
9882.000000;0.146151
9881.000000;0.144980
9880.000000;0.143789
9879.000000;0.142541
9878.000000;0.141253
9877.000000;0.139947
9876.000000;0.138588
9875.000000;0.137143
9874.000000;0.135677
9873.000000;0.134319
9872.000000;0.133089
9871.000000;0.131864
9870.000000;0.130525
9869.000000;0.129098
9868.000000;0.127695
9867.000000;0.126391
9866.000000;0.125178
9865.000000;0.123973
9864.000000;0.122658
9863.000000;0.121182
9862.000000;0.119653
9861.000000;0.118255
9860.000000;0.117049
9859.000000;0.115915
9858.000000;0.114705
9857.000000;0.113382
9856.000000;0.111995
9855.000000;0.110591
9854.000000;0.109201
9853.000000;0.107844
9852.000000;0.106486
9851.000000;0.105038
9850.000000;0.103450
9849.000000;0.101793
9848.000000;0.100206
9847.000000;0.098790
9846.000000;0.097540
9845.000000;0.096352
9844.000000;0.095085
9843.000000;0.093679
9842.000000;0.092203
9841.000000;0.090766
9840.000000;0.089393
9839.000000;0.088026
9838.000000;0.086641
9837.000000;0.085272
9836.000000;0.083925
9835.000000;0.082559
9834.000000;0.081168
9833.000000;0.079793
9832.000000;0.078447
9831.000000;0.077092
9830.000000;0.075716
9829.000000;0.074361
9828.000000;0.073019
9827.000000;0.071594
9826.000000;0.070020
9825.000000;0.068366
9824.000000;0.066756
9823.000000;0.065238
9822.000000;0.063771
9821.000000;0.062320
9820.000000;0.060915
9819.000000;0.059600
9818.000000;0.058328
9817.000000;0.056953
9816.000000;0.055354
9815.000000;0.053599
9814.000000;0.051929
9813.000000;0.050497
9812.000000;0.049203
9811.000000;0.047829
9810.000000;0.046337
9809.000000;0.044890
9808.000000;0.043605
9807.000000;0.042388
9806.000000;0.041049
9805.000000;0.039504
9804.000000;0.037825
9803.000000;0.036156
9802.000000;0.034623
9801.000000;0.033254
9800.000000;0.031958
9799.000000;0.030597
9798.000000;0.029102
9797.000000;0.027493
9796.000000;0.025825
9795.000000;0.024165
9794.000000;0.022592
9793.000000;0.021135
9792.000000;0.019707
9791.000000;0.018183
9790.000000;0.016541
9789.000000;0.014870
9788.000000;0.013238
9787.000000;0.011647
9786.000000;0.010110
9785.000000;0.008652
9784.000000;0.007234
9783.000000;0.005757
9782.000000;0.004194
9781.000000;0.002626
9780.000000;0.001108
9779.000000;-0.000424
9778.000000;-0.002058
9777.000000;-0.003791
9776.000000;-0.005530
9775.000000;-0.007177
9774.000000;-0.008681
9773.000000;-0.010061
9772.000000;-0.011429
9771.000000;-0.012924
9770.000000;-0.014597
9769.000000;-0.016374
9768.000000;-0.018153
9767.000000;-0.019871
9766.000000;-0.021510
9765.000000;-0.023085
9764.000000;-0.024655
9763.000000;-0.026271
9762.000000;-0.027893
9761.000000;-0.029416
9760.000000;-0.030815
9759.000000;-0.032189
9758.000000;-0.033654
9757.000000;-0.035238
9756.000000;-0.036893
9755.000000;-0.038567
9754.000000;-0.040231
9753.000000;-0.041891
9752.000000;-0.043601
9751.000000;-0.045411
9750.000000;-0.047281
9749.000000;-0.049086
9748.000000;-0.050738
9747.000000;-0.052272
9746.000000;-0.053814
9745.000000;-0.055491
9744.000000;-0.057345
9743.000000;-0.059286
9742.000000;-0.061136
9741.000000;-0.062793
9740.000000;-0.064344
9739.000000;-0.065959
9738.000000;-0.067675
9737.000000;-0.069372
9736.000000;-0.070957
9735.000000;-0.072485
9734.000000;-0.074072
9733.000000;-0.075796
9732.000000;-0.077680
9731.000000;-0.079689
9730.000000;-0.081686
9729.000000;-0.083489
9728.000000;-0.085036
9727.000000;-0.086460
9726.000000;-0.087960
9725.000000;-0.089639
9724.000000;-0.091494
9723.000000;-0.093466
9722.000000;-0.095467
9721.000000;-0.097400
9720.000000;-0.099223
9719.000000;-0.100976
9718.000000;-0.102704
9717.000000;-0.104409
9716.000000;-0.106079
9715.000000;-0.107750
9714.000000;-0.109473
9713.000000;-0.111254
9712.000000;-0.113062
9711.000000;-0.114860
9710.000000;-0.116636
9709.000000;-0.118407
9708.000000;-0.120211
9707.000000;-0.122063
9706.000000;-0.123923
9705.000000;-0.125740
9704.000000;-0.127522
9703.000000;-0.129329
9702.000000;-0.131204
9701.000000;-0.133152
9700.000000;-0.135152
9699.000000;-0.137161
9698.000000;-0.139103
9697.000000;-0.140930
9696.000000;-0.142680
9695.000000;-0.144439
9694.000000;-0.146233
9693.000000;-0.148037
9692.000000;-0.149867
9691.000000;-0.151778
9690.000000;-0.153760
9689.000000;-0.155722
9688.000000;-0.157611
9687.000000;-0.159490
9686.000000;-0.161448
9685.000000;-0.163492
9684.000000;-0.165548
9683.000000;-0.167522
9682.000000;-0.169350
9681.000000;-0.171034
9680.000000;-0.172663
9679.000000;-0.174352
9678.000000;-0.176145
9677.000000;-0.178014
9676.000000;-0.179953
9675.000000;-0.182022
9674.000000;-0.184249
9673.000000;-0.186553
9672.000000;-0.188787
9671.000000;-0.190848
9670.000000;-0.192739
9669.000000;-0.194550
9668.000000;-0.196391
9667.000000;-0.198310
9666.000000;-0.200284
9665.000000;-0.202289
9664.000000;-0.204344
9663.000000;-0.206428
9662.000000;-0.208435
9661.000000;-0.210296
9660.000000;-0.212116
9659.000000;-0.214069
9658.000000;-0.216177
9657.000000;-0.218286
9656.000000;-0.220298
9655.000000;-0.222279
9654.000000;-0.224311
9653.000000;-0.226334
9652.000000;-0.228249
9651.000000;-0.230084
9650.000000;-0.231977
9649.000000;-0.234028
9648.000000;-0.236224
9647.000000;-0.238490
9646.000000;-0.240746
9645.000000;-0.242922
9644.000000;-0.244985
9643.000000;-0.246965
9642.000000;-0.248932
9641.000000;-0.250946
9640.000000;-0.253020
9639.000000;-0.255139
9638.000000;-0.257280
9637.000000;-0.259445
9636.000000;-0.261649
9635.000000;-0.263881
9634.000000;-0.266081
9633.000000;-0.268193
9632.000000;-0.270234
9631.000000;-0.272265
9630.000000;-0.274316
9629.000000;-0.276391
9628.000000;-0.278516
9627.000000;-0.280725
9626.000000;-0.282985
9625.000000;-0.285192
9624.000000;-0.287271
9623.000000;-0.289231
9622.000000;-0.291144
9621.000000;-0.293090
9620.000000;-0.295141
9619.000000;-0.297336
9618.000000;-0.299657
9617.000000;-0.302038
9616.000000;-0.304404
9615.000000;-0.306695
9614.000000;-0.308873
9613.000000;-0.310961
9612.000000;-0.313047
9611.000000;-0.315211
9610.000000;-0.317449
9609.000000;-0.319705
9608.000000;-0.321936
9607.000000;-0.324114
9606.000000;-0.326198
9605.000000;-0.328195
9604.000000;-0.330209
9603.000000;-0.332369
9602.000000;-0.334686
9601.000000;-0.337070
9600.000000;-0.339445
9599.000000;-0.341809
9598.000000;-0.344158
9597.000000;-0.346463
9596.000000;-0.348709
9595.000000;-0.350919
9594.000000;-0.353119
9593.000000;-0.355327
9592.000000;-0.357558
9591.000000;-0.359797
9590.000000;-0.361972
9589.000000;-0.364039
9588.000000;-0.366050
9587.000000;-0.368090
9586.000000;-0.370183
9585.000000;-0.372335
9584.000000;-0.374609
9583.000000;-0.377036
9582.000000;-0.379492
9581.000000;-0.381810
9580.000000;-0.384000
9579.000000;-0.386230
9578.000000;-0.388574
9577.000000;-0.390938
9576.000000;-0.393242
9575.000000;-0.395506
9574.000000;-0.397728
9573.000000;-0.399840
9572.000000;-0.401888
9571.000000;-0.404071
9570.000000;-0.406498
9569.000000;-0.409011
9568.000000;-0.411384
9567.000000;-0.413599
9566.000000;-0.415791
9565.000000;-0.417997
9564.000000;-0.420127
9563.000000;-0.422145
9562.000000;-0.424143
9561.000000;-0.426228
9560.000000;-0.428426
9559.000000;-0.430721
9558.000000;-0.433087
9557.000000;-0.435470
9556.000000;-0.437789
9555.000000;-0.439995
9554.000000;-0.442104
9553.000000;-0.444183
9552.000000;-0.446330
9551.000000;-0.448611
9550.000000;-0.450973
9549.000000;-0.453252
9548.000000;-0.455337
9547.000000;-0.457288
9546.000000;-0.459252
9545.000000;-0.461293
9544.000000;-0.463370
9543.000000;-0.465440
9542.000000;-0.467512
9541.000000;-0.469607
9540.000000;-0.471745
9539.000000;-0.473960
9538.000000;-0.476256
9537.000000;-0.478560
9536.000000;-0.480776
9535.000000;-0.482903
9534.000000;-0.485008
9533.000000;-0.487095
9532.000000;-0.489082
9531.000000;-0.490959
9530.000000;-0.492854
9529.000000;-0.494881
9528.000000;-0.496981
9527.000000;-0.498994
9526.000000;-0.500874
9525.000000;-0.502726
9524.000000;-0.504656
9523.000000;-0.506658
9522.000000;-0.508676
9521.000000;-0.510680
9520.000000;-0.512649
9519.000000;-0.514548
9518.000000;-0.516379
9517.000000;-0.518210
9516.000000;-0.520088
9515.000000;-0.521938
9514.000000;-0.523649
9513.000000;-0.525231
9512.000000;-0.526822
9511.000000;-0.528535
9510.000000;-0.530367
9509.000000;-0.532267
9508.000000;-0.534189
9507.000000;-0.536052
9506.000000;-0.537748
9505.000000;-0.539282
9504.000000;-0.540821
9503.000000;-0.542518
9502.000000;-0.544306
9501.000000;-0.545975
9500.000000;-0.547441
9499.000000;-0.548856
9498.000000;-0.550415
9497.000000;-0.552122
9496.000000;-0.553798
9495.000000;-0.555290
9494.000000;-0.556638
9493.000000;-0.558011
9492.000000;-0.559493
9491.000000;-0.560972
9490.000000;-0.562276
9489.000000;-0.563380
9488.000000;-0.564412
9487.000000;-0.565472
9486.000000;-0.566531
9485.000000;-0.567547
9484.000000;-0.568570
9483.000000;-0.569691
9482.000000;-0.570923
9481.000000;-0.572194
9480.000000;-0.573399
9479.000000;-0.574427
9478.000000;-0.575215
9477.000000;-0.575859
9476.000000;-0.576608
9475.000000;-0.577649
9474.000000;-0.578911
9473.000000;-0.580168
9472.000000;-0.581263
9471.000000;-0.582185
9470.000000;-0.582981
9469.000000;-0.583709
9468.000000;-0.584460
9467.000000;-0.585296
9466.000000;-0.586150
9465.000000;-0.586867
9464.000000;-0.587375
9463.000000;-0.587768
9462.000000;-0.588196
9461.000000;-0.588724
9460.000000;-0.589305
9459.000000;-0.589843
9458.000000;-0.590301
9457.000000;-0.590760
9456.000000;-0.591339
9455.000000;-0.592025
9454.000000;-0.592621
9453.000000;-0.592922
9452.000000;-0.592928
9451.000000;-0.592834
9450.000000;-0.592853
9449.000000;-0.593081
9448.000000;-0.593456
9447.000000;-0.593771
9446.000000;-0.593799
9445.000000;-0.593503
9444.000000;-0.593104
9443.000000;-0.592872
9442.000000;-0.592887
9441.000000;-0.593041
9440.000000;-0.593211
9439.000000;-0.593307
9438.000000;-0.593240
9437.000000;-0.592980
9436.000000;-0.592652
9435.000000;-0.592429
9434.000000;-0.592324
9433.000000;-0.592193
9432.000000;-0.591940
9431.000000;-0.591618
9430.000000;-0.591326
9429.000000;-0.591104
9428.000000;-0.590936
9427.000000;-0.590761
9426.000000;-0.590458
9425.000000;-0.589923
9424.000000;-0.589187
9423.000000;-0.588392
9422.000000;-0.587646
9421.000000;-0.586978
9420.000000;-0.586395
9419.000000;-0.585885
9418.000000;-0.585377
9417.000000;-0.584796
9416.000000;-0.584169
9415.000000;-0.583567
9414.000000;-0.582967
9413.000000;-0.582280
9412.000000;-0.581514
9411.000000;-0.580774
9410.000000;-0.580087
9409.000000;-0.579374
9408.000000;-0.578615
9407.000000;-0.577892
9406.000000;-0.577210
9405.000000;-0.576413
9404.000000;-0.575395
9403.000000;-0.574281
9402.000000;-0.573281
9401.000000;-0.572429
9400.000000;-0.571575
9399.000000;-0.570618
9398.000000;-0.569622
9397.000000;-0.568704
9396.000000;-0.567868
9395.000000;-0.567007
9394.000000;-0.566029
9393.000000;-0.564958
9392.000000;-0.563884
9391.000000;-0.562848
9390.000000;-0.561805
9389.000000;-0.560720
9388.000000;-0.559641
9387.000000;-0.558614
9386.000000;-0.557570
9385.000000;-0.556396
9384.000000;-0.555096
9383.000000;-0.553809
9382.000000;-0.552643
9381.000000;-0.551581
9380.000000;-0.550562
9379.000000;-0.549580
9378.000000;-0.548641
9377.000000;-0.547705
9376.000000;-0.546693
9375.000000;-0.545554
9374.000000;-0.544294
9373.000000;-0.542974
9372.000000;-0.541678
9371.000000;-0.540444
9370.000000;-0.539232
9369.000000;-0.537998
9368.000000;-0.536765
9367.000000;-0.535580
9366.000000;-0.534418
9365.000000;-0.533202
9364.000000;-0.531915
9363.000000;-0.530618
9362.000000;-0.529347
9361.000000;-0.528088
9360.000000;-0.526848
9359.000000;-0.525677
9358.000000;-0.524570
9357.000000;-0.523435
9356.000000;-0.522194
9355.000000;-0.520870
9354.000000;-0.519530
9353.000000;-0.518191
9352.000000;-0.516848
9351.000000;-0.515538
9350.000000;-0.514320
9349.000000;-0.513209
9348.000000;-0.512137
9347.000000;-0.510995
9346.000000;-0.509704
9345.000000;-0.508282
9344.000000;-0.506840
9343.000000;-0.505492
9342.000000;-0.504237
9341.000000;-0.502985
9340.000000;-0.501665
9339.000000;-0.500296
9338.000000;-0.498934
9337.000000;-0.497620
9336.000000;-0.496379
9335.000000;-0.495227
9334.000000;-0.494133
9333.000000;-0.493022
9332.000000;-0.491841
9331.000000;-0.490613
9330.000000;-0.489390
9329.000000;-0.488206
9328.000000;-0.487064
9327.000000;-0.485951
9326.000000;-0.484828
9325.000000;-0.483622
9324.000000;-0.482284
9323.000000;-0.480848
9322.000000;-0.479430
9321.000000;-0.478138
9320.000000;-0.476985
9319.000000;-0.475874
9318.000000;-0.474677
9317.000000;-0.473356
9316.000000;-0.471998
9315.000000;-0.470719
9314.000000;-0.469548
9313.000000;-0.468421
9312.000000;-0.467274
9311.000000;-0.466100
9310.000000;-0.464918
9309.000000;-0.463720
9308.000000;-0.462479
9307.000000;-0.461209
9306.000000;-0.459970
9305.000000;-0.458806
9304.000000;-0.457671
9303.000000;-0.456456
9302.000000;-0.455119
9301.000000;-0.453765
9300.000000;-0.452541
9299.000000;-0.451460
9298.000000;-0.450384
9297.000000;-0.449185
9296.000000;-0.447873
9295.000000;-0.446545
9294.000000;-0.445272
9293.000000;-0.444054
9292.000000;-0.442857
9291.000000;-0.441660
9290.000000;-0.440486
9289.000000;-0.439412
9288.000000;-0.438478
9287.000000;-0.437601
9286.000000;-0.436622
9285.000000;-0.435489
9284.000000;-0.434299
9283.000000;-0.433127
9282.000000;-0.431936
9281.000000;-0.430694
9280.000000;-0.429498
9279.000000;-0.428463
9278.000000;-0.427546
9277.000000;-0.426597
9276.000000;-0.425534
9275.000000;-0.424377
9274.000000;-0.423150
9273.000000;-0.421875
9272.000000;-0.420648
9271.000000;-0.419581
9270.000000;-0.418655
9269.000000;-0.417734
9268.000000;-0.416745
9267.000000;-0.415737
9266.000000;-0.414766
9265.000000;-0.413802
9264.000000;-0.412803
9263.000000;-0.411773
9262.000000;-0.410713
9261.000000;-0.409580
9260.000000;-0.408373
9259.000000;-0.407195
9258.000000;-0.406158
9257.000000;-0.405246
9256.000000;-0.404340
9255.000000;-0.403357
9254.000000;-0.402341
9253.000000;-0.401384
9252.000000;-0.400499
9251.000000;-0.399578
9250.000000;-0.398496
9249.000000;-0.397258
9248.000000;-0.396029
9247.000000;-0.394980
9246.000000;-0.394129
9245.000000;-0.393346
9244.000000;-0.392497
9243.000000;-0.391543
9242.000000;-0.390514
9241.000000;-0.389458
9240.000000;-0.388436
9239.000000;-0.387512
9238.000000;-0.386704
9237.000000;-0.385940
9236.000000;-0.385100
9235.000000;-0.384117
9234.000000;-0.383035
9233.000000;-0.381981
9232.000000;-0.381049
9231.000000;-0.380205
9230.000000;-0.379320
9229.000000;-0.378329
9228.000000;-0.377319
9227.000000;-0.376432
9226.000000;-0.375708
9225.000000;-0.375031
9224.000000;-0.374255
9223.000000;-0.373326
9222.000000;-0.372302
9221.000000;-0.371277
9220.000000;-0.370292
9219.000000;-0.369329
9218.000000;-0.368377
9217.000000;-0.367495
9216.000000;-0.366752
9215.000000;-0.366124
9214.000000;-0.365482
9213.000000;-0.364714
9212.000000;-0.363830
9211.000000;-0.362922
9210.000000;-0.362061
9209.000000;-0.361263
9208.000000;-0.360523
9207.000000;-0.359828
9206.000000;-0.359152
9205.000000;-0.358461
9204.000000;-0.357719
9203.000000;-0.356888
9202.000000;-0.355954
9201.000000;-0.354972
9200.000000;-0.354047
9199.000000;-0.353229
9198.000000;-0.352469
9197.000000;-0.351700
9196.000000;-0.350910
9195.000000;-0.350114
9194.000000;-0.349296
9193.000000;-0.348446
9192.000000;-0.347609
9191.000000;-0.346854
9190.000000;-0.346188
9189.000000;-0.345565
9188.000000;-0.344941
9187.000000;-0.344291
9186.000000;-0.343593
9185.000000;-0.342849
9184.000000;-0.342094
9183.000000;-0.341355
9182.000000;-0.340609
9181.000000;-0.339815
9180.000000;-0.338963
9179.000000;-0.338090
9178.000000;-0.337262
9177.000000;-0.336558
9176.000000;-0.336012
9175.000000;-0.335538
9174.000000;-0.334967
9173.000000;-0.334212
9172.000000;-0.333358
9171.000000;-0.332543
9170.000000;-0.331816
9169.000000;-0.331150
9168.000000;-0.330524
9167.000000;-0.329918
9166.000000;-0.329279
9165.000000;-0.328578
9164.000000;-0.327863
9163.000000;-0.327199
9162.000000;-0.326576
9161.000000;-0.325947
9160.000000;-0.325306
9159.000000;-0.324666
9158.000000;-0.323998
9157.000000;-0.323274
9156.000000;-0.322543
9155.000000;-0.321881
9154.000000;-0.321270
9153.000000;-0.320622
9152.000000;-0.319935
9151.000000;-0.319312
9150.000000;-0.318825
9149.000000;-0.318413
9148.000000;-0.317968
9147.000000;-0.317443
9146.000000;-0.316852
9145.000000;-0.316211
9144.000000;-0.315519
9143.000000;-0.314789
9142.000000;-0.314064
9141.000000;-0.313384
9140.000000;-0.312754
9139.000000;-0.312121
9138.000000;-0.311440
9137.000000;-0.310740
9136.000000;-0.310099
9135.000000;-0.309541
9134.000000;-0.309023
9133.000000;-0.308537
9132.000000;-0.308141
9131.000000;-0.307838
9130.000000;-0.307488
9129.000000;-0.306949
9128.000000;-0.306258
9127.000000;-0.305572
9126.000000;-0.304964
9125.000000;-0.304376
9124.000000;-0.303768
9123.000000;-0.303206
9122.000000;-0.302756
9121.000000;-0.302389
9120.000000;-0.302023
9119.000000;-0.301607
9118.000000;-0.301135
9117.000000;-0.300611
9116.000000;-0.300042
9115.000000;-0.299442
9114.000000;-0.298839
9113.000000;-0.298274
9112.000000;-0.297784
9111.000000;-0.297353
9110.000000;-0.296901
9109.000000;-0.296363
9108.000000;-0.295757
9107.000000;-0.295158
9106.000000;-0.294622
9105.000000;-0.294167
9104.000000;-0.293795
9103.000000;-0.293468
9102.000000;-0.293113
9101.000000;-0.292694
9100.000000;-0.292265
9099.000000;-0.291885
9098.000000;-0.291509
9097.000000;-0.291044
9096.000000;-0.290491
9095.000000;-0.289947
9094.000000;-0.289466
9093.000000;-0.289006
9092.000000;-0.288517
9091.000000;-0.288022
9090.000000;-0.287558
9089.000000;-0.287123
9088.000000;-0.286704
9087.000000;-0.286333
9086.000000;-0.286049
