Criado como novo conjunto de dados;"0307_DANIEL.spp","70025.7 Secs"
cm-1;Abs
10000.000000;0.598877
9999.000000;0.598160
9998.000000;0.597432
9997.000000;0.596729
9996.000000;0.595940
9995.000000;0.595179
9994.000000;0.594519
9993.000000;0.593744
9992.000000;0.592810
9991.000000;0.591874
9990.000000;0.591009
9989.000000;0.590051
9988.000000;0.588927
9987.000000;0.587849
9986.000000;0.586992
9985.000000;0.586174
9984.000000;0.585120
9983.000000;0.583967
9982.000000;0.583211
9981.000000;0.583101
9980.000000;0.583314
9979.000000;0.583299
9978.000000;0.582787
9977.000000;0.581861
9976.000000;0.580673
9975.000000;0.579298
9974.000000;0.577834
9973.000000;0.576459
9972.000000;0.575290
9971.000000;0.574237
9970.000000;0.573124
9969.000000;0.571939
9968.000000;0.570905
9967.000000;0.570244
9966.000000;0.569919
9965.000000;0.569651
9964.000000;0.569157
9963.000000;0.568348
9962.000000;0.567351
9961.000000;0.566442
9960.000000;0.565900
9959.000000;0.565780
9958.000000;0.565761
9957.000000;0.565343
9956.000000;0.564310
9955.000000;0.562941
9954.000000;0.561679
9953.000000;0.560647
9952.000000;0.559615
9951.000000;0.558432
9950.000000;0.557336
9949.000000;0.556713
9948.000000;0.556579
9947.000000;0.556421
9946.000000;0.555632
9945.000000;0.554101
9944.000000;0.552319
9943.000000;0.550892
9942.000000;0.549992
9941.000000;0.549300
9940.000000;0.548398
9939.000000;0.547154
9938.000000;0.545782
9937.000000;0.544584
9936.000000;0.543682
9935.000000;0.542936
9934.000000;0.542133
9933.000000;0.541246
9932.000000;0.540465
9931.000000;0.539920
9930.000000;0.539471
9929.000000;0.538860
9928.000000;0.538005
9927.000000;0.537004
9926.000000;0.535919
9925.000000;0.534754
9924.000000;0.533628
9923.000000;0.532735
9922.000000;0.532029
9921.000000;0.531173
9920.000000;0.529947
9919.000000;0.528567
9918.000000;0.527431
9917.000000;0.526641
9916.000000;0.525975
9915.000000;0.525263
9914.000000;0.524572
9913.000000;0.524005
9912.000000;0.523466
9911.000000;0.522735
9910.000000;0.521696
9909.000000;0.520486
9908.000000;0.519417
9907.000000;0.518706
9906.000000;0.518234
9905.000000;0.517601
9904.000000;0.516531
9903.000000;0.515177
9902.000000;0.513944
9901.000000;0.513035
9900.000000;0.512250
9899.000000;0.511248
9898.000000;0.509907
9897.000000;0.508440
9896.000000;0.507235
9895.000000;0.506557
9894.000000;0.506275
9893.000000;0.505863
9892.000000;0.504810
9891.000000;0.503113
9890.000000;0.501291
9889.000000;0.499885
9888.000000;0.499001
9887.000000;0.498363
9886.000000;0.497659
9885.000000;0.496717
9884.000000;0.495496
9883.000000;0.494095
9882.000000;0.492783
9881.000000;0.491825
9880.000000;0.491176
9879.000000;0.490452
9878.000000;0.489326
9877.000000;0.487902
9876.000000;0.486602
9875.000000;0.485698
9874.000000;0.485084
9873.000000;0.484486
9872.000000;0.483751
9871.000000;0.482837
9870.000000;0.481687
9869.000000;0.480294
9868.000000;0.478876
9867.000000;0.477788
9866.000000;0.477165
9865.000000;0.476746
9864.000000;0.476116
9863.000000;0.475090
9862.000000;0.473807
9861.000000;0.472497
9860.000000;0.471254
9859.000000;0.470012
9858.000000;0.468662
9857.000000;0.467160
9856.000000;0.465581
9855.000000;0.464090
9854.000000;0.462891
9853.000000;0.462133
9852.000000;0.461798
9851.000000;0.461619
9850.000000;0.461176
9849.000000;0.460163
9848.000000;0.458598
9847.000000;0.456727
9846.000000;0.454808
9845.000000;0.453054
9844.000000;0.451716
9843.000000;0.450957
9842.000000;0.450584
9841.000000;0.450062
9840.000000;0.448981
9839.000000;0.447462
9838.000000;0.445979
9837.000000;0.444844
9836.000000;0.443983
9835.000000;0.443140
9834.000000;0.442157
9833.000000;0.441037
9832.000000;0.439857
9831.000000;0.438672
9830.000000;0.437469
9829.000000;0.436193
9828.000000;0.434831
9827.000000;0.433448
9826.000000;0.432139
9825.000000;0.430953
9824.000000;0.429890
9823.000000;0.428900
9822.000000;0.427885
9821.000000;0.426785
9820.000000;0.425675
9819.000000;0.424690
9818.000000;0.423798
9817.000000;0.422756
9816.000000;0.421363
9815.000000;0.419678
9814.000000;0.417913
9813.000000;0.416207
9812.000000;0.414615
9811.000000;0.413215
9810.000000;0.412065
9809.000000;0.411085
9808.000000;0.410128
9807.000000;0.409122
9806.000000;0.408055
9805.000000;0.406869
9804.000000;0.405515
9803.000000;0.404058
9802.000000;0.402592
9801.000000;0.401099
9800.000000;0.399541
9799.000000;0.398054
9798.000000;0.396851
9797.000000;0.395919
9796.000000;0.395010
9795.000000;0.393965
9794.000000;0.392882
9793.000000;0.391892
9792.000000;0.390943
9791.000000;0.389893
9790.000000;0.388701
9789.000000;0.387397
9788.000000;0.385976
9787.000000;0.384438
9786.000000;0.382881
9785.000000;0.381448
9784.000000;0.380165
9783.000000;0.378920
9782.000000;0.377583
9781.000000;0.376146
9780.000000;0.374739
9779.000000;0.373504
9778.000000;0.372407
9777.000000;0.371214
9776.000000;0.369737
9775.000000;0.368071
9774.000000;0.366463
9773.000000;0.364978
9772.000000;0.363464
9771.000000;0.361859
9770.000000;0.360341
9769.000000;0.359070
9768.000000;0.357960
9767.000000;0.356862
9766.000000;0.355823
9765.000000;0.354973
9764.000000;0.354206
9763.000000;0.353199
9762.000000;0.351770
9761.000000;0.350065
9760.000000;0.348356
9759.000000;0.346770
9758.000000;0.345289
9757.000000;0.343880
9756.000000;0.342535
9755.000000;0.341194
9754.000000;0.339746
9753.000000;0.338148
9752.000000;0.336501
9751.000000;0.334959
9750.000000;0.333541
9749.000000;0.332111
9748.000000;0.330557
9747.000000;0.328941
9746.000000;0.327380
9745.000000;0.325863
9744.000000;0.324305
9743.000000;0.322778
9742.000000;0.321473
9741.000000;0.320390
9740.000000;0.319248
9739.000000;0.317844
9738.000000;0.316374
9737.000000;0.315203
9736.000000;0.314362
9735.000000;0.313464
9734.000000;0.312122
9733.000000;0.310339
9732.000000;0.308444
9731.000000;0.306742
9730.000000;0.305266
9729.000000;0.303823
9728.000000;0.302238
9727.000000;0.300569
9726.000000;0.299037
9725.000000;0.297733
9724.000000;0.296466
9723.000000;0.294987
9722.000000;0.293295
9721.000000;0.291602
9720.000000;0.290025
9719.000000;0.288475
9718.000000;0.286850
9717.000000;0.285193
9716.000000;0.283581
9715.000000;0.281972
9714.000000;0.280259
9713.000000;0.278422
9712.000000;0.276556
9711.000000;0.274794
9710.000000;0.273221
9709.000000;0.271805
9708.000000;0.270391
9707.000000;0.268812
9706.000000;0.267072
9705.000000;0.265362
9704.000000;0.263844
9703.000000;0.262463
9702.000000;0.261005
9701.000000;0.259315
9700.000000;0.257442
9699.000000;0.255585
9698.000000;0.253921
9697.000000;0.252455
9696.000000;0.251029
9695.000000;0.249536
9694.000000;0.248094
9693.000000;0.246905
9692.000000;0.245910
9691.000000;0.244742
9690.000000;0.243105
9689.000000;0.241112
9688.000000;0.239124
9687.000000;0.237313
9686.000000;0.235544
9685.000000;0.233652
9684.000000;0.231682
9683.000000;0.229823
9682.000000;0.228210
9681.000000;0.226803
9680.000000;0.225406
9679.000000;0.223782
9678.000000;0.221863
9677.000000;0.219846
9676.000000;0.218021
9675.000000;0.216475
9674.000000;0.215024
9673.000000;0.213449
9672.000000;0.211699
9671.000000;0.209843
9670.000000;0.207936
9669.000000;0.205999
9668.000000;0.204065
9667.000000;0.202160
9666.000000;0.200276
9665.000000;0.198430
9664.000000;0.196722
9663.000000;0.195266
9662.000000;0.194063
9661.000000;0.192921
9660.000000;0.191512
9659.000000;0.189582
9658.000000;0.187212
9657.000000;0.184857
9656.000000;0.182966
9655.000000;0.181539
9654.000000;0.180167
9653.000000;0.178560
9652.000000;0.176821
9651.000000;0.175105
9650.000000;0.173251
9649.000000;0.171052
9648.000000;0.168744
9647.000000;0.166826
9646.000000;0.165349
9645.000000;0.163768
9644.000000;0.161650
9643.000000;0.159266
9642.000000;0.157213
9641.000000;0.155658
9640.000000;0.154254
9639.000000;0.152682
9638.000000;0.150923
9637.000000;0.148983
9636.000000;0.146707
9635.000000;0.144061
9634.000000;0.141387
9633.000000;0.139151
9632.000000;0.137499
9631.000000;0.136182
9630.000000;0.134852
9629.000000;0.133288
9628.000000;0.131399
9627.000000;0.129215
9626.000000;0.126940
9625.000000;0.124850
9624.000000;0.123058
9623.000000;0.121426
9622.000000;0.119788
9621.000000;0.118134
9620.000000;0.116506
9619.000000;0.114791
9618.000000;0.112807
9617.000000;0.110566
9616.000000;0.108306
9615.000000;0.106209
9614.000000;0.104230
9613.000000;0.102251
9612.000000;0.100278
9611.000000;0.098346
9610.000000;0.096370
9609.000000;0.094264
9608.000000;0.092174
9607.000000;0.090373
9606.000000;0.088873
9605.000000;0.087336
9604.000000;0.085479
9603.000000;0.083426
9602.000000;0.081486
9601.000000;0.079668
9600.000000;0.077622
9599.000000;0.075084
9598.000000;0.072217
9597.000000;0.069434
9596.000000;0.067024
9595.000000;0.065051
9594.000000;0.063469
9593.000000;0.062157
9592.000000;0.060865
9591.000000;0.059300
9590.000000;0.057358
9589.000000;0.055208
9588.000000;0.053068
9587.000000;0.050963
9586.000000;0.048767
9585.000000;0.046437
9584.000000;0.044112
9583.000000;0.041953
9582.000000;0.039952
9581.000000;0.037947
9580.000000;0.035809
9579.000000;0.033567
9578.000000;0.031342
9577.000000;0.029203
9576.000000;0.027126
9575.000000;0.025098
9574.000000;0.023201
9573.000000;0.021508
9572.000000;0.019905
9571.000000;0.018123
9570.000000;0.016018
9569.000000;0.013747
9568.000000;0.011576
9567.000000;0.009569
9566.000000;0.007560
9565.000000;0.005412
9564.000000;0.003153
9563.000000;0.000866
9562.000000;-0.001413
9561.000000;-0.003608
9560.000000;-0.005565
9559.000000;-0.007239
9558.000000;-0.008847
9557.000000;-0.010694
9556.000000;-0.012869
9555.000000;-0.015211
9554.000000;-0.017524
9553.000000;-0.019722
9552.000000;-0.021789
9551.000000;-0.023757
9550.000000;-0.025748
9549.000000;-0.027898
9548.000000;-0.030187
9547.000000;-0.032423
9546.000000;-0.034413
9545.000000;-0.036080
9544.000000;-0.037437
9543.000000;-0.038592
9542.000000;-0.039808
9541.000000;-0.041404
9540.000000;-0.043469
9539.000000;-0.045775
9538.000000;-0.048061
9537.000000;-0.050282
9536.000000;-0.052473
9535.000000;-0.054496
9534.000000;-0.056162
9533.000000;-0.057567
9532.000000;-0.059074
9531.000000;-0.060877
9530.000000;-0.062781
9529.000000;-0.064508
9528.000000;-0.066088
9527.000000;-0.067765
9526.000000;-0.069610
9525.000000;-0.071418
9524.000000;-0.073022
9523.000000;-0.074568
9522.000000;-0.076374
9521.000000;-0.078595
9520.000000;-0.081086
9519.000000;-0.083526
9518.000000;-0.085615
9517.000000;-0.087192
9516.000000;-0.088316
9515.000000;-0.089280
9514.000000;-0.090451
9513.000000;-0.092001
9512.000000;-0.093783
9511.000000;-0.095516
9510.000000;-0.097072
9509.000000;-0.098555
9508.000000;-0.100090
9507.000000;-0.101616
9506.000000;-0.102955
9505.000000;-0.104069
9504.000000;-0.105189
9503.000000;-0.106618
9502.000000;-0.108434
9501.000000;-0.110422
9500.000000;-0.112312
9499.000000;-0.114004
9498.000000;-0.115533
9497.000000;-0.116905
9496.000000;-0.118078
9495.000000;-0.119087
9494.000000;-0.120048
9493.000000;-0.121022
9492.000000;-0.121981
9491.000000;-0.122949
9490.000000;-0.124079
9489.000000;-0.125477
9488.000000;-0.127041
9487.000000;-0.128578
9486.000000;-0.130006
9485.000000;-0.131353
9484.000000;-0.132608
9483.000000;-0.133729
9482.000000;-0.134772
9481.000000;-0.135821
9480.000000;-0.136793
9479.000000;-0.137451
9478.000000;-0.137715
9477.000000;-0.137836
9476.000000;-0.138166
9475.000000;-0.138846
9474.000000;-0.139738
9473.000000;-0.140588
9472.000000;-0.141170
9471.000000;-0.141402
9470.000000;-0.141450
9469.000000;-0.141682
9468.000000;-0.142366
9467.000000;-0.143401
9466.000000;-0.144421
9465.000000;-0.145159
9464.000000;-0.145647
9463.000000;-0.146082
9462.000000;-0.146591
9461.000000;-0.147151
9460.000000;-0.147673
9459.000000;-0.148125
9458.000000;-0.148543
9457.000000;-0.148937
9456.000000;-0.149218
9455.000000;-0.149306
9454.000000;-0.149273
9453.000000;-0.149277
9452.000000;-0.149330
9451.000000;-0.149261
9450.000000;-0.148991
9449.000000;-0.148699
9448.000000;-0.148579
9447.000000;-0.148557
9446.000000;-0.148416
9445.000000;-0.148159
9444.000000;-0.148045
9443.000000;-0.148260
9442.000000;-0.148699
9441.000000;-0.149073
9440.000000;-0.149098
9439.000000;-0.148594
9438.000000;-0.147623
9437.000000;-0.146554
9436.000000;-0.145838
9435.000000;-0.145608
9434.000000;-0.145591
9433.000000;-0.145458
9432.000000;-0.145126
9431.000000;-0.144674
9430.000000;-0.144136
9429.000000;-0.143514
9428.000000;-0.142881
9427.000000;-0.142312
9426.000000;-0.141769
9425.000000;-0.141176
9424.000000;-0.140553
9423.000000;-0.140001
9422.000000;-0.139569
9421.000000;-0.139205
9420.000000;-0.138800
9419.000000;-0.138210
9418.000000;-0.137296
9417.000000;-0.136053
9416.000000;-0.134708
9415.000000;-0.133598
9414.000000;-0.132913
9413.000000;-0.132557
9412.000000;-0.132221
9411.000000;-0.131579
9410.000000;-0.130485
9409.000000;-0.129064
9408.000000;-0.127607
9407.000000;-0.126321
9406.000000;-0.125203
9405.000000;-0.124177
9404.000000;-0.123267
9403.000000;-0.122565
9402.000000;-0.122047
9401.000000;-0.121544
9400.000000;-0.120879
9399.000000;-0.119978
9398.000000;-0.118841
9397.000000;-0.117496
9396.000000;-0.116017
9395.000000;-0.114543
9394.000000;-0.113234
9393.000000;-0.112189
9392.000000;-0.111367
9391.000000;-0.110593
9390.000000;-0.109670
9389.000000;-0.108539
9388.000000;-0.107301
9387.000000;-0.106085
9386.000000;-0.104906
9385.000000;-0.103672
9384.000000;-0.102295
9383.000000;-0.100777
9382.000000;-0.099205
9381.000000;-0.097704
9380.000000;-0.096362
9379.000000;-0.095175
9378.000000;-0.094077
9377.000000;-0.093005
9376.000000;-0.091923
9375.000000;-0.090781
9374.000000;-0.089520
9373.000000;-0.088135
9372.000000;-0.086689
9371.000000;-0.085256
9370.000000;-0.083887
9369.000000;-0.082613
9368.000000;-0.081398
9367.000000;-0.080114
9366.000000;-0.078668
9365.000000;-0.077162
9364.000000;-0.075785
9363.000000;-0.074521
9362.000000;-0.073117
9361.000000;-0.071438
9360.000000;-0.069706
9359.000000;-0.068263
9358.000000;-0.067171
9357.000000;-0.066191
9356.000000;-0.065052
9355.000000;-0.063632
9354.000000;-0.061951
9353.000000;-0.060165
9352.000000;-0.058506
9351.000000;-0.057088
9350.000000;-0.055784
9349.000000;-0.054437
9348.000000;-0.053129
9347.000000;-0.052062
9346.000000;-0.051176
9345.000000;-0.050081
9344.000000;-0.048431
9343.000000;-0.046286
9342.000000;-0.044063
9341.000000;-0.042219
9340.000000;-0.040930
9339.000000;-0.039981
9338.000000;-0.038957
9337.000000;-0.037633
9336.000000;-0.036142
9335.000000;-0.034694
9334.000000;-0.033249
9333.000000;-0.031665
9332.000000;-0.030050
9331.000000;-0.028686
9330.000000;-0.027596
9329.000000;-0.026463
9328.000000;-0.025074
9327.000000;-0.023568
9326.000000;-0.022138
9325.000000;-0.020743
9324.000000;-0.019317
9323.000000;-0.018026
9322.000000;-0.017071
9321.000000;-0.016357
9320.000000;-0.015582
9319.000000;-0.014589
9318.000000;-0.013413
9317.000000;-0.012090
9316.000000;-0.010613
9315.000000;-0.009065
9314.000000;-0.007590
9313.000000;-0.006226
9312.000000;-0.004886
9311.000000;-0.003500
9310.000000;-0.002044
9309.000000;-0.000484
9308.000000;0.001160
9307.000000;0.002749
9306.000000;0.004179
9305.000000;0.005572
9304.000000;0.007121
9303.000000;0.008745
9302.000000;0.010122
9301.000000;0.011119
9300.000000;0.011989
9299.000000;0.013058
9298.000000;0.014381
9297.000000;0.015794
9296.000000;0.017144
9295.000000;0.018343
9294.000000;0.019333
9293.000000;0.020164
9292.000000;0.021064
9291.000000;0.022273
9290.000000;0.023782
9289.000000;0.025339
9288.000000;0.026727
9287.000000;0.027967
9286.000000;0.029233
9285.000000;0.030627
9284.000000;0.032072
9283.000000;0.033420
9282.000000;0.034623
9281.000000;0.035759
9280.000000;0.036890
9279.000000;0.037975
9278.000000;0.038958
9277.000000;0.039889
9276.000000;0.040860
9275.000000;0.041870
9274.000000;0.042875
9273.000000;0.043951
9272.000000;0.045268
9271.000000;0.046849
9270.000000;0.048486
9269.000000;0.049975
9268.000000;0.051339
9267.000000;0.052722
9266.000000;0.054157
9265.000000;0.055535
9264.000000;0.056799
9263.000000;0.058019
9262.000000;0.059276
9261.000000;0.060515
9260.000000;0.061550
9259.000000;0.062223
9258.000000;0.062591
9257.000000;0.062976
9256.000000;0.063779
9255.000000;0.065151
9254.000000;0.066844
9253.000000;0.068422
9252.000000;0.069644
9251.000000;0.070647
9250.000000;0.071749
9249.000000;0.073103
9248.000000;0.074531
9247.000000;0.075721
9246.000000;0.076571
9245.000000;0.077280
9244.000000;0.078073
9243.000000;0.078916
9242.000000;0.079659
9241.000000;0.080378
9240.000000;0.081383
9239.000000;0.082783
9238.000000;0.084254
9237.000000;0.085369
9236.000000;0.086080
9235.000000;0.086728
9234.000000;0.087653
9233.000000;0.088942
9232.000000;0.090503
9231.000000;0.092174
9230.000000;0.093712
9229.000000;0.094881
9228.000000;0.095667
9227.000000;0.096336
9226.000000;0.097168
9225.000000;0.098192
9224.000000;0.099248
9223.000000;0.100232
9222.000000;0.101166
9221.000000;0.102043
9220.000000;0.102769
9219.000000;0.103327
9218.000000;0.103909
9217.000000;0.104779
9216.000000;0.106013
9215.000000;0.107442
9214.000000;0.108832
9213.000000;0.110033
9212.000000;0.110984
9211.000000;0.111695
9210.000000;0.112287
9209.000000;0.112952
9208.000000;0.113782
9207.000000;0.114709
9206.000000;0.115663
9205.000000;0.116701
9204.000000;0.117854
9203.000000;0.118950
9202.000000;0.119751
9201.000000;0.120272
9200.000000;0.120779
9199.000000;0.121475
9198.000000;0.122344
9197.000000;0.123326
9196.000000;0.124450
9195.000000;0.125692
9194.000000;0.126854
9193.000000;0.127734
9192.000000;0.128347
9191.000000;0.128873
9190.000000;0.129436
9189.000000;0.130053
9188.000000;0.130739
9187.000000;0.131538
9186.000000;0.132482
9185.000000;0.133548
9184.000000;0.134639
9183.000000;0.135593
9182.000000;0.136306
9181.000000;0.136913
9180.000000;0.137724
9179.000000;0.138865
9178.000000;0.140079
9177.000000;0.141016
9176.000000;0.141657
9175.000000;0.142280
9174.000000;0.143052
9173.000000;0.143827
9172.000000;0.144396
9171.000000;0.144798
9170.000000;0.145290
9169.000000;0.146072
9168.000000;0.147090
9167.000000;0.148087
9166.000000;0.148854
9165.000000;0.149446
9164.000000;0.150132
9163.000000;0.151087
9162.000000;0.152177
9161.000000;0.153086
9160.000000;0.153638
9159.000000;0.153929
9158.000000;0.154186
9157.000000;0.154574
9156.000000;0.155144
9155.000000;0.155851
9154.000000;0.156613
9153.000000;0.157372
9152.000000;0.158138
9151.000000;0.158941
9150.000000;0.159759
9149.000000;0.160527
9148.000000;0.161198
9147.000000;0.161770
9146.000000;0.162290
9145.000000;0.162842
9144.000000;0.163473
9143.000000;0.164101
9142.000000;0.164588
9141.000000;0.164956
9140.000000;0.165444
9139.000000;0.166237
9138.000000;0.167216
9137.000000;0.168102
9136.000000;0.168812
9135.000000;0.169520
9134.000000;0.170369
9133.000000;0.171257
9132.000000;0.171982
9131.000000;0.172507
9130.000000;0.173022
9129.000000;0.173749
9128.000000;0.174701
9127.000000;0.175653
9126.000000;0.176347
9125.000000;0.176747
9124.000000;0.177023
9123.000000;0.177316
9122.000000;0.177631
9121.000000;0.178008
9120.000000;0.178605
9119.000000;0.179467
9118.000000;0.180319
9117.000000;0.180805
9116.000000;0.180902
9115.000000;0.180951
9114.000000;0.181269
9113.000000;0.181906
9112.000000;0.182770
9111.000000;0.183814
9110.000000;0.184993
9109.000000;0.186157
9108.000000;0.187077
9107.000000;0.187577
9106.000000;0.187680
9105.000000;0.187685
9104.000000;0.188036
9103.000000;0.188935
9102.000000;0.190078
9101.000000;0.190929
9100.000000;0.191284
9099.000000;0.191441
9098.000000;0.191765
9097.000000;0.192263
9096.000000;0.192686
9095.000000;0.192897
9094.000000;0.193012
9093.000000;0.193236
9092.000000;0.193683
9091.000000;0.194347
9090.000000;0.195138
9089.000000;0.195928
9088.000000;0.196610
9087.000000;0.197146
9086.000000;0.197584
9085.000000;0.198028
9084.000000;0.198539
9083.000000;0.199023
9082.000000;0.199292
9081.000000;0.199328
9080.000000;0.199430
9079.000000;0.199946
9078.000000;0.200865
9077.000000;0.201805
9076.000000;0.202418
9075.000000;0.202682
9074.000000;0.202802
9073.000000;0.202998
9072.000000;0.203416
9071.000000;0.204067
9070.000000;0.204753
9069.000000;0.205206
9068.000000;0.205365
9067.000000;0.205417
9066.000000;0.205525
9065.000000;0.205683
