Criado como novo conjunto de dados;"0307_DANIEL.spp","12062.3 Secs"
cm-1;Abs
10000.000000;0.760267
9999.000000;0.758597
9998.000000;0.757077
9997.000000;0.755759
9996.000000;0.754524
9995.000000;0.753293
9994.000000;0.752107
9993.000000;0.751026
9992.000000;0.750009
9991.000000;0.748923
9990.000000;0.747658
9989.000000;0.746254
9988.000000;0.744872
9987.000000;0.743640
9986.000000;0.742528
9985.000000;0.741427
9984.000000;0.740304
9983.000000;0.739253
9982.000000;0.738349
9981.000000;0.737513
9980.000000;0.736561
9979.000000;0.735365
9978.000000;0.733932
9977.000000;0.732386
9976.000000;0.730922
9975.000000;0.729761
9974.000000;0.729006
9973.000000;0.728485
9972.000000;0.727783
9971.000000;0.726549
9970.000000;0.724796
9969.000000;0.722887
9968.000000;0.721209
9967.000000;0.719899
9966.000000;0.718853
9965.000000;0.717892
9964.000000;0.716880
9963.000000;0.715745
9962.000000;0.714493
9961.000000;0.713205
9960.000000;0.711992
9959.000000;0.710896
9958.000000;0.709873
9957.000000;0.708845
9956.000000;0.707740
9955.000000;0.706507
9954.000000;0.705158
9953.000000;0.703807
9952.000000;0.702583
9951.000000;0.701504
9950.000000;0.700459
9949.000000;0.699354
9948.000000;0.698178
9947.000000;0.696909
9946.000000;0.695458
9945.000000;0.693816
9944.000000;0.692166
9943.000000;0.690721
9942.000000;0.689457
9941.000000;0.688150
9940.000000;0.686710
9939.000000;0.685350
9938.000000;0.684332
9937.000000;0.683627
9936.000000;0.682915
9935.000000;0.681925
9934.000000;0.680693
9933.000000;0.679483
9932.000000;0.678497
9931.000000;0.677704
9930.000000;0.676900
9929.000000;0.675888
9928.000000;0.674593
9927.000000;0.673056
9926.000000;0.671383
9925.000000;0.669732
9924.000000;0.668287
9923.000000;0.667154
9922.000000;0.666249
9921.000000;0.665299
9920.000000;0.664045
9919.000000;0.662497
9918.000000;0.660956
9917.000000;0.659722
9916.000000;0.658767
9915.000000;0.657760
9914.000000;0.656455
9913.000000;0.654957
9912.000000;0.653552
9911.000000;0.652348
9910.000000;0.651210
9909.000000;0.649990
9908.000000;0.648657
9907.000000;0.647201
9906.000000;0.645615
9905.000000;0.644014
9904.000000;0.642594
9903.000000;0.641370
9902.000000;0.640130
9901.000000;0.638747
9900.000000;0.637382
9899.000000;0.636206
9898.000000;0.635088
9897.000000;0.633776
9896.000000;0.632245
9895.000000;0.630656
9894.000000;0.629038
9893.000000;0.627306
9892.000000;0.625597
9891.000000;0.624266
9890.000000;0.623438
9889.000000;0.622774
9888.000000;0.621824
9887.000000;0.620467
9886.000000;0.618892
9885.000000;0.617269
9884.000000;0.615615
9883.000000;0.613935
9882.000000;0.612352
9881.000000;0.611072
9880.000000;0.610214
9879.000000;0.609643
9878.000000;0.608974
9877.000000;0.607869
9876.000000;0.606362
9875.000000;0.604795
9874.000000;0.603416
9873.000000;0.602142
9872.000000;0.600752
9871.000000;0.599166
9870.000000;0.597470
9869.000000;0.595801
9868.000000;0.594313
9867.000000;0.593128
9866.000000;0.592172
9865.000000;0.591141
9864.000000;0.589782
9863.000000;0.588161
9862.000000;0.586543
9861.000000;0.585039
9860.000000;0.583521
9859.000000;0.581869
9858.000000;0.580162
9857.000000;0.578559
9856.000000;0.577113
9855.000000;0.575761
9854.000000;0.574429
9853.000000;0.573112
9852.000000;0.571842
9851.000000;0.570639
9850.000000;0.569461
9849.000000;0.568213
9848.000000;0.566802
9847.000000;0.565215
9846.000000;0.563525
9845.000000;0.561845
9844.000000;0.560267
9843.000000;0.558841
9842.000000;0.557556
9841.000000;0.556344
9840.000000;0.555088
9839.000000;0.553677
9838.000000;0.552097
9837.000000;0.550473
9836.000000;0.548972
9835.000000;0.547628
9834.000000;0.546316
9833.000000;0.544921
9832.000000;0.543480
9831.000000;0.542079
9830.000000;0.540669
9829.000000;0.539109
9828.000000;0.537388
9827.000000;0.535646
9826.000000;0.533979
9825.000000;0.532338
9824.000000;0.530700
9823.000000;0.529172
9822.000000;0.527833
9821.000000;0.526560
9820.000000;0.525157
9819.000000;0.523627
9818.000000;0.522169
9817.000000;0.520885
9816.000000;0.519606
9815.000000;0.518086
9814.000000;0.516331
9813.000000;0.514632
9812.000000;0.513246
9811.000000;0.512095
9810.000000;0.510837
9809.000000;0.509235
9808.000000;0.507379
9807.000000;0.505513
9806.000000;0.503750
9805.000000;0.502045
9804.000000;0.500381
9803.000000;0.498862
9802.000000;0.497570
9801.000000;0.496440
9800.000000;0.495288
9799.000000;0.493948
9798.000000;0.492361
9797.000000;0.490600
9796.000000;0.488799
9795.000000;0.487027
9794.000000;0.485244
9793.000000;0.483432
9792.000000;0.481719
9791.000000;0.480242
9790.000000;0.478935
9789.000000;0.477553
9788.000000;0.475921
9787.000000;0.474065
9786.000000;0.472141
9785.000000;0.470335
9784.000000;0.468816
9783.000000;0.467585
9782.000000;0.466359
9781.000000;0.464785
9780.000000;0.462848
9779.000000;0.460896
9778.000000;0.459195
9777.000000;0.457622
9776.000000;0.455909
9775.000000;0.454040
9774.000000;0.452227
9773.000000;0.450590
9772.000000;0.449046
9771.000000;0.447472
9770.000000;0.445841
9769.000000;0.444191
9768.000000;0.442580
9767.000000;0.441060
9766.000000;0.439639
9765.000000;0.438247
9764.000000;0.436800
9763.000000;0.435271
9762.000000;0.433671
9761.000000;0.432018
9760.000000;0.430353
9759.000000;0.428739
9758.000000;0.427153
9757.000000;0.425462
9756.000000;0.423562
9755.000000;0.421511
9754.000000;0.419499
9753.000000;0.417716
9752.000000;0.416258
9751.000000;0.415044
9750.000000;0.413765
9749.000000;0.412056
9748.000000;0.409859
9747.000000;0.407552
9746.000000;0.405588
9745.000000;0.404037
9744.000000;0.402569
9743.000000;0.400854
9742.000000;0.398877
9741.000000;0.396900
9740.000000;0.395188
9739.000000;0.393759
9738.000000;0.392360
9737.000000;0.390715
9736.000000;0.388852
9735.000000;0.387069
9734.000000;0.385532
9733.000000;0.384026
9732.000000;0.382239
9731.000000;0.380183
9730.000000;0.378142
9729.000000;0.376264
9728.000000;0.374416
9727.000000;0.372427
9726.000000;0.370325
9725.000000;0.368259
9724.000000;0.366325
9723.000000;0.364520
9722.000000;0.362772
9721.000000;0.360971
9720.000000;0.359067
9719.000000;0.357139
9718.000000;0.355321
9717.000000;0.353634
9716.000000;0.351965
9715.000000;0.350209
9714.000000;0.348369
9713.000000;0.346517
9712.000000;0.344722
9711.000000;0.343004
9710.000000;0.341277
9709.000000;0.339388
9708.000000;0.337317
9707.000000;0.335294
9706.000000;0.333563
9705.000000;0.332044
9704.000000;0.330368
9703.000000;0.328302
9702.000000;0.325991
9701.000000;0.323733
9700.000000;0.321656
9699.000000;0.319705
9698.000000;0.317821
9697.000000;0.315998
9696.000000;0.314216
9695.000000;0.312429
9694.000000;0.310606
9693.000000;0.308740
9692.000000;0.306838
9691.000000;0.304952
9690.000000;0.303151
9689.000000;0.301419
9688.000000;0.299627
9687.000000;0.297677
9686.000000;0.295636
9685.000000;0.293640
9684.000000;0.291707
9683.000000;0.289723
9682.000000;0.287618
9681.000000;0.285483
9680.000000;0.283476
9679.000000;0.281632
9678.000000;0.279808
9677.000000;0.277813
9676.000000;0.275605
9675.000000;0.273348
9674.000000;0.271251
9673.000000;0.269348
9672.000000;0.267454
9671.000000;0.265341
9670.000000;0.262956
9669.000000;0.260506
9668.000000;0.258321
9667.000000;0.256579
9666.000000;0.255110
9665.000000;0.253492
9664.000000;0.251428
9663.000000;0.249006
9662.000000;0.246547
9661.000000;0.244246
9660.000000;0.242073
9659.000000;0.239968
9658.000000;0.237938
9657.000000;0.235929
9656.000000;0.233779
9655.000000;0.231451
9654.000000;0.229190
9653.000000;0.227270
9652.000000;0.225645
9651.000000;0.223997
9650.000000;0.222117
9649.000000;0.220077
9648.000000;0.218010
9647.000000;0.215898
9646.000000;0.213663
9645.000000;0.211358
9644.000000;0.209134
9643.000000;0.207043
9642.000000;0.204993
9641.000000;0.202869
9640.000000;0.200652
9639.000000;0.198378
9638.000000;0.196086
9637.000000;0.193828
9636.000000;0.191687
9635.000000;0.189695
9634.000000;0.187746
9633.000000;0.185663
9632.000000;0.183374
9631.000000;0.181004
9630.000000;0.178734
9629.000000;0.176620
9628.000000;0.174585
9627.000000;0.172542
9626.000000;0.170483
9625.000000;0.168429
9624.000000;0.166369
9623.000000;0.164264
9622.000000;0.162046
9621.000000;0.159645
9620.000000;0.157058
9619.000000;0.154434
9618.000000;0.151990
9617.000000;0.149800
9616.000000;0.147736
9615.000000;0.145665
9614.000000;0.143647
9613.000000;0.141807
9612.000000;0.140054
9611.000000;0.138083
9610.000000;0.135686
9609.000000;0.132971
9608.000000;0.130233
9607.000000;0.127702
9606.000000;0.125464
9605.000000;0.123527
9604.000000;0.121816
9603.000000;0.120098
9602.000000;0.118075
9601.000000;0.115628
9600.000000;0.112959
9599.000000;0.110399
9598.000000;0.108097
9597.000000;0.105931
9596.000000;0.103694
9595.000000;0.101299
9594.000000;0.098802
9593.000000;0.096290
9592.000000;0.093829
9591.000000;0.091470
9590.000000;0.089226
9589.000000;0.087038
9588.000000;0.084825
9587.000000;0.082606
9586.000000;0.080478
9585.000000;0.078442
9584.000000;0.076324
9583.000000;0.073950
9582.000000;0.071349
9581.000000;0.068703
9580.000000;0.066146
9579.000000;0.063714
9578.000000;0.061453
9577.000000;0.059411
9576.000000;0.057487
9575.000000;0.055419
9574.000000;0.053048
9573.000000;0.050529
9572.000000;0.048172
9571.000000;0.046086
9570.000000;0.044061
9569.000000;0.041788
9568.000000;0.039136
9567.000000;0.036250
9566.000000;0.033424
9565.000000;0.030887
9564.000000;0.028642
9563.000000;0.026501
9562.000000;0.024284
9561.000000;0.021983
9560.000000;0.019715
9559.000000;0.017559
9558.000000;0.015502
9557.000000;0.013490
9556.000000;0.011474
9555.000000;0.009397
9554.000000;0.007225
9553.000000;0.004967
9552.000000;0.002636
9551.000000;0.000193
9550.000000;-0.002371
9549.000000;-0.004916
9548.000000;-0.007214
9547.000000;-0.009182
9546.000000;-0.010989
9545.000000;-0.012891
9544.000000;-0.015015
9543.000000;-0.017327
9542.000000;-0.019723
9541.000000;-0.022079
9540.000000;-0.024275
9539.000000;-0.026275
9538.000000;-0.028191
9537.000000;-0.030202
9536.000000;-0.032407
9535.000000;-0.034754
9534.000000;-0.037094
9533.000000;-0.039280
9532.000000;-0.041267
9531.000000;-0.043178
9530.000000;-0.045220
9529.000000;-0.047456
9528.000000;-0.049694
9527.000000;-0.051707
9526.000000;-0.053532
9525.000000;-0.055450
9524.000000;-0.057635
9523.000000;-0.059930
9522.000000;-0.062059
9521.000000;-0.063971
9520.000000;-0.065871
9519.000000;-0.067915
9518.000000;-0.070001
9517.000000;-0.071890
9516.000000;-0.073481
9515.000000;-0.074900
9514.000000;-0.076361
9513.000000;-0.077994
9512.000000;-0.079807
9511.000000;-0.081752
9510.000000;-0.083788
9509.000000;-0.085871
9508.000000;-0.087925
9507.000000;-0.089856
9506.000000;-0.091615
9505.000000;-0.093250
9504.000000;-0.094879
9503.000000;-0.096585
9502.000000;-0.098336
9501.000000;-0.100036
9500.000000;-0.101667
9499.000000;-0.103331
9498.000000;-0.105107
9497.000000;-0.106899
9496.000000;-0.108489
9495.000000;-0.109776
9494.000000;-0.110906
9493.000000;-0.112118
9492.000000;-0.113494
9491.000000;-0.114931
9490.000000;-0.116337
9489.000000;-0.117774
9488.000000;-0.119339
9487.000000;-0.120951
9486.000000;-0.122365
9485.000000;-0.123447
9484.000000;-0.124354
9483.000000;-0.125394
9482.000000;-0.126693
9481.000000;-0.128086
9480.000000;-0.129312
9479.000000;-0.130267
9478.000000;-0.131019
9477.000000;-0.131686
9476.000000;-0.132396
9475.000000;-0.133300
9474.000000;-0.134502
9473.000000;-0.135914
9472.000000;-0.137275
9471.000000;-0.138367
9470.000000;-0.139202
9469.000000;-0.139965
9468.000000;-0.140814
9467.000000;-0.141750
9466.000000;-0.142634
9465.000000;-0.143299
9464.000000;-0.143678
9463.000000;-0.143898
9462.000000;-0.144205
9461.000000;-0.144759
9460.000000;-0.145500
9459.000000;-0.146238
9458.000000;-0.146860
9457.000000;-0.147412
9456.000000;-0.147995
9455.000000;-0.148643
9454.000000;-0.149284
9453.000000;-0.149783
9452.000000;-0.150032
9451.000000;-0.150052
9450.000000;-0.150009
9449.000000;-0.150073
9448.000000;-0.150233
9447.000000;-0.150319
9446.000000;-0.150211
9445.000000;-0.149983
9444.000000;-0.149825
9443.000000;-0.149886
9442.000000;-0.150230
9441.000000;-0.150822
9440.000000;-0.151473
9439.000000;-0.151866
9438.000000;-0.151774
9437.000000;-0.151282
9436.000000;-0.150704
9435.000000;-0.150266
9434.000000;-0.149942
9433.000000;-0.149614
9432.000000;-0.149279
9431.000000;-0.149022
9430.000000;-0.148858
9429.000000;-0.148704
9428.000000;-0.148489
9427.000000;-0.148194
9426.000000;-0.147800
9425.000000;-0.147273
9424.000000;-0.146643
9423.000000;-0.146023
9422.000000;-0.145519
9421.000000;-0.145152
9420.000000;-0.144870
9419.000000;-0.144589
9418.000000;-0.144214
9417.000000;-0.143689
9416.000000;-0.143072
9415.000000;-0.142519
9414.000000;-0.142120
9413.000000;-0.141770
9412.000000;-0.141258
9411.000000;-0.140472
9410.000000;-0.139479
9409.000000;-0.138440
9408.000000;-0.137507
9407.000000;-0.136777
9406.000000;-0.136235
9405.000000;-0.135728
9404.000000;-0.135069
9403.000000;-0.134232
9402.000000;-0.133364
9401.000000;-0.132582
9400.000000;-0.131832
9399.000000;-0.131008
9398.000000;-0.130133
9397.000000;-0.129307
9396.000000;-0.128518
9395.000000;-0.127631
9394.000000;-0.126585
9393.000000;-0.125501
9392.000000;-0.124524
9391.000000;-0.123640
9390.000000;-0.122703
9389.000000;-0.121613
9388.000000;-0.120412
9387.000000;-0.119231
9386.000000;-0.118184
9385.000000;-0.117276
9384.000000;-0.116371
9383.000000;-0.115275
9382.000000;-0.113918
9381.000000;-0.112459
9380.000000;-0.111176
9379.000000;-0.110230
9378.000000;-0.109512
9377.000000;-0.108727
9376.000000;-0.107633
9375.000000;-0.106238
9374.000000;-0.104778
9373.000000;-0.103493
9372.000000;-0.102391
9371.000000;-0.101287
9370.000000;-0.100054
9369.000000;-0.098766
9368.000000;-0.097567
9367.000000;-0.096472
9366.000000;-0.095404
9365.000000;-0.094351
9364.000000;-0.093378
9363.000000;-0.092454
9362.000000;-0.091408
9361.000000;-0.090117
9360.000000;-0.088680
9359.000000;-0.087326
9358.000000;-0.086185
9357.000000;-0.085168
9356.000000;-0.084074
9355.000000;-0.082768
9354.000000;-0.081280
9353.000000;-0.079763
9352.000000;-0.078369
9351.000000;-0.077147
9350.000000;-0.076060
9349.000000;-0.075084
9348.000000;-0.074213
9347.000000;-0.073363
9346.000000;-0.072331
9345.000000;-0.070947
9344.000000;-0.069269
9343.000000;-0.067565
9342.000000;-0.066090
9341.000000;-0.064887
9340.000000;-0.063822
9339.000000;-0.062756
9338.000000;-0.061649
9337.000000;-0.060530
9336.000000;-0.059403
9335.000000;-0.058230
9334.000000;-0.056980
9333.000000;-0.055691
9332.000000;-0.054455
9331.000000;-0.053339
9330.000000;-0.052325
9329.000000;-0.051330
9328.000000;-0.050262
9327.000000;-0.049061
9326.000000;-0.047719
9325.000000;-0.046292
9324.000000;-0.044912
9323.000000;-0.043725
9322.000000;-0.042796
9321.000000;-0.042045
9320.000000;-0.041291
9319.000000;-0.040377
9318.000000;-0.039264
9317.000000;-0.038018
9316.000000;-0.036725
9315.000000;-0.035413
9314.000000;-0.034063
9313.000000;-0.032683
9312.000000;-0.031346
9311.000000;-0.030151
9310.000000;-0.029138
9309.000000;-0.028247
9308.000000;-0.027336
9307.000000;-0.026265
9306.000000;-0.024978
9305.000000;-0.023565
9304.000000;-0.022190
9303.000000;-0.020936
9302.000000;-0.019722
9301.000000;-0.018436
9300.000000;-0.017138
9299.000000;-0.016023
9298.000000;-0.015158
9297.000000;-0.014325
9296.000000;-0.013239
9295.000000;-0.011864
9294.000000;-0.010417
9293.000000;-0.009074
9292.000000;-0.007809
9291.000000;-0.006552
9290.000000;-0.005357
9289.000000;-0.004324
9288.000000;-0.003418
9287.000000;-0.002519
9286.000000;-0.001598
9285.000000;-0.000733
9284.000000;0.000074
9283.000000;0.000964
9282.000000;0.002064
9281.000000;0.003319
9280.000000;0.004549
9279.000000;0.005620
9278.000000;0.006523
9277.000000;0.007331
9276.000000;0.008147
9275.000000;0.009062
9274.000000;0.010098
9273.000000;0.011173
9272.000000;0.012189
9271.000000;0.013153
9270.000000;0.014168
9269.000000;0.015295
9268.000000;0.016470
9267.000000;0.017576
9266.000000;0.018565
9265.000000;0.019469
9264.000000;0.020347
9263.000000;0.021271
9262.000000;0.022339
9261.000000;0.023621
9260.000000;0.025033
9259.000000;0.026335
9258.000000;0.027325
9257.000000;0.028038
9256.000000;0.028695
9255.000000;0.029453
9254.000000;0.030261
9253.000000;0.031008
9252.000000;0.031742
9251.000000;0.032662
9250.000000;0.033886
9249.000000;0.035289
9248.000000;0.036593
9247.000000;0.037600
9246.000000;0.038328
9245.000000;0.038947
9244.000000;0.039608
9243.000000;0.040345
9242.000000;0.041109
9241.000000;0.041870
9240.000000;0.042657
9239.000000;0.043494
9238.000000;0.044355
9237.000000;0.045217
9236.000000;0.046133
9235.000000;0.047174
9234.000000;0.048282
9233.000000;0.049291
9232.000000;0.050140
9231.000000;0.051014
9230.000000;0.052169
9229.000000;0.053603
9228.000000;0.055001
9227.000000;0.056014
9226.000000;0.056579
9225.000000;0.056916
9224.000000;0.057299
9223.000000;0.057865
9222.000000;0.058604
9221.000000;0.059458
9220.000000;0.060388
9219.000000;0.061380
9218.000000;0.062405
9217.000000;0.063367
9216.000000;0.064136
9215.000000;0.064682
9214.000000;0.065152
9213.000000;0.065763
9212.000000;0.066589
9211.000000;0.067501
9210.000000;0.068338
9209.000000;0.069087
9208.000000;0.069852
9207.000000;0.070687
9206.000000;0.071521
9205.000000;0.072255
9204.000000;0.072889
9203.000000;0.073525
9202.000000;0.074271
9201.000000;0.075145
9200.000000;0.076066
9199.000000;0.076901
9198.000000;0.077566
9197.000000;0.078087
9196.000000;0.078587
9195.000000;0.079208
9194.000000;0.080026
9193.000000;0.080995
9192.000000;0.081963
9191.000000;0.082767
9190.000000;0.083354
9189.000000;0.083824
9188.000000;0.084318
9187.000000;0.084902
9186.000000;0.085559
9185.000000;0.086262
9184.000000;0.086983
9183.000000;0.087670
9182.000000;0.088285
9181.000000;0.088882
9180.000000;0.089572
9179.000000;0.090390
9178.000000;0.091249
9177.000000;0.092044
9176.000000;0.092740
9175.000000;0.093343
9174.000000;0.093847
9173.000000;0.094288
9172.000000;0.094775
9171.000000;0.095410
9170.000000;0.096188
9169.000000;0.097012
9168.000000;0.097781
9167.000000;0.098425
9166.000000;0.098927
9165.000000;0.099369
9164.000000;0.099917
9163.000000;0.100660
9162.000000;0.101476
9161.000000;0.102131
9160.000000;0.102528
9159.000000;0.102788
9158.000000;0.103104
9157.000000;0.103595
9156.000000;0.104294
9155.000000;0.105183
9154.000000;0.106157
9153.000000;0.107044
9152.000000;0.107731
9151.000000;0.108251
9150.000000;0.108713
9149.000000;0.109157
9148.000000;0.109546
9147.000000;0.109883
9146.000000;0.110256
9145.000000;0.110759
9144.000000;0.111395
9143.000000;0.112082
9142.000000;0.112727
9141.000000;0.113269
9140.000000;0.113688
9139.000000;0.114008
9138.000000;0.114319
9137.000000;0.114735
9136.000000;0.115310
9135.000000;0.116004
9134.000000;0.116731
9133.000000;0.117430
9132.000000;0.118052
9131.000000;0.118539
9130.000000;0.118888
9129.000000;0.119230
9128.000000;0.119745
9127.000000;0.120449
9126.000000;0.121160
9125.000000;0.121722
9124.000000;0.122184
9123.000000;0.122706
9122.000000;0.123319
9121.000000;0.123904
9120.000000;0.124366
9119.000000;0.124729
9118.000000;0.125047
9117.000000;0.125330
9116.000000;0.125600
9115.000000;0.125922
9114.000000;0.126331
9113.000000;0.126781
9112.000000;0.127214
9111.000000;0.127648
9110.000000;0.128132
9109.000000;0.128657
9108.000000;0.129147
9107.000000;0.129538
9106.000000;0.129824
9105.000000;0.130054
9104.000000;0.130304
9103.000000;0.130661
9102.000000;0.131168
9101.000000;0.131777
9100.000000;0.132362
9099.000000;0.132807
9098.000000;0.133092
9097.000000;0.133306
9096.000000;0.133585
9095.000000;0.134012
9094.000000;0.134567
9093.000000;0.135162
9092.000000;0.135725
9091.000000;0.136237
9090.000000;0.136727
9089.000000;0.137218
9088.000000;0.137699
9087.000000;0.138109
9086.000000;0.138389
9085.000000;0.138568
9084.000000;0.138795
9083.000000;0.139229
9082.000000;0.139865
9081.000000;0.140510
9080.000000;0.140947
9079.000000;0.141120
9078.000000;0.141153
9077.000000;0.141240
9076.000000;0.141509
9075.000000;0.141954
9074.000000;0.142462
9073.000000;0.142906
9072.000000;0.143244
9071.000000;0.143516
9070.000000;0.143762
9069.000000;0.143968
9068.000000;0.144134
9067.000000;0.144337
9066.000000;0.144674
9065.000000;0.145138
