Criado como novo conjunto de dados;"0307_DANIEL.spp","66965.3 Secs"
cm-1;Abs
10000.000000;0.600559
9999.000000;0.600141
9998.000000;0.599470
9997.000000;0.598440
9996.000000;0.597232
9995.000000;0.596170
9994.000000;0.595414
9993.000000;0.594754
9992.000000;0.593812
9991.000000;0.592520
9990.000000;0.591290
9989.000000;0.590535
9988.000000;0.590143
9987.000000;0.589628
9986.000000;0.588757
9985.000000;0.587787
9984.000000;0.587042
9983.000000;0.586484
9982.000000;0.585802
9981.000000;0.584771
9980.000000;0.583464
9979.000000;0.582218
9978.000000;0.581425
9977.000000;0.581208
9976.000000;0.581229
9975.000000;0.580948
9974.000000;0.580154
9973.000000;0.579080
9972.000000;0.577972
9971.000000;0.576807
9970.000000;0.575574
9969.000000;0.574586
9968.000000;0.574167
9967.000000;0.574126
9966.000000;0.573831
9965.000000;0.572893
9964.000000;0.571548
9963.000000;0.570289
9962.000000;0.569297
9961.000000;0.568377
9960.000000;0.567307
9959.000000;0.566097
9958.000000;0.564931
9957.000000;0.563972
9956.000000;0.563246
9955.000000;0.562625
9954.000000;0.561905
9953.000000;0.560955
9952.000000;0.559852
9951.000000;0.558851
9950.000000;0.558171
9949.000000;0.557775
9948.000000;0.557385
9947.000000;0.556734
9946.000000;0.555802
9945.000000;0.554758
9944.000000;0.553718
9943.000000;0.552662
9942.000000;0.551589
9941.000000;0.550622
9940.000000;0.549869
9939.000000;0.549247
9938.000000;0.548555
9937.000000;0.547681
9936.000000;0.546644
9935.000000;0.545460
9934.000000;0.544122
9933.000000;0.542761
9932.000000;0.541660
9931.000000;0.540980
9930.000000;0.540523
9929.000000;0.539885
9928.000000;0.538863
9927.000000;0.537635
9926.000000;0.536544
9925.000000;0.535763
9924.000000;0.535215
9923.000000;0.534716
9922.000000;0.534120
9921.000000;0.533333
9920.000000;0.532276
9919.000000;0.530939
9918.000000;0.529444
9917.000000;0.528006
9916.000000;0.526775
9915.000000;0.525702
9914.000000;0.524602
9913.000000;0.523388
9912.000000;0.522209
9911.000000;0.521333
9910.000000;0.520844
9909.000000;0.520490
9908.000000;0.519856
9907.000000;0.518714
9906.000000;0.517215
9905.000000;0.515759
9904.000000;0.514709
9903.000000;0.514162
9902.000000;0.513904
9901.000000;0.513536
9900.000000;0.512738
9899.000000;0.511503
9898.000000;0.510103
9897.000000;0.508807
9896.000000;0.507662
9895.000000;0.506581
9894.000000;0.505561
9893.000000;0.504657
9892.000000;0.503794
9891.000000;0.502757
9890.000000;0.501496
9889.000000;0.500286
9888.000000;0.499453
9887.000000;0.498967
9886.000000;0.498441
9885.000000;0.497541
9884.000000;0.496303
9883.000000;0.495025
9882.000000;0.493964
9881.000000;0.493185
9880.000000;0.492576
9879.000000;0.491920
9878.000000;0.490986
9877.000000;0.489688
9876.000000;0.488168
9875.000000;0.486657
9874.000000;0.485279
9873.000000;0.484025
9872.000000;0.482907
9871.000000;0.482025
9870.000000;0.481447
9869.000000;0.481095
9868.000000;0.480789
9867.000000;0.480362
9866.000000;0.479668
9865.000000;0.478561
9864.000000;0.477003
9863.000000;0.475184
9862.000000;0.473443
9861.000000;0.472027
9860.000000;0.470969
9859.000000;0.470200
9858.000000;0.469659
9857.000000;0.469239
9856.000000;0.468699
9855.000000;0.467762
9854.000000;0.466365
9853.000000;0.464742
9852.000000;0.463245
9851.000000;0.462051
9850.000000;0.461062
9849.000000;0.460055
9848.000000;0.458917
9847.000000;0.457689
9846.000000;0.456411
9845.000000;0.455036
9844.000000;0.453556
9843.000000;0.452142
9842.000000;0.450999
9841.000000;0.450086
9840.000000;0.449122
9839.000000;0.447946
9838.000000;0.446736
9837.000000;0.445766
9836.000000;0.445046
9835.000000;0.444332
9834.000000;0.443431
9833.000000;0.442337
9832.000000;0.441111
9831.000000;0.439769
9830.000000;0.438309
9829.000000;0.436733
9828.000000;0.435036
9827.000000;0.433307
9826.000000;0.431842
9825.000000;0.430962
9824.000000;0.430638
9823.000000;0.430458
9822.000000;0.430043
9821.000000;0.429342
9820.000000;0.428417
9819.000000;0.427144
9818.000000;0.425394
9817.000000;0.423418
9816.000000;0.421709
9815.000000;0.420426
9814.000000;0.419206
9813.000000;0.417678
9812.000000;0.415961
9811.000000;0.414481
9810.000000;0.413447
9809.000000;0.412706
9808.000000;0.412038
9807.000000;0.411345
9806.000000;0.410521
9805.000000;0.409389
9804.000000;0.407887
9803.000000;0.406214
9802.000000;0.404636
9801.000000;0.403226
9800.000000;0.401887
9799.000000;0.400587
9798.000000;0.399409
9797.000000;0.398373
9796.000000;0.397336
9795.000000;0.396127
9794.000000;0.394726
9793.000000;0.393268
9792.000000;0.391934
9791.000000;0.390826
9790.000000;0.389867
9789.000000;0.388779
9788.000000;0.387289
9787.000000;0.385430
9786.000000;0.383559
9785.000000;0.382015
9784.000000;0.380816
9783.000000;0.379764
9782.000000;0.378705
9781.000000;0.377569
9780.000000;0.376250
9779.000000;0.374676
9778.000000;0.372988
9777.000000;0.371449
9776.000000;0.370116
9775.000000;0.368777
9774.000000;0.367281
9773.000000;0.365785
9772.000000;0.364538
9771.000000;0.363515
9770.000000;0.362446
9769.000000;0.361182
9768.000000;0.359889
9767.000000;0.358847
9766.000000;0.358125
9765.000000;0.357483
9764.000000;0.356552
9763.000000;0.355123
9762.000000;0.353319
9761.000000;0.351495
9760.000000;0.349947
9759.000000;0.348700
9758.000000;0.347553
9757.000000;0.346293
9756.000000;0.344849
9755.000000;0.343289
9754.000000;0.341720
9753.000000;0.340171
9752.000000;0.338582
9751.000000;0.336946
9750.000000;0.335437
9749.000000;0.334277
9748.000000;0.333421
9747.000000;0.332486
9746.000000;0.331119
9745.000000;0.329364
9744.000000;0.327561
9743.000000;0.325957
9742.000000;0.324573
9741.000000;0.323353
9740.000000;0.322254
9739.000000;0.321141
9738.000000;0.319808
9737.000000;0.318195
9736.000000;0.316488
9735.000000;0.314939
9734.000000;0.313641
9733.000000;0.312506
9732.000000;0.311331
9731.000000;0.309889
9730.000000;0.308096
9729.000000;0.306155
9728.000000;0.304385
9727.000000;0.302811
9726.000000;0.301091
9725.000000;0.298998
9724.000000;0.296859
9723.000000;0.295272
9722.000000;0.294428
9721.000000;0.293917
9720.000000;0.293197
9719.000000;0.292077
9718.000000;0.290665
9717.000000;0.289046
9716.000000;0.287212
9715.000000;0.285236
9714.000000;0.283336
9713.000000;0.281692
9712.000000;0.280270
9711.000000;0.278878
9710.000000;0.277369
9709.000000;0.275748
9708.000000;0.274085
9707.000000;0.272364
9706.000000;0.270461
9705.000000;0.268311
9704.000000;0.266054
9703.000000;0.263988
9702.000000;0.262347
9701.000000;0.261126
9700.000000;0.260085
9699.000000;0.258927
9698.000000;0.257477
9697.000000;0.255776
9696.000000;0.253988
9695.000000;0.252242
9694.000000;0.250554
9693.000000;0.248904
9692.000000;0.247334
9691.000000;0.245905
9690.000000;0.244587
9689.000000;0.243256
9688.000000;0.241806
9687.000000;0.240200
9686.000000;0.238431
9685.000000;0.236505
9684.000000;0.234503
9683.000000;0.232567
9682.000000;0.230758
9681.000000;0.228954
9680.000000;0.226992
9679.000000;0.224905
9678.000000;0.222948
9677.000000;0.221344
9676.000000;0.220050
9675.000000;0.218825
9674.000000;0.217502
9673.000000;0.216104
9672.000000;0.214653
9671.000000;0.212966
9670.000000;0.210791
9669.000000;0.208182
9668.000000;0.205603
9667.000000;0.203568
9666.000000;0.202177
9665.000000;0.201080
9664.000000;0.199851
9663.000000;0.198304
9662.000000;0.196469
9661.000000;0.194417
9660.000000;0.192190
9659.000000;0.189857
9658.000000;0.187531
9657.000000;0.185325
9656.000000;0.183295
9655.000000;0.181447
9654.000000;0.179755
9653.000000;0.178215
9652.000000;0.176867
9651.000000;0.175728
9650.000000;0.174693
9649.000000;0.173544
9648.000000;0.172081
9647.000000;0.170222
9646.000000;0.167981
9645.000000;0.165445
9644.000000;0.162810
9643.000000;0.160365
9642.000000;0.158298
9641.000000;0.156524
9640.000000;0.154780
9639.000000;0.152916
9638.000000;0.151034
9637.000000;0.149330
9636.000000;0.147853
9635.000000;0.146450
9634.000000;0.144885
9633.000000;0.142993
9632.000000;0.140769
9631.000000;0.138367
9630.000000;0.136036
9629.000000;0.133978
9628.000000;0.132227
9627.000000;0.130661
9626.000000;0.129127
9625.000000;0.127552
9624.000000;0.125928
9623.000000;0.124236
9622.000000;0.122406
9621.000000;0.120384
9620.000000;0.118222
9619.000000;0.116073
9618.000000;0.114073
9617.000000;0.112244
9616.000000;0.110506
9615.000000;0.108753
9614.000000;0.106889
9613.000000;0.104833
9612.000000;0.102581
9611.000000;0.100272
9610.000000;0.098146
9609.000000;0.096368
9608.000000;0.094867
9607.000000;0.093377
9606.000000;0.091669
9605.000000;0.089739
9604.000000;0.087763
9603.000000;0.085856
9602.000000;0.083915
9601.000000;0.081726
9600.000000;0.079247
9599.000000;0.076711
9598.000000;0.074431
9597.000000;0.072490
9596.000000;0.070701
9595.000000;0.068834
9594.000000;0.066850
9593.000000;0.064852
9592.000000;0.062890
9591.000000;0.060889
9590.000000;0.058780
9589.000000;0.056591
9588.000000;0.054392
9587.000000;0.052176
9586.000000;0.049884
9585.000000;0.047533
9584.000000;0.045236
9583.000000;0.043094
9582.000000;0.041106
9581.000000;0.039220
9580.000000;0.037414
9579.000000;0.035655
9578.000000;0.033834
9577.000000;0.031851
9576.000000;0.029760
9575.000000;0.027735
9574.000000;0.025845
9573.000000;0.023974
9572.000000;0.021984
9571.000000;0.019891
9570.000000;0.017798
9569.000000;0.015742
9568.000000;0.013730
9567.000000;0.011848
9566.000000;0.010181
9565.000000;0.008598
9564.000000;0.006807
9563.000000;0.004682
9562.000000;0.002400
9561.000000;0.000176
9560.000000;-0.002025
9559.000000;-0.004349
9558.000000;-0.006725
9557.000000;-0.008849
9556.000000;-0.010551
9555.000000;-0.012029
9554.000000;-0.013669
9553.000000;-0.015687
9552.000000;-0.018022
9551.000000;-0.020481
9550.000000;-0.022894
9549.000000;-0.025124
9548.000000;-0.027066
9547.000000;-0.028711
9546.000000;-0.030188
9545.000000;-0.031699
9544.000000;-0.033401
9543.000000;-0.035342
9542.000000;-0.037474
9541.000000;-0.039685
9540.000000;-0.041829
9539.000000;-0.043791
9538.000000;-0.045599
9537.000000;-0.047427
9536.000000;-0.049435
9535.000000;-0.051593
9534.000000;-0.053708
9533.000000;-0.055632
9532.000000;-0.057405
9531.000000;-0.059160
9530.000000;-0.060951
9529.000000;-0.062695
9528.000000;-0.064269
9527.000000;-0.065624
9526.000000;-0.066860
9525.000000;-0.068239
9524.000000;-0.070062
9523.000000;-0.072397
9522.000000;-0.074922
9521.000000;-0.077150
9520.000000;-0.078864
9519.000000;-0.080287
9518.000000;-0.081763
9517.000000;-0.083370
9516.000000;-0.084940
9515.000000;-0.086392
9514.000000;-0.087867
9513.000000;-0.089502
9512.000000;-0.091191
9511.000000;-0.092705
9510.000000;-0.094030
9509.000000;-0.095435
9508.000000;-0.097184
9507.000000;-0.099188
9506.000000;-0.101047
9505.000000;-0.102435
9504.000000;-0.103444
9503.000000;-0.104501
9502.000000;-0.105941
9501.000000;-0.107672
9500.000000;-0.109291
9499.000000;-0.110538
9498.000000;-0.111560
9497.000000;-0.112715
9496.000000;-0.114165
9495.000000;-0.115745
9494.000000;-0.117200
9493.000000;-0.118479
9492.000000;-0.119752
9491.000000;-0.121186
9490.000000;-0.122741
9489.000000;-0.124160
9488.000000;-0.125182
9487.000000;-0.125785
9486.000000;-0.126257
9485.000000;-0.126989
9484.000000;-0.128163
9483.000000;-0.129647
9482.000000;-0.131145
9481.000000;-0.132393
9480.000000;-0.133212
9479.000000;-0.133542
9478.000000;-0.133539
9477.000000;-0.133584
9476.000000;-0.134069
9475.000000;-0.135111
9474.000000;-0.136518
9473.000000;-0.137989
9472.000000;-0.139289
9471.000000;-0.140278
9470.000000;-0.140910
9469.000000;-0.141283
9468.000000;-0.141619
9467.000000;-0.142134
9466.000000;-0.142879
9465.000000;-0.143695
9464.000000;-0.144322
9463.000000;-0.144608
9462.000000;-0.144662
9461.000000;-0.144752
9460.000000;-0.145024
9459.000000;-0.145372
9458.000000;-0.145635
9457.000000;-0.145828
9456.000000;-0.146059
9455.000000;-0.146305
9454.000000;-0.146425
9453.000000;-0.146386
9452.000000;-0.146306
9451.000000;-0.146285
9450.000000;-0.146352
9449.000000;-0.146544
9448.000000;-0.146863
9447.000000;-0.147096
9446.000000;-0.146920
9445.000000;-0.146289
9444.000000;-0.145567
9443.000000;-0.145170
9442.000000;-0.145169
9441.000000;-0.145309
9440.000000;-0.145281
9439.000000;-0.144910
9438.000000;-0.144282
9437.000000;-0.143798
9436.000000;-0.143848
9435.000000;-0.144262
9434.000000;-0.144282
9433.000000;-0.143375
9432.000000;-0.141940
9431.000000;-0.140923
9430.000000;-0.140788
9429.000000;-0.141144
9428.000000;-0.141334
9427.000000;-0.141069
9426.000000;-0.140458
9425.000000;-0.139710
9424.000000;-0.138969
9423.000000;-0.138275
9422.000000;-0.137540
9421.000000;-0.136643
9420.000000;-0.135583
9419.000000;-0.134458
9418.000000;-0.133337
9417.000000;-0.132294
9416.000000;-0.131516
9415.000000;-0.131136
9414.000000;-0.130918
9413.000000;-0.130399
9412.000000;-0.129441
9411.000000;-0.128416
9410.000000;-0.127710
9409.000000;-0.127244
9408.000000;-0.126671
9407.000000;-0.125853
9406.000000;-0.124918
9405.000000;-0.123958
9404.000000;-0.122914
9403.000000;-0.121749
9402.000000;-0.120528
9401.000000;-0.119307
9400.000000;-0.118076
9399.000000;-0.116812
9398.000000;-0.115514
9397.000000;-0.114194
9396.000000;-0.112905
9395.000000;-0.111771
9394.000000;-0.110876
9393.000000;-0.110120
9392.000000;-0.109248
9391.000000;-0.108058
9390.000000;-0.106571
9389.000000;-0.105035
9388.000000;-0.103742
9387.000000;-0.102757
9386.000000;-0.101773
9385.000000;-0.100339
9384.000000;-0.098332
9383.000000;-0.096156
9382.000000;-0.094402
9381.000000;-0.093320
9380.000000;-0.092695
9379.000000;-0.092132
9378.000000;-0.091354
9377.000000;-0.090271
9376.000000;-0.088951
9375.000000;-0.087555
9374.000000;-0.086216
9373.000000;-0.084932
9372.000000;-0.083625
9371.000000;-0.082287
9370.000000;-0.080976
9369.000000;-0.079678
9368.000000;-0.078292
9367.000000;-0.076798
9366.000000;-0.075358
9365.000000;-0.074160
9364.000000;-0.073177
9363.000000;-0.072147
9362.000000;-0.070805
9361.000000;-0.069113
9360.000000;-0.067286
9359.000000;-0.065591
9358.000000;-0.064139
9357.000000;-0.062839
9356.000000;-0.061523
9355.000000;-0.060058
9354.000000;-0.058388
9353.000000;-0.056557
9352.000000;-0.054741
9351.000000;-0.053175
9350.000000;-0.051966
9349.000000;-0.051022
9348.000000;-0.050175
9347.000000;-0.049327
9346.000000;-0.048433
9345.000000;-0.047414
9344.000000;-0.046180
9343.000000;-0.044676
9342.000000;-0.042902
9341.000000;-0.040947
9340.000000;-0.039042
9339.000000;-0.037451
9338.000000;-0.036194
9337.000000;-0.034996
9336.000000;-0.033645
9335.000000;-0.032286
9334.000000;-0.031169
9333.000000;-0.030190
9332.000000;-0.028937
9331.000000;-0.027245
9330.000000;-0.025462
9329.000000;-0.024062
9328.000000;-0.023125
9327.000000;-0.022317
9326.000000;-0.021256
9325.000000;-0.019779
9324.000000;-0.017952
9323.000000;-0.016008
9322.000000;-0.014238
9321.000000;-0.012813
9320.000000;-0.011660
9319.000000;-0.010543
9318.000000;-0.009259
9317.000000;-0.007748
9316.000000;-0.006092
9315.000000;-0.004456
9314.000000;-0.003001
9313.000000;-0.001775
9312.000000;-0.000689
9311.000000;0.000409
9310.000000;0.001654
9309.000000;0.003124
9308.000000;0.004770
9307.000000;0.006352
9306.000000;0.007581
9305.000000;0.008425
9304.000000;0.009221
9303.000000;0.010365
9302.000000;0.011945
9301.000000;0.013735
9300.000000;0.015487
9299.000000;0.017084
9298.000000;0.018473
9297.000000;0.019643
9296.000000;0.020720
9295.000000;0.021927
9294.000000;0.023333
9293.000000;0.024720
9292.000000;0.025816
9291.000000;0.026644
9290.000000;0.027522
9289.000000;0.028693
9288.000000;0.030047
9287.000000;0.031282
9286.000000;0.032302
9285.000000;0.033359
9284.000000;0.034759
9283.000000;0.036488
9282.000000;0.038201
9281.000000;0.039565
9280.000000;0.040556
9279.000000;0.041419
9278.000000;0.042427
9277.000000;0.043706
9276.000000;0.045200
9275.000000;0.046718
9274.000000;0.048047
9273.000000;0.049116
9272.000000;0.050080
9271.000000;0.051211
9270.000000;0.052643
9269.000000;0.054219
9268.000000;0.055598
9267.000000;0.056543
9266.000000;0.057124
9265.000000;0.057628
9264.000000;0.058280
9263.000000;0.059116
9262.000000;0.060141
9261.000000;0.061473
9260.000000;0.063176
9259.000000;0.065009
9258.000000;0.066576
9257.000000;0.067793
9256.000000;0.069002
9255.000000;0.070475
9254.000000;0.071976
9253.000000;0.073019
9252.000000;0.073499
9251.000000;0.073860
9250.000000;0.074620
9249.000000;0.075904
9248.000000;0.077463
9247.000000;0.078979
9246.000000;0.080264
9245.000000;0.081285
9244.000000;0.082108
9243.000000;0.082820
9242.000000;0.083502
9241.000000;0.084267
9240.000000;0.085271
9239.000000;0.086583
9238.000000;0.088018
9237.000000;0.089222
9236.000000;0.089982
9235.000000;0.090443
9234.000000;0.090982
9233.000000;0.091895
9232.000000;0.093192
9231.000000;0.094617
9230.000000;0.095868
9229.000000;0.096857
9228.000000;0.097757
9227.000000;0.098777
9226.000000;0.099940
9225.000000;0.101133
9224.000000;0.102337
9223.000000;0.103641
9222.000000;0.105011
9221.000000;0.106219
9220.000000;0.107071
9219.000000;0.107624
9218.000000;0.108091
9217.000000;0.108608
9216.000000;0.109177
9215.000000;0.109786
9214.000000;0.110498
9213.000000;0.111414
9212.000000;0.112585
9211.000000;0.113921
9210.000000;0.115201
9209.000000;0.116227
9208.000000;0.117029
9207.000000;0.117841
9206.000000;0.118849
9205.000000;0.120023
9204.000000;0.121225
9203.000000;0.122367
9202.000000;0.123399
9201.000000;0.124239
9200.000000;0.124841
9199.000000;0.125293
9198.000000;0.125738
9197.000000;0.126239
9196.000000;0.126788
9195.000000;0.127434
9194.000000;0.128282
9193.000000;0.129365
9192.000000;0.130614
9191.000000;0.131927
9190.000000;0.133184
9189.000000;0.134204
9188.000000;0.134838
9187.000000;0.135213
9186.000000;0.135764
9185.000000;0.136896
9184.000000;0.138546
9183.000000;0.140189
9182.000000;0.141334
9181.000000;0.141981
9180.000000;0.142518
9179.000000;0.143192
9178.000000;0.143871
9177.000000;0.144382
9176.000000;0.144904
9175.000000;0.145792
9174.000000;0.147055
9173.000000;0.148261
9172.000000;0.149035
9171.000000;0.149435
9170.000000;0.149738
9169.000000;0.150070
9168.000000;0.150418
9167.000000;0.150855
9166.000000;0.151505
9165.000000;0.152347
9164.000000;0.153235
9163.000000;0.154077
9162.000000;0.154844
9161.000000;0.155470
9160.000000;0.155924
9159.000000;0.156360
9158.000000;0.157010
9157.000000;0.157921
9156.000000;0.158969
9155.000000;0.160085
9154.000000;0.161248
9153.000000;0.162279
9152.000000;0.162937
9151.000000;0.163293
9150.000000;0.163755
9149.000000;0.164561
9148.000000;0.165468
9147.000000;0.166112
9146.000000;0.166486
9145.000000;0.166846
9144.000000;0.167313
9143.000000;0.167791
9142.000000;0.168220
9141.000000;0.168658
9140.000000;0.169137
9139.000000;0.169627
9138.000000;0.170170
9137.000000;0.170890
9136.000000;0.171792
9135.000000;0.172673
9134.000000;0.173280
9133.000000;0.173558
9132.000000;0.173719
9131.000000;0.174131
9130.000000;0.175031
9129.000000;0.176281
9128.000000;0.177446
9127.000000;0.178194
9126.000000;0.178586
9125.000000;0.178894
9124.000000;0.179259
9123.000000;0.179681
9122.000000;0.180208
9121.000000;0.180916
9120.000000;0.181718
9119.000000;0.182419
9118.000000;0.182997
9117.000000;0.183621
9116.000000;0.184374
9115.000000;0.185117
9114.000000;0.185710
9113.000000;0.186201
9112.000000;0.186706
9111.000000;0.187271
9110.000000;0.187915
9109.000000;0.188662
9108.000000;0.189451
9107.000000;0.190133
9106.000000;0.190637
9105.000000;0.191018
9104.000000;0.191297
9103.000000;0.191417
9102.000000;0.191456
9101.000000;0.191690
9100.000000;0.192284
9099.000000;0.193080
9098.000000;0.193847
9097.000000;0.194609
9096.000000;0.195526
9095.000000;0.196535
9094.000000;0.197363
9093.000000;0.197861
9092.000000;0.198166
9091.000000;0.198506
9090.000000;0.198998
9089.000000;0.199611
9088.000000;0.200204
9087.000000;0.200611
9086.000000;0.200826
9085.000000;0.201065
9084.000000;0.201525
9083.000000;0.202139
9082.000000;0.202704
9081.000000;0.203195
9080.000000;0.203723
9079.000000;0.204259
9078.000000;0.204628
9077.000000;0.204808
9076.000000;0.205015
9075.000000;0.205416
9074.000000;0.205955
9073.000000;0.206538
9072.000000;0.207182
9071.000000;0.207888
9070.000000;0.208555
9069.000000;0.209141
9068.000000;0.209721
9067.000000;0.210294
9066.000000;0.210683
9065.000000;0.210805
