Criado como novo conjunto de dados;"0307_DANIEL.spp","16563.1 Secs"
cm-1;Abs
10000.000000;0.866420
9999.000000;0.865468
9998.000000;0.864523
9997.000000;0.863571
9996.000000;0.862636
9995.000000;0.861676
9994.000000;0.860787
9993.000000;0.860024
9992.000000;0.859137
9991.000000;0.858238
9990.000000;0.857375
9989.000000;0.856399
9988.000000;0.855158
9987.000000;0.853762
9986.000000;0.852380
9985.000000;0.850921
9984.000000;0.849156
9983.000000;0.847144
9982.000000;0.845315
9981.000000;0.844055
9980.000000;0.843360
9979.000000;0.842958
9978.000000;0.842651
9977.000000;0.842387
9976.000000;0.842041
9975.000000;0.841317
9974.000000;0.840005
9973.000000;0.838290
9972.000000;0.836638
9971.000000;0.835330
9970.000000;0.834227
9969.000000;0.833072
9968.000000;0.831897
9967.000000;0.830917
9966.000000;0.830085
9965.000000;0.829023
9964.000000;0.827500
9963.000000;0.825749
9962.000000;0.824145
9961.000000;0.822740
9960.000000;0.821352
9959.000000;0.819992
9958.000000;0.818921
9957.000000;0.818215
9956.000000;0.817519
9955.000000;0.816382
9954.000000;0.814732
9953.000000;0.812907
9952.000000;0.811261
9951.000000;0.809874
9950.000000;0.808606
9949.000000;0.807316
9948.000000;0.805983
9947.000000;0.804651
9946.000000;0.803346
9945.000000;0.802079
9944.000000;0.800901
9943.000000;0.799900
9942.000000;0.799080
9941.000000;0.798271
9940.000000;0.797217
9939.000000;0.795754
9938.000000;0.793934
9937.000000;0.792005
9936.000000;0.790315
9935.000000;0.789151
9934.000000;0.788537
9933.000000;0.788133
9932.000000;0.787430
9931.000000;0.786133
9930.000000;0.784399
9929.000000;0.782659
9928.000000;0.781212
9927.000000;0.779981
9926.000000;0.778662
9925.000000;0.777092
9924.000000;0.775451
9923.000000;0.774067
9922.000000;0.773052
9921.000000;0.772186
9920.000000;0.771189
9919.000000;0.770012
9918.000000;0.768818
9917.000000;0.767721
9916.000000;0.766663
9915.000000;0.765506
9914.000000;0.764130
9913.000000;0.762456
9912.000000;0.760528
9911.000000;0.758622
9910.000000;0.757141
9909.000000;0.756267
9908.000000;0.755739
9907.000000;0.755041
9906.000000;0.753831
9905.000000;0.752161
9904.000000;0.750350
9903.000000;0.748730
9902.000000;0.747504
9901.000000;0.746718
9900.000000;0.746241
9899.000000;0.745722
9898.000000;0.744666
9897.000000;0.742738
9896.000000;0.740118
9895.000000;0.737484
9894.000000;0.735524
9893.000000;0.734407
9892.000000;0.733762
9891.000000;0.733119
9890.000000;0.732268
9889.000000;0.731212
9888.000000;0.729970
9887.000000;0.728549
9886.000000;0.727022
9885.000000;0.725504
9884.000000;0.724071
9883.000000;0.722738
9882.000000;0.721456
9881.000000;0.720076
9880.000000;0.718447
9879.000000;0.716657
9878.000000;0.715077
9877.000000;0.714007
9876.000000;0.713302
9875.000000;0.712481
9874.000000;0.711186
9873.000000;0.709441
9872.000000;0.707487
9871.000000;0.705567
9870.000000;0.703899
9869.000000;0.702668
9868.000000;0.701873
9867.000000;0.701244
9866.000000;0.700396
9865.000000;0.699081
9864.000000;0.697337
9863.000000;0.695463
9862.000000;0.693848
9861.000000;0.692654
9860.000000;0.691631
9859.000000;0.690338
9858.000000;0.688637
9857.000000;0.686838
9856.000000;0.685290
9855.000000;0.683953
9854.000000;0.682545
9853.000000;0.681010
9852.000000;0.679605
9851.000000;0.678519
9850.000000;0.677562
9849.000000;0.676322
9848.000000;0.674552
9847.000000;0.672345
9846.000000;0.670036
9845.000000;0.668001
9844.000000;0.666475
9843.000000;0.665433
9842.000000;0.664610
9841.000000;0.663704
9840.000000;0.662607
9839.000000;0.661443
9838.000000;0.660363
9837.000000;0.659316
9836.000000;0.658054
9835.000000;0.656372
9834.000000;0.654300
9833.000000;0.652046
9832.000000;0.649791
9831.000000;0.647637
9830.000000;0.645719
9829.000000;0.644218
9828.000000;0.643161
9827.000000;0.642264
9826.000000;0.641126
9825.000000;0.639579
9824.000000;0.637777
9823.000000;0.635969
9822.000000;0.634288
9821.000000;0.632769
9820.000000;0.631396
9819.000000;0.630058
9818.000000;0.628554
9817.000000;0.626780
9816.000000;0.624882
9815.000000;0.623135
9814.000000;0.621683
9813.000000;0.620445
9812.000000;0.619246
9811.000000;0.617958
9810.000000;0.616522
9809.000000;0.614941
9808.000000;0.613285
9807.000000;0.611664
9806.000000;0.610139
9805.000000;0.608690
9804.000000;0.607246
9803.000000;0.605711
9802.000000;0.603976
9801.000000;0.602008
9800.000000;0.599980
9799.000000;0.598211
9798.000000;0.596877
9797.000000;0.595786
9796.000000;0.594532
9795.000000;0.592892
9794.000000;0.591006
9793.000000;0.589164
9792.000000;0.587507
9791.000000;0.585986
9790.000000;0.584508
9789.000000;0.583000
9788.000000;0.581376
9787.000000;0.579577
9786.000000;0.577676
9785.000000;0.575859
9784.000000;0.574244
9783.000000;0.572785
9782.000000;0.571375
9781.000000;0.569966
9780.000000;0.568533
9779.000000;0.567022
9778.000000;0.565444
9777.000000;0.563964
9776.000000;0.562706
9775.000000;0.561478
9774.000000;0.559869
9773.000000;0.557724
9772.000000;0.555386
9771.000000;0.553332
9770.000000;0.551677
9769.000000;0.550165
9768.000000;0.548581
9767.000000;0.546953
9766.000000;0.545322
9765.000000;0.543540
9764.000000;0.541461
9763.000000;0.539249
9762.000000;0.537285
9761.000000;0.535764
9760.000000;0.534508
9759.000000;0.533204
9758.000000;0.531725
9757.000000;0.530154
9756.000000;0.528579
9755.000000;0.526946
9754.000000;0.525109
9753.000000;0.522990
9752.000000;0.520694
9751.000000;0.518508
9750.000000;0.516740
9749.000000;0.515453
9748.000000;0.514336
9747.000000;0.512912
9746.000000;0.510954
9745.000000;0.508694
9744.000000;0.506563
9743.000000;0.504767
9742.000000;0.503169
9741.000000;0.501533
9740.000000;0.499813
9739.000000;0.498152
9738.000000;0.496659
9737.000000;0.495256
9736.000000;0.493731
9735.000000;0.491915
9734.000000;0.489814
9733.000000;0.487614
9732.000000;0.485568
9731.000000;0.483808
9730.000000;0.482243
9729.000000;0.480659
9728.000000;0.478910
9727.000000;0.477027
9726.000000;0.475121
9725.000000;0.473265
9724.000000;0.471499
9723.000000;0.469856
9722.000000;0.468299
9721.000000;0.466616
9720.000000;0.464540
9719.000000;0.462059
9718.000000;0.459534
9717.000000;0.457428
9716.000000;0.455881
9715.000000;0.454617
9714.000000;0.453236
9713.000000;0.451566
9712.000000;0.449700
9711.000000;0.447788
9710.000000;0.445851
9709.000000;0.443793
9708.000000;0.441573
9707.000000;0.439342
9706.000000;0.437337
9705.000000;0.435611
9704.000000;0.433908
9703.000000;0.431909
9702.000000;0.429613
9701.000000;0.427376
9700.000000;0.425506
9699.000000;0.423920
9698.000000;0.422277
9697.000000;0.420386
9696.000000;0.418353
9695.000000;0.416349
9694.000000;0.414400
9693.000000;0.412451
9692.000000;0.410533
9691.000000;0.408751
9690.000000;0.407136
9689.000000;0.405575
9688.000000;0.403890
9687.000000;0.401970
9686.000000;0.399824
9685.000000;0.397553
9684.000000;0.395295
9683.000000;0.393166
9682.000000;0.391211
9681.000000;0.389373
9680.000000;0.387518
9679.000000;0.385541
9678.000000;0.383452
9677.000000;0.381304
9676.000000;0.379051
9675.000000;0.376601
9674.000000;0.374053
9673.000000;0.371767
9672.000000;0.370012
9671.000000;0.368600
9670.000000;0.367032
9669.000000;0.365028
9668.000000;0.362759
9667.000000;0.360549
9666.000000;0.358529
9665.000000;0.356670
9664.000000;0.354929
9663.000000;0.353211
9662.000000;0.351325
9661.000000;0.349169
9660.000000;0.346896
9659.000000;0.344729
9658.000000;0.342651
9657.000000;0.340465
9656.000000;0.338109
9655.000000;0.335729
9654.000000;0.333443
9653.000000;0.331229
9652.000000;0.329073
9651.000000;0.327055
9650.000000;0.325194
9649.000000;0.323371
9648.000000;0.321461
9647.000000;0.319423
9646.000000;0.317182
9645.000000;0.314597
9644.000000;0.311690
9643.000000;0.308805
9642.000000;0.306359
9641.000000;0.304464
9640.000000;0.302894
9639.000000;0.301345
9638.000000;0.299592
9637.000000;0.297489
9636.000000;0.295007
9635.000000;0.292322
9634.000000;0.289708
9633.000000;0.287318
9632.000000;0.285159
9631.000000;0.283240
9630.000000;0.281570
9629.000000;0.279963
9628.000000;0.278073
9627.000000;0.275764
9626.000000;0.273317
9625.000000;0.271104
9624.000000;0.269134
9623.000000;0.267060
9622.000000;0.264630
9621.000000;0.261979
9620.000000;0.259456
9619.000000;0.257276
9618.000000;0.255355
9617.000000;0.253395
9616.000000;0.251113
9615.000000;0.248470
9614.000000;0.245744
9613.000000;0.243281
9612.000000;0.241139
9611.000000;0.239033
9610.000000;0.236692
9609.000000;0.234200
9608.000000;0.231886
9607.000000;0.229929
9606.000000;0.228156
9605.000000;0.226257
9604.000000;0.224066
9603.000000;0.221627
9602.000000;0.219072
9601.000000;0.216534
9600.000000;0.214103
9599.000000;0.211796
9598.000000;0.209531
9597.000000;0.207217
9596.000000;0.204843
9595.000000;0.202465
9594.000000;0.200104
9593.000000;0.197739
9592.000000;0.195395
9591.000000;0.193160
9590.000000;0.191069
9589.000000;0.189023
9588.000000;0.186891
9587.000000;0.184645
9586.000000;0.182331
9585.000000;0.179959
9584.000000;0.177505
9583.000000;0.175024
9582.000000;0.172634
9581.000000;0.170371
9580.000000;0.168125
9579.000000;0.165804
9578.000000;0.163464
9577.000000;0.161217
9576.000000;0.159081
9575.000000;0.157002
9574.000000;0.154967
9573.000000;0.152971
9572.000000;0.150874
9571.000000;0.148433
9570.000000;0.145562
9569.000000;0.142483
9568.000000;0.139560
9567.000000;0.136999
9566.000000;0.134765
9565.000000;0.132699
9564.000000;0.130674
9563.000000;0.128641
9562.000000;0.126617
9561.000000;0.124633
9560.000000;0.122634
9559.000000;0.120477
9558.000000;0.118053
9557.000000;0.115423
9556.000000;0.112780
9555.000000;0.110277
9554.000000;0.107940
9553.000000;0.105723
9552.000000;0.103576
9551.000000;0.101464
9550.000000;0.099355
9549.000000;0.097223
9548.000000;0.095041
9547.000000;0.092771
9546.000000;0.090420
9545.000000;0.088094
9544.000000;0.085939
9543.000000;0.083987
9542.000000;0.082099
9541.000000;0.080093
9540.000000;0.077908
9539.000000;0.075633
9538.000000;0.073402
9537.000000;0.071284
9536.000000;0.069227
9535.000000;0.067105
9534.000000;0.064818
9533.000000;0.062384
9532.000000;0.059908
9531.000000;0.057485
9530.000000;0.055185
9529.000000;0.053092
9528.000000;0.051265
9527.000000;0.049624
9526.000000;0.047963
9525.000000;0.046120
9524.000000;0.044095
9523.000000;0.041966
9522.000000;0.039787
9521.000000;0.037631
9520.000000;0.035623
9519.000000;0.033808
9518.000000;0.032016
9517.000000;0.030014
9516.000000;0.027810
9515.000000;0.025657
9514.000000;0.023746
9513.000000;0.021994
9512.000000;0.020194
9511.000000;0.018283
9510.000000;0.016344
9509.000000;0.014443
9508.000000;0.012593
9507.000000;0.010839
9506.000000;0.009241
9505.000000;0.007724
9504.000000;0.006050
9503.000000;0.004068
9502.000000;0.001956
9501.000000;0.000078
9500.000000;-0.001429
9499.000000;-0.002846
9498.000000;-0.004549
9497.000000;-0.006543
9496.000000;-0.008443
9495.000000;-0.009946
9494.000000;-0.011170
9493.000000;-0.012442
9492.000000;-0.013874
9491.000000;-0.015297
9490.000000;-0.016593
9489.000000;-0.017866
9488.000000;-0.019257
9487.000000;-0.020725
9486.000000;-0.022116
9485.000000;-0.023369
9484.000000;-0.024529
9483.000000;-0.025627
9482.000000;-0.026648
9481.000000;-0.027600
9480.000000;-0.028518
9479.000000;-0.029411
9478.000000;-0.030266
9477.000000;-0.031110
9476.000000;-0.032012
9475.000000;-0.033020
9474.000000;-0.034133
9473.000000;-0.035309
9472.000000;-0.036467
9471.000000;-0.037531
9470.000000;-0.038520
9469.000000;-0.039566
9468.000000;-0.040741
9467.000000;-0.041912
9466.000000;-0.042858
9465.000000;-0.043512
9464.000000;-0.043994
9463.000000;-0.044403
9462.000000;-0.044702
9461.000000;-0.044873
9460.000000;-0.045069
9459.000000;-0.045524
9458.000000;-0.046340
9457.000000;-0.047390
9456.000000;-0.048411
9455.000000;-0.049154
9454.000000;-0.049522
9453.000000;-0.049615
9452.000000;-0.049635
9451.000000;-0.049716
9450.000000;-0.049872
9449.000000;-0.050061
9448.000000;-0.050242
9447.000000;-0.050363
9446.000000;-0.050405
9445.000000;-0.050457
9444.000000;-0.050649
9443.000000;-0.050967
9442.000000;-0.051224
9441.000000;-0.051292
9440.000000;-0.051262
9439.000000;-0.051296
9438.000000;-0.051394
9437.000000;-0.051424
9436.000000;-0.051313
9435.000000;-0.051095
9434.000000;-0.050805
9433.000000;-0.050450
9432.000000;-0.050110
9431.000000;-0.049929
9430.000000;-0.049963
9429.000000;-0.050088
9428.000000;-0.050110
9427.000000;-0.049912
9426.000000;-0.049501
9425.000000;-0.048972
9424.000000;-0.048434
9423.000000;-0.047955
9422.000000;-0.047527
9421.000000;-0.047101
9420.000000;-0.046629
9419.000000;-0.046045
9418.000000;-0.045262
9417.000000;-0.044259
9416.000000;-0.043192
9415.000000;-0.042342
9414.000000;-0.041899
9413.000000;-0.041814
9412.000000;-0.041828
9411.000000;-0.041649
9410.000000;-0.041135
9409.000000;-0.040367
9408.000000;-0.039556
9407.000000;-0.038822
9406.000000;-0.038083
9405.000000;-0.037216
9404.000000;-0.036273
9403.000000;-0.035441
9402.000000;-0.034773
9401.000000;-0.034092
9400.000000;-0.033213
9399.000000;-0.032158
9398.000000;-0.031101
9397.000000;-0.030146
9396.000000;-0.029253
9395.000000;-0.028324
9394.000000;-0.027305
9393.000000;-0.026206
9392.000000;-0.025113
9391.000000;-0.024157
9390.000000;-0.023436
9389.000000;-0.022905
9388.000000;-0.022370
9387.000000;-0.021590
9386.000000;-0.020416
9385.000000;-0.018906
9384.000000;-0.017320
9383.000000;-0.015942
9382.000000;-0.014835
9381.000000;-0.013813
9380.000000;-0.012698
9379.000000;-0.011554
9378.000000;-0.010560
9377.000000;-0.009708
9376.000000;-0.008762
9375.000000;-0.007557
9374.000000;-0.006208
9373.000000;-0.004940
9372.000000;-0.003804
9371.000000;-0.002678
9370.000000;-0.001508
9369.000000;-0.000385
9368.000000;0.000611
9367.000000;0.001545
9366.000000;0.002528
9365.000000;0.003580
9364.000000;0.004640
9363.000000;0.005678
9362.000000;0.006710
9361.000000;0.007746
9360.000000;0.008794
9359.000000;0.009895
9358.000000;0.011093
9357.000000;0.012348
9356.000000;0.013569
9355.000000;0.014736
9354.000000;0.015944
9353.000000;0.017261
9352.000000;0.018604
9351.000000;0.019806
9350.000000;0.020815
9349.000000;0.021765
9348.000000;0.022828
9347.000000;0.024046
9346.000000;0.025334
9345.000000;0.026617
9344.000000;0.027908
9343.000000;0.029265
9342.000000;0.030704
9341.000000;0.032183
9340.000000;0.033623
9339.000000;0.034915
9338.000000;0.035960
9337.000000;0.036788
9336.000000;0.037620
9335.000000;0.038723
9334.000000;0.040150
9333.000000;0.041672
9332.000000;0.043013
9331.000000;0.044133
9330.000000;0.045212
9329.000000;0.046409
9328.000000;0.047713
9327.000000;0.049024
9326.000000;0.050297
9325.000000;0.051536
9324.000000;0.052706
9323.000000;0.053712
9322.000000;0.054509
9321.000000;0.055182
9320.000000;0.055910
9319.000000;0.056827
9318.000000;0.057948
9317.000000;0.059228
9316.000000;0.060632
9315.000000;0.062099
9314.000000;0.063478
9313.000000;0.064620
9312.000000;0.065574
9311.000000;0.066603
9310.000000;0.067928
9309.000000;0.069478
9308.000000;0.070988
9307.000000;0.072289
9306.000000;0.073422
9305.000000;0.074495
9304.000000;0.075555
9303.000000;0.076612
9302.000000;0.077687
9301.000000;0.078767
9300.000000;0.079797
9299.000000;0.080771
9298.000000;0.081782
9297.000000;0.082915
9296.000000;0.084111
9295.000000;0.085218
9294.000000;0.086160
9293.000000;0.087033
9292.000000;0.088019
9291.000000;0.089221
9290.000000;0.090590
9289.000000;0.091971
9288.000000;0.093233
9287.000000;0.094354
9286.000000;0.095389
9285.000000;0.096390
9284.000000;0.097359
9283.000000;0.098263
9282.000000;0.099062
9281.000000;0.099727
9280.000000;0.100292
9279.000000;0.100900
9278.000000;0.101757
9277.000000;0.102993
9276.000000;0.104560
9275.000000;0.106248
9274.000000;0.107784
9273.000000;0.108964
9272.000000;0.109779
9271.000000;0.110433
9270.000000;0.111180
9269.000000;0.112109
9268.000000;0.113113
9267.000000;0.114082
9266.000000;0.115050
9265.000000;0.116113
9264.000000;0.117260
9263.000000;0.118350
9262.000000;0.119283
9261.000000;0.120105
9260.000000;0.120934
9259.000000;0.121813
9258.000000;0.122679
9257.000000;0.123477
9256.000000;0.124257
9255.000000;0.125117
9254.000000;0.126070
9253.000000;0.127017
9252.000000;0.127900
9251.000000;0.128818
9250.000000;0.129925
9249.000000;0.131218
9248.000000;0.132505
9247.000000;0.133576
9246.000000;0.134377
9245.000000;0.134993
9244.000000;0.135552
9243.000000;0.136171
9242.000000;0.136946
9241.000000;0.137919
9240.000000;0.139058
9239.000000;0.140274
9238.000000;0.141443
9237.000000;0.142425
9236.000000;0.143162
9235.000000;0.143772
9234.000000;0.144502
9233.000000;0.145489
9232.000000;0.146634
9231.000000;0.147733
9230.000000;0.148709
9229.000000;0.149637
9228.000000;0.150572
9227.000000;0.151448
9226.000000;0.152184
9225.000000;0.152823
9224.000000;0.153510
9223.000000;0.154353
9222.000000;0.155318
9221.000000;0.156250
9220.000000;0.157001
9219.000000;0.157543
9218.000000;0.158000
9217.000000;0.158531
9216.000000;0.159215
9215.000000;0.160019
9214.000000;0.160865
9213.000000;0.161687
9212.000000;0.162426
9211.000000;0.163040
9210.000000;0.163552
9209.000000;0.164082
9208.000000;0.164776
9207.000000;0.165671
9206.000000;0.166639
9205.000000;0.167509
9204.000000;0.168229
9203.000000;0.168905
9202.000000;0.169659
9201.000000;0.170504
9200.000000;0.171374
9199.000000;0.172240
9198.000000;0.173131
9197.000000;0.174038
9196.000000;0.174868
9195.000000;0.175548
9194.000000;0.176133
9193.000000;0.176769
9192.000000;0.177517
9191.000000;0.178276
9190.000000;0.178890
9189.000000;0.179340
9188.000000;0.179785
9187.000000;0.180406
9186.000000;0.181236
9185.000000;0.182149
9184.000000;0.182984
9183.000000;0.183644
9182.000000;0.184119
9181.000000;0.184481
9180.000000;0.184856
9179.000000;0.185321
9178.000000;0.185818
9177.000000;0.186234
9176.000000;0.186586
9175.000000;0.187066
9174.000000;0.187810
9173.000000;0.188731
9172.000000;0.189635
9171.000000;0.190453
9170.000000;0.191245
9169.000000;0.192002
9168.000000;0.192600
9167.000000;0.192966
9166.000000;0.193205
9165.000000;0.193524
9164.000000;0.194076
9163.000000;0.194883
9162.000000;0.195828
9161.000000;0.196698
9160.000000;0.197321
9159.000000;0.197722
9158.000000;0.198096
9157.000000;0.198605
9156.000000;0.199233
9155.000000;0.199864
9154.000000;0.200443
9153.000000;0.201027
9152.000000;0.201705
9151.000000;0.202493
9150.000000;0.203281
9149.000000;0.203891
9148.000000;0.204242
9147.000000;0.204462
9146.000000;0.204776
9145.000000;0.205295
9144.000000;0.205965
9143.000000;0.206685
9142.000000;0.207394
9141.000000;0.208026
9140.000000;0.208502
9139.000000;0.208817
9138.000000;0.209061
9137.000000;0.209315
9136.000000;0.209611
9135.000000;0.210017
9134.000000;0.210623
9133.000000;0.211383
9132.000000;0.212096
9131.000000;0.212643
9130.000000;0.213149
9129.000000;0.213797
9128.000000;0.214552
9127.000000;0.215203
9126.000000;0.215651
9125.000000;0.216019
9124.000000;0.216466
9123.000000;0.216992
9122.000000;0.217472
9121.000000;0.217811
9120.000000;0.218035
9119.000000;0.218257
9118.000000;0.218562
9117.000000;0.218928
9116.000000;0.219280
9115.000000;0.219626
9114.000000;0.220075
9113.000000;0.220688
9112.000000;0.221381
9111.000000;0.222036
9110.000000;0.222631
9109.000000;0.223193
9108.000000;0.223677
9107.000000;0.224021
9106.000000;0.224271
9105.000000;0.224539
9104.000000;0.224850
9103.000000;0.225136
9102.000000;0.225391
9101.000000;0.225704
9100.000000;0.226128
9099.000000;0.226618
9098.000000;0.227147
9097.000000;0.227758
9096.000000;0.228446
9095.000000;0.229063
9094.000000;0.229433
9093.000000;0.229551
9092.000000;0.229595
9091.000000;0.229766
9090.000000;0.230138
9089.000000;0.230661
9088.000000;0.231232
9087.000000;0.231753
9086.000000;0.232164
9085.000000;0.232462
9084.000000;0.232720
9083.000000;0.233052
9082.000000;0.233513
9081.000000;0.234006
9080.000000;0.234345
9079.000000;0.234470
9078.000000;0.234563
9077.000000;0.234883
9076.000000;0.235482
9075.000000;0.236146
9074.000000;0.236619
9073.000000;0.236832
9072.000000;0.236902
9071.000000;0.236968
9070.000000;0.237092
9069.000000;0.237278
9068.000000;0.237524
9067.000000;0.237843
9066.000000;0.238237
9065.000000;0.238667
9064.000000;0.239058
9063.000000;0.239374
9062.000000;0.239655
9061.000000;0.239968
9060.000000;0.240324
9059.000000;0.240668
