Criado como novo conjunto de dados;"0307_DANIEL.spp","27723.2 Secs"
cm-1;Abs
10000.000000;1.127244
9999.000000;1.125550
9998.000000;1.123637
9997.000000;1.121919
9996.000000;1.120736
9995.000000;1.119991
9994.000000;1.119211
9993.000000;1.117813
9992.000000;1.115686
9991.000000;1.113328
9990.000000;1.111470
9989.000000;1.110507
9988.000000;1.110272
9987.000000;1.110204
9986.000000;1.109724
9985.000000;1.108565
9984.000000;1.106902
9983.000000;1.105180
9982.000000;1.103807
9981.000000;1.102952
9980.000000;1.102520
9979.000000;1.102222
9978.000000;1.101708
9977.000000;1.100797
9976.000000;1.099575
9975.000000;1.098184
9974.000000;1.096574
9973.000000;1.094629
9972.000000;1.092547
9971.000000;1.090879
9970.000000;1.090006
9969.000000;1.089664
9968.000000;1.089148
9967.000000;1.088011
9966.000000;1.086487
9965.000000;1.085189
9964.000000;1.084441
9963.000000;1.083906
9962.000000;1.082912
9961.000000;1.081142
9960.000000;1.078956
9959.000000;1.076979
9958.000000;1.075506
9957.000000;1.074415
9956.000000;1.073501
9955.000000;1.072613
9954.000000;1.071494
9953.000000;1.069910
9952.000000;1.068093
9951.000000;1.066723
9950.000000;1.066167
9949.000000;1.065923
9948.000000;1.065126
9947.000000;1.063565
9946.000000;1.061853
9945.000000;1.060608
9944.000000;1.059776
9943.000000;1.058840
9942.000000;1.057425
9941.000000;1.055554
9940.000000;1.053519
9939.000000;1.051698
9938.000000;1.050368
9937.000000;1.049493
9936.000000;1.048711
9935.000000;1.047660
9934.000000;1.046267
9933.000000;1.044686
9932.000000;1.043064
9931.000000;1.041555
9930.000000;1.040424
9929.000000;1.039872
9928.000000;1.039617
9927.000000;1.038903
9926.000000;1.037143
9925.000000;1.034558
9924.000000;1.032050
9923.000000;1.030407
9922.000000;1.029683
9921.000000;1.029282
9920.000000;1.028537
9919.000000;1.027169
9918.000000;1.025318
9917.000000;1.023311
9916.000000;1.021475
9915.000000;1.020036
9914.000000;1.019029
9913.000000;1.018233
9912.000000;1.017290
9911.000000;1.015991
9910.000000;1.014433
9909.000000;1.012862
9908.000000;1.011414
9907.000000;1.010026
9906.000000;1.008563
9905.000000;1.006991
9904.000000;1.005467
9903.000000;1.004264
9902.000000;1.003556
9901.000000;1.003179
9900.000000;1.002669
9899.000000;1.001631
9898.000000;1.000067
9897.000000;0.998268
9896.000000;0.996463
9895.000000;0.994714
9894.000000;0.993098
9893.000000;0.991747
9892.000000;0.990618
9891.000000;0.989433
9890.000000;0.987985
9889.000000;0.986398
9888.000000;0.984907
9887.000000;0.983473
9886.000000;0.981808
9885.000000;0.979766
9884.000000;0.977568
9883.000000;0.975595
9882.000000;0.974066
9881.000000;0.972928
9880.000000;0.971982
9879.000000;0.971080
9878.000000;0.970201
9877.000000;0.969338
9876.000000;0.968347
9875.000000;0.967004
9874.000000;0.965281
9873.000000;0.963448
9872.000000;0.961782
9871.000000;0.960231
9870.000000;0.958518
9869.000000;0.956511
9868.000000;0.954364
9867.000000;0.952303
9866.000000;0.950502
9865.000000;0.949196
9864.000000;0.948656
9863.000000;0.948837
9862.000000;0.949144
9861.000000;0.948762
9860.000000;0.947298
9859.000000;0.945063
9858.000000;0.942715
9857.000000;0.940714
9856.000000;0.939108
9855.000000;0.937708
9854.000000;0.936383
9853.000000;0.935122
9852.000000;0.933918
9851.000000;0.932702
9850.000000;0.931449
9849.000000;0.930255
9848.000000;0.929201
9847.000000;0.928157
9846.000000;0.926821
9845.000000;0.925005
9844.000000;0.922807
9843.000000;0.920493
9842.000000;0.918265
9841.000000;0.916161
9840.000000;0.914141
9839.000000;0.912223
9838.000000;0.910514
9837.000000;0.909094
9836.000000;0.907919
9835.000000;0.906891
9834.000000;0.905962
9833.000000;0.905049
9832.000000;0.903864
9831.000000;0.902085
9830.000000;0.899828
9829.000000;0.897722
9828.000000;0.896284
9827.000000;0.895339
9826.000000;0.894316
9825.000000;0.892999
9824.000000;0.891649
9823.000000;0.890414
9822.000000;0.889045
9821.000000;0.887350
9820.000000;0.885555
9819.000000;0.883976
9818.000000;0.882537
9817.000000;0.880924
9816.000000;0.879071
9815.000000;0.877218
9814.000000;0.875497
9813.000000;0.873719
9812.000000;0.871658
9811.000000;0.869401
9810.000000;0.867311
9809.000000;0.865663
9808.000000;0.864367
9807.000000;0.863110
9806.000000;0.861790
9805.000000;0.860683
9804.000000;0.860009
9803.000000;0.859404
9802.000000;0.858121
9801.000000;0.855855
9800.000000;0.853151
9799.000000;0.850817
9798.000000;0.849107
9797.000000;0.847631
9796.000000;0.845917
9795.000000;0.843857
9794.000000;0.841741
9793.000000;0.840033
9792.000000;0.839038
9791.000000;0.838584
9790.000000;0.838047
9789.000000;0.836878
9788.000000;0.835074
9787.000000;0.833029
9786.000000;0.831032
9785.000000;0.829123
9784.000000;0.827328
9783.000000;0.825725
9782.000000;0.824275
9781.000000;0.822814
9780.000000;0.821268
9779.000000;0.819689
9778.000000;0.818087
9777.000000;0.816436
9776.000000;0.814851
9775.000000;0.813474
9774.000000;0.812109
9773.000000;0.810286
9772.000000;0.807847
9771.000000;0.805253
9770.000000;0.803085
9769.000000;0.801414
9768.000000;0.799882
9767.000000;0.798258
9766.000000;0.796639
9765.000000;0.795157
9764.000000;0.793755
9763.000000;0.792297
9762.000000;0.790716
9761.000000;0.789008
9760.000000;0.787227
9759.000000;0.785506
9758.000000;0.783940
9757.000000;0.782419
9756.000000;0.780720
9755.000000;0.778828
9754.000000;0.776966
9753.000000;0.775231
9752.000000;0.773399
9751.000000;0.771247
9750.000000;0.768956
9749.000000;0.766962
9748.000000;0.765432
9747.000000;0.764064
9746.000000;0.762463
9745.000000;0.760559
9744.000000;0.758597
9743.000000;0.756804
9742.000000;0.755142
9741.000000;0.753373
9740.000000;0.751343
9739.000000;0.749191
9738.000000;0.747257
9737.000000;0.745729
9736.000000;0.744433
9735.000000;0.743048
9734.000000;0.741466
9733.000000;0.739809
9732.000000;0.738127
9731.000000;0.736294
9730.000000;0.734243
9729.000000;0.732147
9728.000000;0.730249
9727.000000;0.728615
9726.000000;0.727157
9725.000000;0.725756
9724.000000;0.724253
9723.000000;0.722437
9722.000000;0.720202
9721.000000;0.717669
9720.000000;0.715035
9719.000000;0.712383
9718.000000;0.709780
9717.000000;0.707442
9716.000000;0.705606
9715.000000;0.704250
9714.000000;0.703121
9713.000000;0.702011
9712.000000;0.700821
9711.000000;0.699405
9710.000000;0.697586
9709.000000;0.695377
9708.000000;0.693001
9707.000000;0.690598
9706.000000;0.688133
9705.000000;0.685671
9704.000000;0.683512
9703.000000;0.681844
9702.000000;0.680408
9701.000000;0.678766
9700.000000;0.676846
9699.000000;0.674975
9698.000000;0.673368
9697.000000;0.671846
9696.000000;0.670146
9695.000000;0.668308
9694.000000;0.666570
9693.000000;0.664940
9692.000000;0.663108
9691.000000;0.660851
9690.000000;0.658373
9689.000000;0.656116
9688.000000;0.654273
9687.000000;0.652613
9686.000000;0.650797
9685.000000;0.648707
9684.000000;0.646392
9683.000000;0.643860
9682.000000;0.641106
9681.000000;0.638343
9680.000000;0.635967
9679.000000;0.634175
9678.000000;0.632702
9677.000000;0.631035
9676.000000;0.628892
9675.000000;0.626426
9674.000000;0.623976
9673.000000;0.621693
9672.000000;0.619481
9671.000000;0.617250
9670.000000;0.615128
9669.000000;0.613332
9668.000000;0.611863
9667.000000;0.610428
9666.000000;0.608686
9665.000000;0.606521
9664.000000;0.604082
9663.000000;0.601625
9662.000000;0.599341
9661.000000;0.597235
9660.000000;0.595103
9659.000000;0.592740
9658.000000;0.590195
9657.000000;0.587772
9656.000000;0.585724
9655.000000;0.584051
9654.000000;0.582612
9653.000000;0.581267
9652.000000;0.579818
9651.000000;0.578029
9650.000000;0.575898
9649.000000;0.573777
9648.000000;0.571951
9647.000000;0.570208
9646.000000;0.568055
9645.000000;0.565333
9644.000000;0.562370
9643.000000;0.559560
9642.000000;0.557053
9641.000000;0.554879
9640.000000;0.553070
9639.000000;0.551546
9638.000000;0.550065
9637.000000;0.548412
9636.000000;0.546504
9635.000000;0.544267
9634.000000;0.541623
9633.000000;0.538700
9632.000000;0.535853
9631.000000;0.533343
9630.000000;0.531113
9629.000000;0.528970
9628.000000;0.526837
9627.000000;0.524693
9626.000000;0.522422
9625.000000;0.519911
9624.000000;0.517247
9623.000000;0.514678
9622.000000;0.512408
9621.000000;0.510490
9620.000000;0.508840
9619.000000;0.507212
9618.000000;0.505242
9617.000000;0.502717
9616.000000;0.499843
9615.000000;0.497126
9614.000000;0.494906
9613.000000;0.493050
9612.000000;0.491123
9611.000000;0.488836
9610.000000;0.486299
9609.000000;0.483854
9608.000000;0.481667
9607.000000;0.479567
9606.000000;0.477289
9605.000000;0.474786
9604.000000;0.472230
9603.000000;0.469763
9602.000000;0.467358
9601.000000;0.464909
9600.000000;0.462350
9599.000000;0.459694
9598.000000;0.457066
9597.000000;0.454659
9596.000000;0.452532
9595.000000;0.450471
9594.000000;0.448185
9593.000000;0.445659
9592.000000;0.443156
9591.000000;0.440857
9590.000000;0.438673
9589.000000;0.436462
9588.000000;0.434292
9587.000000;0.432366
9586.000000;0.430743
9585.000000;0.429211
9584.000000;0.427387
9583.000000;0.424942
9582.000000;0.421849
9581.000000;0.418469
9580.000000;0.415335
9579.000000;0.412794
9578.000000;0.410820
9577.000000;0.409105
9576.000000;0.407233
9575.000000;0.404873
9574.000000;0.401993
9573.000000;0.398946
9572.000000;0.396220
9571.000000;0.394047
9570.000000;0.392289
9569.000000;0.390628
9568.000000;0.388756
9567.000000;0.386465
9566.000000;0.383781
9565.000000;0.381025
9564.000000;0.378542
9563.000000;0.376361
9562.000000;0.374267
9561.000000;0.372160
9560.000000;0.370138
9559.000000;0.368232
9558.000000;0.366305
9557.000000;0.364261
9556.000000;0.362089
9555.000000;0.359646
9554.000000;0.356727
9553.000000;0.353493
9552.000000;0.350527
9551.000000;0.348223
9550.000000;0.346294
9549.000000;0.344128
9548.000000;0.341518
9547.000000;0.338819
9546.000000;0.336460
9545.000000;0.334508
9544.000000;0.332666
9543.000000;0.330575
9542.000000;0.328135
9541.000000;0.325629
9540.000000;0.323429
9539.000000;0.321517
9538.000000;0.319434
9537.000000;0.316844
9536.000000;0.314014
9535.000000;0.311567
9534.000000;0.309835
9533.000000;0.308580
9532.000000;0.307247
9531.000000;0.305363
9530.000000;0.302790
9529.000000;0.299792
9528.000000;0.296842
9527.000000;0.294252
9526.000000;0.291979
9525.000000;0.289810
9524.000000;0.287641
9523.000000;0.285499
9522.000000;0.283441
9521.000000;0.281545
9520.000000;0.279899
9519.000000;0.278473
9518.000000;0.277058
9517.000000;0.275449
9516.000000;0.273606
9515.000000;0.271589
9514.000000;0.269471
9513.000000;0.267432
9512.000000;0.265732
9511.000000;0.264418
9510.000000;0.263134
9509.000000;0.261477
9508.000000;0.259457
9507.000000;0.257441
9506.000000;0.255671
9505.000000;0.254024
9504.000000;0.252236
9503.000000;0.250189
9502.000000;0.247981
9501.000000;0.245839
9500.000000;0.243992
9499.000000;0.242508
9498.000000;0.241252
9497.000000;0.240045
9496.000000;0.238809
9495.000000;0.237495
9494.000000;0.236000
9493.000000;0.234303
9492.000000;0.232606
9491.000000;0.231142
9490.000000;0.229883
9489.000000;0.228593
9488.000000;0.227155
9487.000000;0.225679
9486.000000;0.224311
9485.000000;0.223091
9484.000000;0.222003
9483.000000;0.221004
9482.000000;0.219996
9481.000000;0.218887
9480.000000;0.217721
9479.000000;0.216615
9478.000000;0.215566
9477.000000;0.214410
9476.000000;0.213023
9475.000000;0.211448
9474.000000;0.209840
9473.000000;0.208351
9472.000000;0.207079
9471.000000;0.206050
9470.000000;0.205232
9469.000000;0.204593
9468.000000;0.204092
9467.000000;0.203577
9466.000000;0.202832
9465.000000;0.201852
9464.000000;0.200990
9463.000000;0.200588
9462.000000;0.200510
9461.000000;0.200252
9460.000000;0.199533
9459.000000;0.198544
9458.000000;0.197578
9457.000000;0.196656
9456.000000;0.195705
9455.000000;0.194893
9454.000000;0.194532
9453.000000;0.194684
9452.000000;0.195049
9451.000000;0.195292
9450.000000;0.195330
9449.000000;0.195249
9448.000000;0.195060
9447.000000;0.194656
9446.000000;0.193986
9445.000000;0.193184
9444.000000;0.192459
9443.000000;0.191915
9442.000000;0.191540
9441.000000;0.191354
9440.000000;0.191477
9439.000000;0.191965
9438.000000;0.192646
9437.000000;0.193205
9436.000000;0.193464
9435.000000;0.193505
9434.000000;0.193504
9433.000000;0.193526
9432.000000;0.193533
9431.000000;0.193532
9430.000000;0.193636
9429.000000;0.193918
9428.000000;0.194283
9427.000000;0.194549
9426.000000;0.194661
9425.000000;0.194742
9424.000000;0.194926
9423.000000;0.195204
9422.000000;0.195523
9421.000000;0.195930
9420.000000;0.196520
9419.000000;0.197276
9418.000000;0.198085
9417.000000;0.198884
9416.000000;0.199650
9415.000000;0.200252
9414.000000;0.200530
9413.000000;0.200576
9412.000000;0.200741
9411.000000;0.201249
9410.000000;0.201942
9409.000000;0.202552
9408.000000;0.203097
9407.000000;0.203821
9406.000000;0.204842
9405.000000;0.206048
9404.000000;0.207257
9403.000000;0.208314
9402.000000;0.209081
9401.000000;0.209538
9400.000000;0.209907
9399.000000;0.210466
9398.000000;0.211229
9397.000000;0.212008
9396.000000;0.212805
9395.000000;0.213902
9394.000000;0.215460
9393.000000;0.217212
9392.000000;0.218712
9391.000000;0.219786
9390.000000;0.220567
9389.000000;0.221178
9388.000000;0.221630
9387.000000;0.222025
9386.000000;0.222655
9385.000000;0.223750
9384.000000;0.225195
9383.000000;0.226610
9382.000000;0.227698
9381.000000;0.228457
9380.000000;0.229054
9379.000000;0.229626
9378.000000;0.230270
9377.000000;0.231140
9376.000000;0.232384
9375.000000;0.233952
9374.000000;0.235566
9373.000000;0.236981
9372.000000;0.238211
9371.000000;0.239422
9370.000000;0.240646
9369.000000;0.241726
9368.000000;0.242538
9367.000000;0.243152
9366.000000;0.243742
9365.000000;0.244444
9364.000000;0.245346
9363.000000;0.246543
9362.000000;0.248087
9361.000000;0.249853
9360.000000;0.251535
9359.000000;0.252840
9358.000000;0.253728
9357.000000;0.254438
9356.000000;0.255273
9355.000000;0.256376
9354.000000;0.257716
9353.000000;0.259241
9352.000000;0.260902
9351.000000;0.262544
9350.000000;0.263903
9349.000000;0.264860
9348.000000;0.265633
9347.000000;0.266595
9346.000000;0.267874
9345.000000;0.269212
9344.000000;0.270263
9343.000000;0.270978
9342.000000;0.271668
9341.000000;0.272716
9340.000000;0.274213
9339.000000;0.275863
9338.000000;0.277243
9337.000000;0.278192
9336.000000;0.278948
9335.000000;0.279882
9334.000000;0.281155
9333.000000;0.282641
9332.000000;0.284119
9331.000000;0.285424
9330.000000;0.286496
9329.000000;0.287380
9328.000000;0.288241
9327.000000;0.289268
9326.000000;0.290523
9325.000000;0.291920
9324.000000;0.293356
9323.000000;0.294774
9322.000000;0.296084
9321.000000;0.297148
9320.000000;0.297942
9319.000000;0.298695
9318.000000;0.299719
9317.000000;0.301113
9316.000000;0.302689
9315.000000;0.304197
9314.000000;0.305527
9313.000000;0.306671
9312.000000;0.307616
9311.000000;0.308387
9310.000000;0.309138
9309.000000;0.310070
9308.000000;0.311224
9307.000000;0.312457
9306.000000;0.313651
9305.000000;0.314871
9304.000000;0.316257
9303.000000;0.317814
9302.000000;0.319377
9301.000000;0.320734
9300.000000;0.321744
9299.000000;0.322413
9298.000000;0.322937
9297.000000;0.323595
9296.000000;0.324507
9295.000000;0.325508
9294.000000;0.326377
9293.000000;0.327147
9292.000000;0.328062
9291.000000;0.329253
9290.000000;0.330596
9289.000000;0.331887
9288.000000;0.333027
9287.000000;0.333991
9286.000000;0.334776
9285.000000;0.335486
9284.000000;0.336331
9283.000000;0.337445
9282.000000;0.338764
9281.000000;0.340137
9280.000000;0.341497
9279.000000;0.342823
9278.000000;0.344039
9277.000000;0.345054
9276.000000;0.345874
9275.000000;0.346593
9274.000000;0.347300
9273.000000;0.348050
9272.000000;0.348892
9271.000000;0.349840
9270.000000;0.350874
9269.000000;0.351991
9268.000000;0.353197
9267.000000;0.354417
9266.000000;0.355474
9265.000000;0.356261
9264.000000;0.356900
9263.000000;0.357671
9262.000000;0.358782
9261.000000;0.360213
9260.000000;0.361697
9259.000000;0.362869
9258.000000;0.363539
9257.000000;0.363927
9256.000000;0.364506
9255.000000;0.365530
9254.000000;0.366785
9253.000000;0.367899
9252.000000;0.368784
9251.000000;0.369641
9250.000000;0.370587
9249.000000;0.371488
9248.000000;0.372189
9247.000000;0.372771
9246.000000;0.373519
9245.000000;0.374646
9244.000000;0.376067
9243.000000;0.377416
9242.000000;0.378344
9241.000000;0.378847
9240.000000;0.379266
9239.000000;0.379928
9238.000000;0.380865
9237.000000;0.381920
9236.000000;0.382977
9235.000000;0.383981
9234.000000;0.384837
9233.000000;0.385480
9232.000000;0.386032
9231.000000;0.386711
9230.000000;0.387580
9229.000000;0.388511
9228.000000;0.389395
9227.000000;0.390236
9226.000000;0.391038
9225.000000;0.391735
9224.000000;0.392298
9223.000000;0.392820
9222.000000;0.393426
9221.000000;0.394177
9220.000000;0.395067
9219.000000;0.396023
9218.000000;0.396913
9217.000000;0.397627
9216.000000;0.398211
9215.000000;0.398818
9214.000000;0.399498
9213.000000;0.400114
9212.000000;0.400538
9211.000000;0.400853
9210.000000;0.401288
9209.000000;0.401972
9208.000000;0.402821
9207.000000;0.403669
9206.000000;0.404462
9205.000000;0.405294
9204.000000;0.406268
9203.000000;0.407348
9202.000000;0.408368
9201.000000;0.409194
9200.000000;0.409822
9199.000000;0.410334
9198.000000;0.410823
9197.000000;0.411406
9196.000000;0.412207
9195.000000;0.413223
9194.000000;0.414265
9193.000000;0.415122
9192.000000;0.415782
9191.000000;0.416393
9190.000000;0.417025
9189.000000;0.417599
9188.000000;0.418068
9187.000000;0.418557
9186.000000;0.419228
9185.000000;0.420076
9184.000000;0.420901
9183.000000;0.421479
9182.000000;0.421750
9181.000000;0.421874
9180.000000;0.422129
9179.000000;0.422716
9178.000000;0.423591
9177.000000;0.424511
9176.000000;0.425232
9175.000000;0.425702
9174.000000;0.426084
9173.000000;0.426618
9172.000000;0.427446
9171.000000;0.428511
9170.000000;0.429593
9169.000000;0.430461
9168.000000;0.431019
9167.000000;0.431345
9166.000000;0.431619
9165.000000;0.432036
9164.000000;0.432697
9163.000000;0.433534
9162.000000;0.434319
9161.000000;0.434829
9160.000000;0.435014
9159.000000;0.435030
9158.000000;0.435138
9157.000000;0.435548
9156.000000;0.436288
9155.000000;0.437173
9154.000000;0.437942
9153.000000;0.438492
9152.000000;0.438950
9151.000000;0.439484
9150.000000;0.440096
9149.000000;0.440632
9148.000000;0.440975
9147.000000;0.441192
9146.000000;0.441493
9145.000000;0.442076
9144.000000;0.442941
9143.000000;0.443826
9142.000000;0.444416
9141.000000;0.444684
9140.000000;0.444924
9139.000000;0.445393
9138.000000;0.446002
9137.000000;0.446487
9136.000000;0.446784
9135.000000;0.447082
9134.000000;0.447535
9133.000000;0.448111
9132.000000;0.448730
9131.000000;0.449386
9130.000000;0.450076
9129.000000;0.450748
9128.000000;0.451405
9127.000000;0.452131
9126.000000;0.452917
9125.000000;0.453554
9124.000000;0.453836
9123.000000;0.453839
9122.000000;0.453889
9121.000000;0.454239
9120.000000;0.454838
9119.000000;0.455424
9118.000000;0.455780
9117.000000;0.455891
9116.000000;0.455921
9115.000000;0.456084
9114.000000;0.456506
9113.000000;0.457124
9112.000000;0.457713
9111.000000;0.458082
9110.000000;0.458283
9109.000000;0.458612
9108.000000;0.459339
9107.000000;0.460442
9106.000000;0.461604
9105.000000;0.462465
9104.000000;0.462846
9103.000000;0.462790
9102.000000;0.462518
9101.000000;0.462328
9100.000000;0.462447
9099.000000;0.462872
9098.000000;0.463401
9097.000000;0.463817
9096.000000;0.464044
9095.000000;0.464138
9094.000000;0.464240
9093.000000;0.464544
9092.000000;0.465158
9091.000000;0.465951
9090.000000;0.466642
9089.000000;0.467114
9088.000000;0.467540
9087.000000;0.468104
9086.000000;0.468725
9085.000000;0.469192
9084.000000;0.469476
9083.000000;0.469730
9082.000000;0.469992
9081.000000;0.470091
9080.000000;0.469906
9079.000000;0.469604
9078.000000;0.469547
9077.000000;0.469971
9076.000000;0.470761
9075.000000;0.471524
9074.000000;0.471904
9073.000000;0.471878
9072.000000;0.471737
9071.000000;0.471790
9070.000000;0.472118
9069.000000;0.472622
9068.000000;0.473182
9067.000000;0.473709
9066.000000;0.474131
9065.000000;0.474464
9064.000000;0.474814
9063.000000;0.475214
9062.000000;0.475527
9061.000000;0.475640
9060.000000;0.475677
9059.000000;0.475872
9058.000000;0.476257
9057.000000;0.476649
9056.000000;0.476927
9055.000000;0.477157
9054.000000;0.477417
9053.000000;0.477673
