Criado como novo conjunto de dados;"0307_DANIEL.spp","67865.8 Secs"
cm-1;Abs
10000.000000;0.604554
9999.000000;0.603124
9998.000000;0.601886
9997.000000;0.601120
9996.000000;0.600679
9995.000000;0.600175
9994.000000;0.599415
9993.000000;0.598526
9992.000000;0.597703
9991.000000;0.596901
9990.000000;0.595949
9989.000000;0.594862
9988.000000;0.593872
9987.000000;0.593130
9986.000000;0.592570
9985.000000;0.592112
9984.000000;0.591785
9983.000000;0.591509
9982.000000;0.590954
9981.000000;0.589854
9980.000000;0.588424
9979.000000;0.587253
9978.000000;0.586720
9977.000000;0.586623
9976.000000;0.586392
9975.000000;0.585606
9974.000000;0.584294
9973.000000;0.582817
9972.000000;0.581541
9971.000000;0.580605
9970.000000;0.579936
9969.000000;0.579371
9968.000000;0.578732
9967.000000;0.577863
9966.000000;0.576742
9965.000000;0.575578
9964.000000;0.574652
9963.000000;0.574006
9962.000000;0.573377
9961.000000;0.572504
9960.000000;0.571399
9959.000000;0.570249
9958.000000;0.569155
9957.000000;0.568073
9956.000000;0.566949
9955.000000;0.565808
9954.000000;0.564725
9953.000000;0.563779
9952.000000;0.563036
9951.000000;0.562510
9950.000000;0.562168
9949.000000;0.561986
9948.000000;0.561946
9947.000000;0.561936
9946.000000;0.561696
9945.000000;0.560961
9944.000000;0.559648
9943.000000;0.557924
9942.000000;0.556154
9941.000000;0.554766
9940.000000;0.554024
9939.000000;0.553788
9938.000000;0.553554
9937.000000;0.552837
9936.000000;0.551537
9935.000000;0.549927
9934.000000;0.548365
9933.000000;0.547086
9932.000000;0.546167
9931.000000;0.545549
9930.000000;0.545096
9929.000000;0.544669
9928.000000;0.544167
9927.000000;0.543501
9926.000000;0.542626
9925.000000;0.541616
9924.000000;0.540630
9923.000000;0.539709
9922.000000;0.538718
9921.000000;0.537530
9920.000000;0.536208
9919.000000;0.534912
9918.000000;0.533716
9917.000000;0.532620
9916.000000;0.531668
9915.000000;0.530902
9914.000000;0.530237
9913.000000;0.529505
9912.000000;0.528624
9911.000000;0.527656
9910.000000;0.526723
9909.000000;0.525905
9908.000000;0.525183
9907.000000;0.524390
9906.000000;0.523322
9905.000000;0.522044
9904.000000;0.520972
9903.000000;0.520467
9902.000000;0.520351
9901.000000;0.520011
9900.000000;0.519019
9899.000000;0.517511
9898.000000;0.515931
9897.000000;0.514556
9896.000000;0.513371
9895.000000;0.512248
9894.000000;0.511129
9893.000000;0.510054
9892.000000;0.509099
9891.000000;0.508265
9890.000000;0.507425
9889.000000;0.506434
9888.000000;0.505314
9887.000000;0.504240
9886.000000;0.503308
9885.000000;0.502395
9884.000000;0.501339
9883.000000;0.500164
9882.000000;0.499031
9881.000000;0.498007
9880.000000;0.497016
9879.000000;0.495994
9878.000000;0.494994
9877.000000;0.494074
9876.000000;0.493160
9875.000000;0.492111
9874.000000;0.490901
9873.000000;0.489652
9872.000000;0.488476
9871.000000;0.487354
9870.000000;0.486198
9869.000000;0.484973
9868.000000;0.483714
9867.000000;0.482469
9866.000000;0.481328
9865.000000;0.480455
9864.000000;0.479947
9863.000000;0.479614
9862.000000;0.479063
9861.000000;0.478097
9860.000000;0.476932
9859.000000;0.475886
9858.000000;0.474943
9857.000000;0.473768
9856.000000;0.472170
9855.000000;0.470392
9854.000000;0.468909
9853.000000;0.468004
9852.000000;0.467562
9851.000000;0.467206
9850.000000;0.466580
9849.000000;0.465573
9848.000000;0.464302
9847.000000;0.462909
9846.000000;0.461448
9845.000000;0.459980
9844.000000;0.458675
9843.000000;0.457669
9842.000000;0.456834
9841.000000;0.455869
9840.000000;0.454626
9839.000000;0.453255
9838.000000;0.451971
9837.000000;0.450805
9836.000000;0.449666
9835.000000;0.448509
9834.000000;0.447342
9833.000000;0.446115
9832.000000;0.444771
9831.000000;0.443385
9830.000000;0.442134
9829.000000;0.441080
9828.000000;0.440081
9827.000000;0.438947
9826.000000;0.437660
9825.000000;0.436377
9824.000000;0.435237
9823.000000;0.434202
9822.000000;0.433101
9821.000000;0.431833
9820.000000;0.430505
9819.000000;0.429367
9818.000000;0.428550
9817.000000;0.427881
9816.000000;0.427022
9815.000000;0.425840
9814.000000;0.424544
9813.000000;0.423414
9812.000000;0.422458
9811.000000;0.421446
9810.000000;0.420265
9809.000000;0.419060
9808.000000;0.417942
9807.000000;0.416703
9806.000000;0.415022
9805.000000;0.412934
9804.000000;0.410916
9803.000000;0.409412
9802.000000;0.408387
9801.000000;0.407424
9800.000000;0.406210
9799.000000;0.404798
9798.000000;0.403427
9797.000000;0.402202
9796.000000;0.401049
9795.000000;0.399899
9794.000000;0.398801
9793.000000;0.397801
9792.000000;0.396783
9791.000000;0.395537
9790.000000;0.394004
9789.000000;0.392352
9788.000000;0.390786
9787.000000;0.389358
9786.000000;0.388039
9785.000000;0.386867
9784.000000;0.385887
9783.000000;0.384984
9782.000000;0.383946
9781.000000;0.382731
9780.000000;0.381505
9779.000000;0.380355
9778.000000;0.379111
9777.000000;0.377588
9776.000000;0.375899
9775.000000;0.374348
9774.000000;0.373058
9773.000000;0.371838
9772.000000;0.370459
9771.000000;0.368969
9770.000000;0.367637
9769.000000;0.366599
9768.000000;0.365631
9767.000000;0.364337
9766.000000;0.362614
9765.000000;0.360865
9764.000000;0.359608
9763.000000;0.358867
9762.000000;0.358068
9761.000000;0.356652
9760.000000;0.354692
9759.000000;0.352767
9758.000000;0.351289
9757.000000;0.350143
9756.000000;0.348995
9755.000000;0.347745
9754.000000;0.346539
9753.000000;0.345429
9752.000000;0.344223
9751.000000;0.342723
9750.000000;0.341001
9749.000000;0.339329
9748.000000;0.337875
9747.000000;0.336530
9746.000000;0.335054
9745.000000;0.333292
9744.000000;0.331290
9743.000000;0.329282
9742.000000;0.327614
9741.000000;0.326535
9740.000000;0.325921
9739.000000;0.325272
9738.000000;0.324137
9737.000000;0.322528
9736.000000;0.320808
9735.000000;0.319194
9734.000000;0.317550
9733.000000;0.315693
9732.000000;0.313698
9731.000000;0.311799
9730.000000;0.310097
9729.000000;0.308519
9728.000000;0.307009
9727.000000;0.305636
9726.000000;0.304491
9725.000000;0.303502
9724.000000;0.302366
9723.000000;0.300738
9722.000000;0.298603
9721.000000;0.296444
9720.000000;0.294852
9719.000000;0.293931
9718.000000;0.293223
9717.000000;0.292252
9716.000000;0.290969
9715.000000;0.289557
9714.000000;0.288020
9713.000000;0.286214
9712.000000;0.284182
9711.000000;0.282205
9710.000000;0.280498
9709.000000;0.279022
9708.000000;0.277616
9707.000000;0.276153
9706.000000;0.274575
9705.000000;0.272912
9704.000000;0.271312
9703.000000;0.269881
9702.000000;0.268465
9701.000000;0.266731
9700.000000;0.264566
9699.000000;0.262283
9698.000000;0.260339
9697.000000;0.258882
9696.000000;0.257676
9695.000000;0.256420
9694.000000;0.255035
9693.000000;0.253628
9692.000000;0.252259
9691.000000;0.250853
9690.000000;0.249327
9689.000000;0.247731
9688.000000;0.246167
9687.000000;0.244600
9686.000000;0.242862
9685.000000;0.240890
9684.000000;0.238870
9683.000000;0.237063
9682.000000;0.235509
9681.000000;0.233972
9680.000000;0.232186
9679.000000;0.230115
9678.000000;0.227992
9677.000000;0.226088
9676.000000;0.224449
9675.000000;0.222842
9674.000000;0.221025
9673.000000;0.219028
9672.000000;0.217098
9671.000000;0.215374
9670.000000;0.213739
9669.000000;0.212028
9668.000000;0.210227
9667.000000;0.208388
9666.000000;0.206499
9665.000000;0.204585
9664.000000;0.202815
9663.000000;0.201335
9662.000000;0.200043
9661.000000;0.198698
9660.000000;0.197206
9659.000000;0.195655
9658.000000;0.194067
9657.000000;0.192294
9656.000000;0.190203
9655.000000;0.187837
9654.000000;0.185372
9653.000000;0.183018
9652.000000;0.180972
9651.000000;0.179322
9650.000000;0.177932
9649.000000;0.176501
9648.000000;0.174821
9647.000000;0.172923
9646.000000;0.170979
9645.000000;0.169117
9644.000000;0.167350
9643.000000;0.165595
9642.000000;0.163730
9641.000000;0.161704
9640.000000;0.159653
9639.000000;0.157821
9638.000000;0.156325
9637.000000;0.155007
9636.000000;0.153563
9635.000000;0.151784
9634.000000;0.149694
9633.000000;0.147475
9632.000000;0.145299
9631.000000;0.143218
9630.000000;0.141227
9629.000000;0.139399
9628.000000;0.137867
9627.000000;0.136611
9626.000000;0.135347
9625.000000;0.133753
9624.000000;0.131789
9623.000000;0.129693
9622.000000;0.127680
9621.000000;0.125753
9620.000000;0.123784
9619.000000;0.121655
9618.000000;0.119287
9617.000000;0.116703
9616.000000;0.114112
9615.000000;0.111793
9614.000000;0.109817
9613.000000;0.107950
9612.000000;0.105929
9611.000000;0.103734
9610.000000;0.101527
9609.000000;0.099388
9608.000000;0.097270
9607.000000;0.095165
9606.000000;0.093199
9605.000000;0.091510
9604.000000;0.090063
9603.000000;0.088626
9602.000000;0.086901
9601.000000;0.084743
9600.000000;0.082310
9599.000000;0.079992
9598.000000;0.078108
9597.000000;0.076647
9596.000000;0.075295
9595.000000;0.073721
9594.000000;0.071799
9593.000000;0.069573
9592.000000;0.067129
9591.000000;0.064592
9590.000000;0.062165
9589.000000;0.060027
9588.000000;0.058127
9587.000000;0.056192
9586.000000;0.054028
9585.000000;0.051771
9584.000000;0.049737
9583.000000;0.048044
9582.000000;0.046472
9581.000000;0.044693
9580.000000;0.042560
9579.000000;0.040157
9578.000000;0.037680
9577.000000;0.035312
9576.000000;0.033157
9575.000000;0.031218
9574.000000;0.029444
9573.000000;0.027810
9572.000000;0.026310
9571.000000;0.024851
9570.000000;0.023237
9569.000000;0.021287
9568.000000;0.018967
9567.000000;0.016394
9566.000000;0.013759
9565.000000;0.011266
9564.000000;0.009023
9563.000000;0.006977
9562.000000;0.005002
9561.000000;0.003062
9560.000000;0.001211
9559.000000;-0.000592
9558.000000;-0.002519
9557.000000;-0.004648
9556.000000;-0.006811
9555.000000;-0.008776
9554.000000;-0.010491
9553.000000;-0.012066
9552.000000;-0.013628
9551.000000;-0.015325
9550.000000;-0.017352
9549.000000;-0.019781
9548.000000;-0.022391
9547.000000;-0.024836
9546.000000;-0.026988
9545.000000;-0.028962
9544.000000;-0.030816
9543.000000;-0.032435
9542.000000;-0.033758
9541.000000;-0.034974
9540.000000;-0.036395
9539.000000;-0.038198
9538.000000;-0.040383
9537.000000;-0.042852
9536.000000;-0.045419
9535.000000;-0.047815
9534.000000;-0.049836
9533.000000;-0.051551
9532.000000;-0.053260
9531.000000;-0.055198
9530.000000;-0.057297
9529.000000;-0.059302
9528.000000;-0.061094
9527.000000;-0.062803
9526.000000;-0.064592
9525.000000;-0.066423
9524.000000;-0.068149
9523.000000;-0.069771
9522.000000;-0.071470
9521.000000;-0.073364
9520.000000;-0.075341
9519.000000;-0.077179
9518.000000;-0.078761
9517.000000;-0.080123
9516.000000;-0.081400
9515.000000;-0.082752
9514.000000;-0.084255
9513.000000;-0.085822
9512.000000;-0.087308
9511.000000;-0.088765
9510.000000;-0.090454
9509.000000;-0.092508
9508.000000;-0.094682
9507.000000;-0.096557
9506.000000;-0.097955
9505.000000;-0.099061
9504.000000;-0.100194
9503.000000;-0.101550
9502.000000;-0.103118
9501.000000;-0.104740
9500.000000;-0.106268
9499.000000;-0.107708
9498.000000;-0.109150
9497.000000;-0.110536
9496.000000;-0.111675
9495.000000;-0.112552
9494.000000;-0.113466
9493.000000;-0.114664
9492.000000;-0.116004
9491.000000;-0.117173
9490.000000;-0.118147
9489.000000;-0.119142
9488.000000;-0.120197
9487.000000;-0.121096
9486.000000;-0.121769
9485.000000;-0.122476
9484.000000;-0.123494
9483.000000;-0.124789
9482.000000;-0.126116
9481.000000;-0.127242
9480.000000;-0.127995
9479.000000;-0.128305
9478.000000;-0.128366
9477.000000;-0.128640
9476.000000;-0.129478
9475.000000;-0.130784
9474.000000;-0.132168
9473.000000;-0.133384
9472.000000;-0.134488
9471.000000;-0.135631
9470.000000;-0.136840
9469.000000;-0.138018
9468.000000;-0.139064
9467.000000;-0.139898
9466.000000;-0.140426
9465.000000;-0.140555
9464.000000;-0.140306
9463.000000;-0.139920
9462.000000;-0.139778
9461.000000;-0.140104
9460.000000;-0.140755
9459.000000;-0.141379
9458.000000;-0.141787
9457.000000;-0.142085
9456.000000;-0.142423
9455.000000;-0.142765
9454.000000;-0.142945
9453.000000;-0.142855
9452.000000;-0.142512
9451.000000;-0.142049
9450.000000;-0.141713
9449.000000;-0.141753
9448.000000;-0.142187
9447.000000;-0.142722
9446.000000;-0.143023
9445.000000;-0.143041
9444.000000;-0.142978
9443.000000;-0.142963
9442.000000;-0.142891
9441.000000;-0.142575
9440.000000;-0.141962
9439.000000;-0.141156
9438.000000;-0.140340
9437.000000;-0.139709
9436.000000;-0.139402
9435.000000;-0.139390
9434.000000;-0.139453
9433.000000;-0.139327
9432.000000;-0.138900
9431.000000;-0.138267
9430.000000;-0.137624
9429.000000;-0.137120
9428.000000;-0.136773
9427.000000;-0.136458
9426.000000;-0.135979
9425.000000;-0.135229
9424.000000;-0.134321
9423.000000;-0.133535
9422.000000;-0.133056
9421.000000;-0.132772
9420.000000;-0.132367
9419.000000;-0.131631
9418.000000;-0.130636
9417.000000;-0.129627
9416.000000;-0.128783
9415.000000;-0.128111
9414.000000;-0.127507
9413.000000;-0.126883
9412.000000;-0.126222
9411.000000;-0.125527
9410.000000;-0.124736
9409.000000;-0.123747
9408.000000;-0.122552
9407.000000;-0.121299
9406.000000;-0.120124
9405.000000;-0.118977
9404.000000;-0.117742
9403.000000;-0.116506
9402.000000;-0.115496
9401.000000;-0.114711
9400.000000;-0.113826
9399.000000;-0.112621
9398.000000;-0.111342
9397.000000;-0.110412
9396.000000;-0.109854
9395.000000;-0.109222
9394.000000;-0.108127
9393.000000;-0.106613
9392.000000;-0.105013
9391.000000;-0.103574
9390.000000;-0.102320
9389.000000;-0.101153
9388.000000;-0.099979
9387.000000;-0.098767
9386.000000;-0.097541
9385.000000;-0.096299
9384.000000;-0.094987
9383.000000;-0.093583
9382.000000;-0.092172
9381.000000;-0.090844
9380.000000;-0.089569
9379.000000;-0.088289
9378.000000;-0.087087
9377.000000;-0.086106
9376.000000;-0.085258
9375.000000;-0.084205
9374.000000;-0.082719
9373.000000;-0.080982
9372.000000;-0.079406
9371.000000;-0.078203
9370.000000;-0.077217
9369.000000;-0.076136
9368.000000;-0.074784
9367.000000;-0.073219
9366.000000;-0.071620
9365.000000;-0.070121
9364.000000;-0.068727
9363.000000;-0.067356
9362.000000;-0.065930
9361.000000;-0.064440
9360.000000;-0.062961
9359.000000;-0.061600
9358.000000;-0.060387
9357.000000;-0.059216
9356.000000;-0.057943
9355.000000;-0.056567
9354.000000;-0.055201
9353.000000;-0.053849
9352.000000;-0.052348
9351.000000;-0.050645
9350.000000;-0.048994
9349.000000;-0.047710
9348.000000;-0.046772
9347.000000;-0.045851
9346.000000;-0.044686
9345.000000;-0.043292
9344.000000;-0.041799
9343.000000;-0.040241
9342.000000;-0.038567
9341.000000;-0.036751
9340.000000;-0.034882
9339.000000;-0.033179
9338.000000;-0.031858
9337.000000;-0.030904
9336.000000;-0.030014
9335.000000;-0.028895
9334.000000;-0.027548
9333.000000;-0.026170
9332.000000;-0.024860
9331.000000;-0.023593
9330.000000;-0.022379
9329.000000;-0.021222
9328.000000;-0.019959
9327.000000;-0.018394
9326.000000;-0.016605
9325.000000;-0.014889
9324.000000;-0.013389
9323.000000;-0.011969
9322.000000;-0.010496
9321.000000;-0.008994
9320.000000;-0.007482
9319.000000;-0.005929
9318.000000;-0.004475
9317.000000;-0.003391
9316.000000;-0.002672
9315.000000;-0.001883
9314.000000;-0.000639
9313.000000;0.000956
9312.000000;0.002524
9311.000000;0.003914
9310.000000;0.005288
9309.000000;0.006817
9308.000000;0.008508
9307.000000;0.010254
9306.000000;0.011877
9305.000000;0.013199
9304.000000;0.014229
9303.000000;0.015232
9302.000000;0.016456
9301.000000;0.017836
9300.000000;0.019108
9299.000000;0.020131
9298.000000;0.020960
9297.000000;0.021686
9296.000000;0.022407
9295.000000;0.023345
9294.000000;0.024755
9293.000000;0.026647
9292.000000;0.028696
9291.000000;0.030516
9290.000000;0.031957
9289.000000;0.033137
9288.000000;0.034248
9287.000000;0.035383
9286.000000;0.036506
9285.000000;0.037557
9284.000000;0.038570
9283.000000;0.039662
9282.000000;0.040882
9281.000000;0.042150
9280.000000;0.043362
9279.000000;0.044512
9278.000000;0.045664
9277.000000;0.046858
9276.000000;0.048095
9275.000000;0.049358
9274.000000;0.050586
9273.000000;0.051702
9272.000000;0.052711
9271.000000;0.053744
9270.000000;0.054939
9269.000000;0.056336
9268.000000;0.057886
9267.000000;0.059473
9266.000000;0.060896
9265.000000;0.061956
9264.000000;0.062668
9263.000000;0.063326
9262.000000;0.064246
9261.000000;0.065502
9260.000000;0.066955
9259.000000;0.068444
9258.000000;0.069842
9257.000000;0.071014
9256.000000;0.071887
9255.000000;0.072583
9254.000000;0.073375
9253.000000;0.074469
9252.000000;0.075870
9251.000000;0.077405
9250.000000;0.078829
9249.000000;0.079945
9248.000000;0.080713
9247.000000;0.081276
9246.000000;0.081836
9245.000000;0.082522
9244.000000;0.083365
9243.000000;0.084367
9242.000000;0.085544
9241.000000;0.086901
9240.000000;0.088367
9239.000000;0.089756
9238.000000;0.090867
9237.000000;0.091710
9236.000000;0.092580
9235.000000;0.093753
9234.000000;0.095112
9233.000000;0.096263
9232.000000;0.097065
9231.000000;0.097836
9230.000000;0.098934
9229.000000;0.100302
9228.000000;0.101582
9227.000000;0.102538
9226.000000;0.103214
9225.000000;0.103784
9224.000000;0.104434
9223.000000;0.105326
9222.000000;0.106468
9221.000000;0.107663
9220.000000;0.108726
9219.000000;0.109741
9218.000000;0.110937
9217.000000;0.112307
9216.000000;0.113529
9215.000000;0.114326
9214.000000;0.114788
9213.000000;0.115252
9212.000000;0.115959
9211.000000;0.116880
9210.000000;0.117837
9209.000000;0.118728
9208.000000;0.119583
9207.000000;0.120440
9206.000000;0.121207
9205.000000;0.121763
9204.000000;0.122183
9203.000000;0.122749
9202.000000;0.123662
9201.000000;0.124840
9200.000000;0.126039
9199.000000;0.127090
9198.000000;0.127937
9197.000000;0.128574
9196.000000;0.129082
9195.000000;0.129678
9194.000000;0.130535
9193.000000;0.131583
9192.000000;0.132612
9191.000000;0.133562
9190.000000;0.134568
9189.000000;0.135723
9188.000000;0.136937
9187.000000;0.138062
9186.000000;0.139065
9185.000000;0.140027
9184.000000;0.141014
9183.000000;0.141988
9182.000000;0.142813
9181.000000;0.143376
9180.000000;0.143739
9179.000000;0.144114
9178.000000;0.144634
9177.000000;0.145208
9176.000000;0.145710
9175.000000;0.146247
9174.000000;0.147071
9173.000000;0.148252
9172.000000;0.149571
9171.000000;0.150764
9170.000000;0.151741
9169.000000;0.152544
9168.000000;0.153207
9167.000000;0.153738
9166.000000;0.154172
9165.000000;0.154578
9164.000000;0.155072
9163.000000;0.155776
9162.000000;0.156689
9161.000000;0.157596
9160.000000;0.158259
9159.000000;0.158745
9158.000000;0.159438
9157.000000;0.160608
9156.000000;0.162076
9155.000000;0.163372
9154.000000;0.164160
9153.000000;0.164452
9152.000000;0.164503
9151.000000;0.164650
9150.000000;0.165167
9149.000000;0.166083
9148.000000;0.167097
9147.000000;0.167832
9146.000000;0.168237
9145.000000;0.168640
9144.000000;0.169343
9143.000000;0.170272
9142.000000;0.171135
9141.000000;0.171835
9140.000000;0.172534
9139.000000;0.173336
9138.000000;0.174086
9137.000000;0.174606
9136.000000;0.174988
9135.000000;0.175497
9134.000000;0.176224
9133.000000;0.176993
9132.000000;0.177612
9131.000000;0.178112
9130.000000;0.178666
9129.000000;0.179377
9128.000000;0.180201
9127.000000;0.181008
9126.000000;0.181640
9125.000000;0.181959
9124.000000;0.181973
9123.000000;0.181937
9122.000000;0.182235
9121.000000;0.183073
9120.000000;0.184257
9119.000000;0.185316
9118.000000;0.185907
9117.000000;0.186122
9116.000000;0.186390
9115.000000;0.187048
9114.000000;0.188022
9113.000000;0.188950
9112.000000;0.189585
9111.000000;0.190018
9110.000000;0.190533
9109.000000;0.191272
9108.000000;0.192096
9107.000000;0.192733
9106.000000;0.193082
9105.000000;0.193354
9104.000000;0.193881
9103.000000;0.194756
9102.000000;0.195707
9101.000000;0.196360
9100.000000;0.196612
9099.000000;0.196679
9098.000000;0.196825
9097.000000;0.197161
9096.000000;0.197674
9095.000000;0.198321
9094.000000;0.199037
9093.000000;0.199737
9092.000000;0.200359
9091.000000;0.200898
9090.000000;0.201393
9089.000000;0.201927
9088.000000;0.202607
9087.000000;0.203448
9086.000000;0.204287
9085.000000;0.204903
9084.000000;0.205234
9083.000000;0.205416
9082.000000;0.205594
9081.000000;0.205813
9080.000000;0.206096
9079.000000;0.206490
9078.000000;0.206995
9077.000000;0.207543
9076.000000;0.208109
9075.000000;0.208725
9074.000000;0.209356
9073.000000;0.209874
9072.000000;0.210219
9071.000000;0.210478
9070.000000;0.210760
9069.000000;0.211086
9068.000000;0.211460
9067.000000;0.211933
9066.000000;0.212501
9065.000000;0.213049
