Criado como novo conjunto de dados;"0307_DANIEL.spp","40143.8 Secs"
cm-1;Abs
10000.000000;1.030255
9999.000000;1.028787
9998.000000;1.027164
9997.000000;1.025539
9996.000000;1.024182
9995.000000;1.023347
9994.000000;1.022981
9993.000000;1.022624
9992.000000;1.021784
9991.000000;1.020422
9990.000000;1.018919
9989.000000;1.017563
9988.000000;1.016328
9987.000000;1.015147
9986.000000;1.014129
9985.000000;1.013348
9984.000000;1.012616
9983.000000;1.011656
9982.000000;1.010433
9981.000000;1.009142
9980.000000;1.007970
9979.000000;1.006990
9978.000000;1.006181
9977.000000;1.005415
9976.000000;1.004489
9975.000000;1.003335
9974.000000;1.002079
9973.000000;1.000768
9972.000000;0.999144
9971.000000;0.996955
9970.000000;0.994443
9969.000000;0.992273
9968.000000;0.990932
9967.000000;0.990334
9966.000000;0.990011
9965.000000;0.989526
9964.000000;0.988677
9963.000000;0.987495
9962.000000;0.986160
9961.000000;0.984858
9960.000000;0.983650
9959.000000;0.982459
9958.000000;0.981117
9957.000000;0.979396
9956.000000;0.977173
9955.000000;0.974705
9954.000000;0.972617
9953.000000;0.971353
9952.000000;0.970680
9951.000000;0.969962
9950.000000;0.968913
9949.000000;0.967800
9948.000000;0.966924
9947.000000;0.966210
9946.000000;0.965422
9945.000000;0.964475
9944.000000;0.963373
9943.000000;0.962076
9942.000000;0.960653
9941.000000;0.959346
9940.000000;0.958256
9939.000000;0.957108
9938.000000;0.955552
9937.000000;0.953630
9936.000000;0.951736
9935.000000;0.950178
9934.000000;0.948944
9933.000000;0.947859
9932.000000;0.946767
9931.000000;0.945588
9930.000000;0.944363
9929.000000;0.943264
9928.000000;0.942434
9927.000000;0.941756
9926.000000;0.940832
9925.000000;0.939264
9924.000000;0.937018
9923.000000;0.934564
9922.000000;0.932597
9921.000000;0.931454
9920.000000;0.930782
9919.000000;0.929879
9918.000000;0.928440
9917.000000;0.926816
9916.000000;0.925487
9915.000000;0.924481
9914.000000;0.923471
9913.000000;0.922249
9912.000000;0.920896
9911.000000;0.919554
9910.000000;0.918249
9909.000000;0.916970
9908.000000;0.915771
9907.000000;0.914735
9906.000000;0.913858
9905.000000;0.912973
9904.000000;0.911812
9903.000000;0.910242
9902.000000;0.908453
9901.000000;0.906785
9900.000000;0.905334
9899.000000;0.903922
9898.000000;0.902488
9897.000000;0.901240
9896.000000;0.900215
9895.000000;0.898950
9894.000000;0.896958
9893.000000;0.894436
9892.000000;0.892168
9891.000000;0.890686
9890.000000;0.889798
9889.000000;0.888991
9888.000000;0.888005
9887.000000;0.886876
9886.000000;0.885657
9885.000000;0.884343
9884.000000;0.883033
9883.000000;0.881950
9882.000000;0.881197
9881.000000;0.880540
9880.000000;0.879500
9879.000000;0.877728
9878.000000;0.875362
9877.000000;0.872953
9876.000000;0.871030
9875.000000;0.869728
9874.000000;0.868802
9873.000000;0.867885
9872.000000;0.866673
9871.000000;0.865009
9870.000000;0.862956
9869.000000;0.860802
9868.000000;0.858857
9867.000000;0.857248
9866.000000;0.855916
9865.000000;0.854762
9864.000000;0.853709
9863.000000;0.852685
9862.000000;0.851670
9861.000000;0.850700
9860.000000;0.849754
9859.000000;0.848657
9858.000000;0.847238
9857.000000;0.845551
9856.000000;0.843824
9855.000000;0.842191
9854.000000;0.840622
9853.000000;0.839108
9852.000000;0.837761
9851.000000;0.836659
9850.000000;0.835678
9849.000000;0.834548
9848.000000;0.833091
9847.000000;0.831382
9846.000000;0.829679
9845.000000;0.828135
9844.000000;0.826626
9843.000000;0.824935
9842.000000;0.823104
9841.000000;0.821409
9840.000000;0.819976
9839.000000;0.818629
9838.000000;0.817256
9837.000000;0.816065
9836.000000;0.815205
9835.000000;0.814299
9834.000000;0.812743
9833.000000;0.810445
9832.000000;0.807947
9831.000000;0.805788
9830.000000;0.804063
9829.000000;0.802658
9828.000000;0.801515
9827.000000;0.800462
9826.000000;0.799091
9825.000000;0.797160
9824.000000;0.794971
9823.000000;0.793048
9822.000000;0.791531
9821.000000;0.790154
9820.000000;0.788778
9819.000000;0.787592
9818.000000;0.786713
9817.000000;0.785873
9816.000000;0.784703
9815.000000;0.783182
9814.000000;0.781594
9813.000000;0.780109
9812.000000;0.778624
9811.000000;0.777012
9810.000000;0.775319
9809.000000;0.773637
9808.000000;0.771945
9807.000000;0.770185
9806.000000;0.768409
9805.000000;0.766685
9804.000000;0.764945
9803.000000;0.763094
9802.000000;0.761242
9801.000000;0.759656
9800.000000;0.758420
9799.000000;0.757310
9798.000000;0.756061
9797.000000;0.754637
9796.000000;0.753146
9795.000000;0.751637
9794.000000;0.750119
9793.000000;0.748633
9792.000000;0.747160
9791.000000;0.745540
9790.000000;0.743649
9789.000000;0.741598
9788.000000;0.739602
9787.000000;0.737697
9786.000000;0.735754
9785.000000;0.733751
9784.000000;0.731837
9783.000000;0.730106
9782.000000;0.728453
9781.000000;0.726717
9780.000000;0.724856
9779.000000;0.722969
9778.000000;0.721230
9777.000000;0.719803
9776.000000;0.718687
9775.000000;0.717580
9774.000000;0.716081
9773.000000;0.714113
9772.000000;0.712039
9771.000000;0.710268
9770.000000;0.708829
9769.000000;0.707451
9768.000000;0.705944
9767.000000;0.704363
9766.000000;0.702819
9765.000000;0.701281
9764.000000;0.699623
9763.000000;0.697791
9762.000000;0.695863
9761.000000;0.693964
9760.000000;0.692147
9759.000000;0.690363
9758.000000;0.688537
9757.000000;0.686661
9756.000000;0.684823
9755.000000;0.683132
9754.000000;0.681596
9753.000000;0.680077
9752.000000;0.678370
9751.000000;0.676361
9750.000000;0.674129
9749.000000;0.671892
9748.000000;0.669867
9747.000000;0.668149
9746.000000;0.666697
9745.000000;0.665379
9744.000000;0.664032
9743.000000;0.662532
9742.000000;0.660819
9741.000000;0.658861
9740.000000;0.656656
9739.000000;0.654342
9738.000000;0.652239
9737.000000;0.650603
9736.000000;0.649306
9735.000000;0.647928
9734.000000;0.646241
9733.000000;0.644440
9732.000000;0.642792
9731.000000;0.641215
9730.000000;0.639398
9729.000000;0.637248
9728.000000;0.634972
9727.000000;0.632782
9726.000000;0.630710
9725.000000;0.628737
9724.000000;0.626883
9723.000000;0.625125
9722.000000;0.623393
9721.000000;0.621699
9720.000000;0.620093
9719.000000;0.618462
9718.000000;0.616565
9717.000000;0.614392
9716.000000;0.612274
9715.000000;0.610474
9714.000000;0.608827
9713.000000;0.606996
9712.000000;0.604970
9711.000000;0.603030
9710.000000;0.601235
9709.000000;0.599276
9708.000000;0.596986
9707.000000;0.594735
9706.000000;0.593038
9705.000000;0.591864
9704.000000;0.590611
9703.000000;0.588835
9702.000000;0.586774
9701.000000;0.584983
9700.000000;0.583591
9699.000000;0.582148
9698.000000;0.580177
9697.000000;0.577682
9696.000000;0.575044
9695.000000;0.572607
9694.000000;0.570475
9693.000000;0.568591
9692.000000;0.566841
9691.000000;0.565062
9690.000000;0.563100
9689.000000;0.560919
9688.000000;0.558634
9687.000000;0.556445
9686.000000;0.554533
9685.000000;0.552962
9684.000000;0.551572
9683.000000;0.550016
9682.000000;0.547998
9681.000000;0.545519
9680.000000;0.542863
9679.000000;0.540335
9678.000000;0.538080
9677.000000;0.536098
9676.000000;0.534303
9675.000000;0.532552
9674.000000;0.530699
9673.000000;0.528695
9672.000000;0.526558
9671.000000;0.524256
9670.000000;0.521718
9669.000000;0.519030
9668.000000;0.516528
9667.000000;0.514533
9666.000000;0.512963
9665.000000;0.511340
9664.000000;0.509248
9663.000000;0.506767
9662.000000;0.504362
9661.000000;0.502383
9660.000000;0.500725
9659.000000;0.498992
9658.000000;0.496878
9657.000000;0.494363
9656.000000;0.491637
9655.000000;0.488992
9654.000000;0.486725
9653.000000;0.484973
9652.000000;0.483570
9651.000000;0.482133
9650.000000;0.480362
9649.000000;0.478213
9648.000000;0.475784
9647.000000;0.473181
9646.000000;0.470523
9645.000000;0.467981
9644.000000;0.465666
9643.000000;0.463526
9642.000000;0.461420
9641.000000;0.459260
9640.000000;0.457067
9639.000000;0.454939
9638.000000;0.453019
9637.000000;0.451359
9636.000000;0.449783
9635.000000;0.447994
9634.000000;0.445900
9633.000000;0.443686
9632.000000;0.441475
9631.000000;0.439094
9630.000000;0.436403
9629.000000;0.433663
9628.000000;0.431314
9627.000000;0.429426
9626.000000;0.427655
9625.000000;0.425687
9624.000000;0.423470
9623.000000;0.421013
9622.000000;0.418305
9621.000000;0.415557
9620.000000;0.413182
9619.000000;0.411324
9618.000000;0.409564
9617.000000;0.407336
9616.000000;0.404511
9615.000000;0.401446
9614.000000;0.398588
9613.000000;0.396180
9612.000000;0.394202
9611.000000;0.392390
9610.000000;0.390386
9609.000000;0.388095
9608.000000;0.385801
9607.000000;0.383786
9606.000000;0.381937
9605.000000;0.379924
9604.000000;0.377664
9603.000000;0.375354
9602.000000;0.373112
9601.000000;0.370883
9600.000000;0.368713
9599.000000;0.366786
9598.000000;0.365095
9597.000000;0.363307
9596.000000;0.361110
9595.000000;0.358510
9594.000000;0.355685
9593.000000;0.352734
9592.000000;0.349749
9591.000000;0.346951
9590.000000;0.344531
9589.000000;0.342411
9588.000000;0.340325
9587.000000;0.338092
9586.000000;0.335704
9585.000000;0.333196
9584.000000;0.330611
9583.000000;0.328059
9582.000000;0.325639
9581.000000;0.323313
9580.000000;0.320977
9579.000000;0.318653
9578.000000;0.316469
9577.000000;0.314451
9576.000000;0.312455
9575.000000;0.310335
9574.000000;0.308040
9573.000000;0.305556
9572.000000;0.302907
9571.000000;0.300261
9570.000000;0.297879
9569.000000;0.295821
9568.000000;0.293816
9567.000000;0.291542
9566.000000;0.288971
9565.000000;0.286352
9564.000000;0.283886
9563.000000;0.281528
9562.000000;0.279115
9561.000000;0.276572
9560.000000;0.273985
9559.000000;0.271505
9558.000000;0.269222
9557.000000;0.267112
9556.000000;0.265112
9555.000000;0.263229
9554.000000;0.261519
9553.000000;0.259905
9552.000000;0.258060
9551.000000;0.255611
9550.000000;0.252544
9549.000000;0.249363
9548.000000;0.246721
9547.000000;0.244817
9546.000000;0.243181
9545.000000;0.241138
9544.000000;0.238501
9543.000000;0.235733
9542.000000;0.233384
9541.000000;0.231502
9540.000000;0.229662
9539.000000;0.227473
9538.000000;0.224917
9537.000000;0.222217
9536.000000;0.219600
9535.000000;0.217218
9534.000000;0.215133
9533.000000;0.213272
9532.000000;0.211455
9531.000000;0.209558
9530.000000;0.207580
9529.000000;0.205519
9528.000000;0.203318
9527.000000;0.201006
9526.000000;0.198782
9525.000000;0.196818
9524.000000;0.195017
9523.000000;0.193097
9522.000000;0.190901
9521.000000;0.188541
9520.000000;0.186239
9519.000000;0.184092
9518.000000;0.182030
9517.000000;0.179969
9516.000000;0.177992
9515.000000;0.176317
9514.000000;0.175029
9513.000000;0.173848
9512.000000;0.172323
9511.000000;0.170280
9510.000000;0.168006
9509.000000;0.165908
9508.000000;0.164136
9507.000000;0.162584
9506.000000;0.161130
9505.000000;0.159709
9504.000000;0.158224
9503.000000;0.156561
9502.000000;0.154701
9501.000000;0.152717
9500.000000;0.150677
9499.000000;0.148638
9498.000000;0.146692
9497.000000;0.144916
9496.000000;0.143301
9495.000000;0.141807
9494.000000;0.140460
9493.000000;0.139263
9492.000000;0.138063
9491.000000;0.136635
9490.000000;0.134954
9489.000000;0.133282
9488.000000;0.131951
9487.000000;0.131062
9486.000000;0.130387
9485.000000;0.129517
9484.000000;0.128187
9483.000000;0.126504
9482.000000;0.124833
9481.000000;0.123436
9480.000000;0.122283
9479.000000;0.121239
9478.000000;0.120273
9477.000000;0.119380
9476.000000;0.118430
9475.000000;0.117281
9474.000000;0.115991
9473.000000;0.114761
9472.000000;0.113707
9471.000000;0.112811
9470.000000;0.112007
9469.000000;0.111168
9468.000000;0.110078
9467.000000;0.108654
9466.000000;0.107194
9465.000000;0.106188
9464.000000;0.105829
9463.000000;0.105846
9462.000000;0.105838
9461.000000;0.105614
9460.000000;0.105173
9459.000000;0.104564
9458.000000;0.103879
9457.000000;0.103270
9456.000000;0.102834
9455.000000;0.102506
9454.000000;0.102130
9453.000000;0.101618
9452.000000;0.101030
9451.000000;0.100502
9450.000000;0.100112
9449.000000;0.099802
9448.000000;0.099468
9447.000000;0.099142
9446.000000;0.098968
9445.000000;0.098960
9444.000000;0.098906
9443.000000;0.098648
9442.000000;0.098340
9441.000000;0.098257
9440.000000;0.098427
9439.000000;0.098618
9438.000000;0.098663
9437.000000;0.098610
9436.000000;0.098587
9435.000000;0.098683
9434.000000;0.098981
9433.000000;0.099503
9432.000000;0.100095
9431.000000;0.100502
9430.000000;0.100593
9429.000000;0.100429
9428.000000;0.100165
9427.000000;0.100019
9426.000000;0.100254
9425.000000;0.100965
9424.000000;0.101911
9423.000000;0.102708
9422.000000;0.103187
9421.000000;0.103426
9420.000000;0.103531
9419.000000;0.103612
9418.000000;0.103897
9417.000000;0.104568
9416.000000;0.105468
9415.000000;0.106233
9414.000000;0.106746
9413.000000;0.107184
9412.000000;0.107610
9411.000000;0.107876
9410.000000;0.108011
9409.000000;0.108376
9408.000000;0.109206
9407.000000;0.110267
9406.000000;0.111173
9405.000000;0.111867
9404.000000;0.112574
9403.000000;0.113459
9402.000000;0.114530
9401.000000;0.115734
9400.000000;0.116943
9399.000000;0.117952
9398.000000;0.118677
9397.000000;0.119288
9396.000000;0.120019
9395.000000;0.120923
9394.000000;0.121905
9393.000000;0.122867
9392.000000;0.123694
9391.000000;0.124251
9390.000000;0.124539
9389.000000;0.124773
9388.000000;0.125173
9387.000000;0.125785
9386.000000;0.126618
9385.000000;0.127800
9384.000000;0.129389
9383.000000;0.131158
9382.000000;0.132757
9381.000000;0.134053
9380.000000;0.135148
9379.000000;0.136148
9378.000000;0.137105
9377.000000;0.138132
9376.000000;0.139377
9375.000000;0.140826
9374.000000;0.142267
9373.000000;0.143484
9372.000000;0.144415
9371.000000;0.145174
9370.000000;0.146001
9369.000000;0.147148
9368.000000;0.148668
9367.000000;0.150288
9366.000000;0.151593
9365.000000;0.152382
9364.000000;0.152841
9363.000000;0.153400
9362.000000;0.154424
9361.000000;0.155928
9360.000000;0.157539
9359.000000;0.158828
9358.000000;0.159775
9357.000000;0.160820
9356.000000;0.162363
9355.000000;0.164311
9354.000000;0.166215
9353.000000;0.167751
9352.000000;0.168922
9351.000000;0.169870
9350.000000;0.170654
9349.000000;0.171257
9348.000000;0.171698
9347.000000;0.172148
9346.000000;0.172921
9345.000000;0.174254
9344.000000;0.175997
9343.000000;0.177636
9342.000000;0.178777
9341.000000;0.179530
9340.000000;0.180308
9339.000000;0.181331
9338.000000;0.182522
9337.000000;0.183786
9336.000000;0.185128
9335.000000;0.186492
9334.000000;0.187721
9333.000000;0.188769
9332.000000;0.189787
9331.000000;0.190910
9330.000000;0.192112
9329.000000;0.193374
9328.000000;0.194797
9327.000000;0.196421
9326.000000;0.198015
9325.000000;0.199287
9324.000000;0.200260
9323.000000;0.201262
9322.000000;0.202491
9321.000000;0.203747
9320.000000;0.204708
9319.000000;0.205363
9318.000000;0.206027
9317.000000;0.206951
9316.000000;0.208073
9315.000000;0.209199
9314.000000;0.210286
9313.000000;0.211412
9312.000000;0.212572
9311.000000;0.213663
9310.000000;0.214680
9309.000000;0.215769
9308.000000;0.217036
9307.000000;0.218396
9306.000000;0.219687
9305.000000;0.220855
9304.000000;0.222001
9303.000000;0.223266
9302.000000;0.224696
9301.000000;0.226153
9300.000000;0.227371
9299.000000;0.228191
9298.000000;0.228779
9297.000000;0.229489
9296.000000;0.230509
9295.000000;0.231698
9294.000000;0.232849
9293.000000;0.233946
9292.000000;0.235108
9291.000000;0.236362
9290.000000;0.237610
9289.000000;0.238765
9288.000000;0.239821
9287.000000;0.240799
9286.000000;0.241711
9285.000000;0.242583
9284.000000;0.243457
9283.000000;0.244369
9282.000000;0.245344
9281.000000;0.246368
9280.000000;0.247374
9279.000000;0.248295
9278.000000;0.249160
9277.000000;0.250073
9276.000000;0.251088
9275.000000;0.252175
9274.000000;0.253346
9273.000000;0.254691
9272.000000;0.256218
9271.000000;0.257755
9270.000000;0.259065
9269.000000;0.260045
9268.000000;0.260751
9267.000000;0.261322
9266.000000;0.261928
9265.000000;0.262685
9264.000000;0.263580
9263.000000;0.264516
9262.000000;0.265504
9261.000000;0.266680
9260.000000;0.268068
9259.000000;0.269444
9258.000000;0.270528
9257.000000;0.271260
9256.000000;0.271778
9255.000000;0.272222
9254.000000;0.272658
9253.000000;0.273129
9252.000000;0.273654
9251.000000;0.274246
9250.000000;0.274995
9249.000000;0.276041
9248.000000;0.277341
9247.000000;0.278572
9246.000000;0.279472
9245.000000;0.280201
9244.000000;0.281178
9243.000000;0.282536
9242.000000;0.283962
9241.000000;0.285090
9240.000000;0.285898
9239.000000;0.286628
9238.000000;0.287455
9237.000000;0.288351
9236.000000;0.289208
9235.000000;0.289965
9234.000000;0.290615
9233.000000;0.291168
9232.000000;0.291674
9231.000000;0.292243
9230.000000;0.293010
9229.000000;0.293993
9228.000000;0.295031
9227.000000;0.295932
9226.000000;0.296709
9225.000000;0.297537
9224.000000;0.298468
9223.000000;0.299324
9222.000000;0.299975
9221.000000;0.300593
9220.000000;0.301464
9219.000000;0.302613
9218.000000;0.303783
9217.000000;0.304754
9216.000000;0.305513
9215.000000;0.306125
9214.000000;0.306627
9213.000000;0.307069
9212.000000;0.307524
9211.000000;0.307991
9210.000000;0.308410
9209.000000;0.308829
9208.000000;0.309435
9207.000000;0.310359
9206.000000;0.311499
9205.000000;0.312606
9204.000000;0.313482
9203.000000;0.314099
9202.000000;0.314601
9201.000000;0.315217
9200.000000;0.316094
9199.000000;0.317132
9198.000000;0.318052
9197.000000;0.318667
9196.000000;0.319061
9195.000000;0.319482
9194.000000;0.320092
9193.000000;0.320851
9192.000000;0.321585
9191.000000;0.322167
9190.000000;0.322665
9189.000000;0.323290
9188.000000;0.324144
9187.000000;0.325035
9186.000000;0.325637
9185.000000;0.325850
9184.000000;0.325921
9183.000000;0.326186
9182.000000;0.326798
9181.000000;0.327724
9180.000000;0.328844
9179.000000;0.329973
9178.000000;0.330892
9177.000000;0.331509
9176.000000;0.331979
9175.000000;0.332550
9174.000000;0.333298
9173.000000;0.334072
9172.000000;0.334704
9171.000000;0.335177
9170.000000;0.335604
9169.000000;0.336114
9168.000000;0.336790
9167.000000;0.337642
9166.000000;0.338570
9165.000000;0.339395
9164.000000;0.339968
9163.000000;0.340288
9162.000000;0.340495
9161.000000;0.340763
9160.000000;0.341196
9159.000000;0.341809
9158.000000;0.342527
9157.000000;0.343202
9156.000000;0.343677
9155.000000;0.343917
9154.000000;0.344078
9153.000000;0.344416
9152.000000;0.345091
9151.000000;0.346059
9150.000000;0.347118
9149.000000;0.348033
9148.000000;0.348640
9147.000000;0.348963
9146.000000;0.349246
9145.000000;0.349796
9144.000000;0.350691
9143.000000;0.351676
9142.000000;0.352407
9141.000000;0.352792
9140.000000;0.353017
9139.000000;0.353287
9138.000000;0.353629
9137.000000;0.353952
9136.000000;0.354202
9135.000000;0.354430
9134.000000;0.354735
9133.000000;0.355193
9132.000000;0.355795
9131.000000;0.356446
9130.000000;0.357044
9129.000000;0.357565
9128.000000;0.358057
9127.000000;0.358548
9126.000000;0.359013
9125.000000;0.359422
9124.000000;0.359761
9123.000000;0.360032
9122.000000;0.360279
9121.000000;0.360619
9120.000000;0.361166
9119.000000;0.361890
9118.000000;0.362607
9117.000000;0.363157
9116.000000;0.363536
9115.000000;0.363827
9114.000000;0.364052
9113.000000;0.364180
9112.000000;0.364255
9111.000000;0.364428
9110.000000;0.364823
9109.000000;0.365402
9108.000000;0.365998
9107.000000;0.366482
9106.000000;0.366893
9105.000000;0.367402
9104.000000;0.368140
9103.000000;0.369039
9102.000000;0.369828
9101.000000;0.370227
9100.000000;0.370167
9099.000000;0.369850
9098.000000;0.369603
9097.000000;0.369671
9096.000000;0.370117
9095.000000;0.370823
9094.000000;0.371575
9093.000000;0.372170
9092.000000;0.372526
9091.000000;0.372720
9090.000000;0.372885
9089.000000;0.373074
9088.000000;0.373247
9087.000000;0.373404
9086.000000;0.373645
9085.000000;0.374060
9084.000000;0.374584
9083.000000;0.375065
9082.000000;0.375452
9081.000000;0.375841
9080.000000;0.376321
9079.000000;0.376840
9078.000000;0.377297
9077.000000;0.377681
9076.000000;0.378058
9075.000000;0.378445
9074.000000;0.378776
9073.000000;0.379004
9072.000000;0.379188
9071.000000;0.379448
9070.000000;0.379850
9069.000000;0.380337
9068.000000;0.380771
9067.000000;0.381044
9066.000000;0.381175
9065.000000;0.381292
9064.000000;0.381526
9063.000000;0.381881
9062.000000;0.382235
9061.000000;0.382464
9060.000000;0.382584
9059.000000;0.382747
9058.000000;0.383070
9057.000000;0.383487
9056.000000;0.383814
9055.000000;0.383995
9054.000000;0.384193
9053.000000;0.384570
