Criado como novo conjunto de dados;"0307_DANIEL.spp","62105.1 Secs"
cm-1;Abs
10000.000000;0.534185
9999.000000;0.533525
9998.000000;0.532866
9997.000000;0.532208
9996.000000;0.531552
9995.000000;0.530896
9994.000000;0.530239
9993.000000;0.529511
9992.000000;0.528629
9991.000000;0.527715
9990.000000;0.526993
9989.000000;0.526527
9988.000000;0.526098
9987.000000;0.525433
9986.000000;0.524497
9985.000000;0.523486
9984.000000;0.522585
9983.000000;0.521807
9982.000000;0.521071
9981.000000;0.520304
9980.000000;0.519467
9979.000000;0.518573
9978.000000;0.517715
9977.000000;0.516978
9976.000000;0.516303
9975.000000;0.515527
9974.000000;0.514590
9973.000000;0.513622
9972.000000;0.512759
9971.000000;0.511966
9970.000000;0.511107
9969.000000;0.510141
9968.000000;0.509153
9967.000000;0.508264
9966.000000;0.507560
9965.000000;0.507058
9964.000000;0.506658
9963.000000;0.506165
9962.000000;0.505437
9961.000000;0.504491
9960.000000;0.503421
9959.000000;0.502258
9958.000000;0.501012
9957.000000;0.499804
9956.000000;0.498825
9955.000000;0.498155
9954.000000;0.497671
9953.000000;0.497167
9952.000000;0.496497
9951.000000;0.495613
9950.000000;0.494554
9949.000000;0.493426
9948.000000;0.492365
9947.000000;0.491496
9946.000000;0.490901
9945.000000;0.490573
9944.000000;0.490361
9943.000000;0.490006
9942.000000;0.489324
9941.000000;0.488347
9940.000000;0.487230
9939.000000;0.486076
9938.000000;0.484916
9937.000000;0.483815
9936.000000;0.482836
9935.000000;0.481896
9934.000000;0.480828
9933.000000;0.479639
9932.000000;0.478600
9931.000000;0.477941
9930.000000;0.477548
9929.000000;0.477083
9928.000000;0.476343
9927.000000;0.475403
9926.000000;0.474418
9925.000000;0.473426
9924.000000;0.472386
9923.000000;0.471277
9922.000000;0.470120
9921.000000;0.468975
9920.000000;0.467968
9919.000000;0.467230
9918.000000;0.466702
9917.000000;0.466088
9916.000000;0.465104
9915.000000;0.463791
9914.000000;0.462442
9913.000000;0.461240
9912.000000;0.460103
9911.000000;0.458946
9910.000000;0.457921
9909.000000;0.457232
9908.000000;0.456761
9907.000000;0.456067
9906.000000;0.454831
9905.000000;0.453217
9904.000000;0.451727
9903.000000;0.450745
9902.000000;0.450282
9901.000000;0.450071
9900.000000;0.449803
9899.000000;0.449294
9898.000000;0.448515
9897.000000;0.447552
9896.000000;0.446514
9895.000000;0.445452
9894.000000;0.444358
9893.000000;0.443256
9892.000000;0.442273
9891.000000;0.441550
9890.000000;0.441073
9889.000000;0.440612
9888.000000;0.439901
9887.000000;0.438881
9886.000000;0.437695
9885.000000;0.436458
9884.000000;0.435143
9883.000000;0.433729
9882.000000;0.432363
9881.000000;0.431230
9880.000000;0.430322
9879.000000;0.429438
9878.000000;0.428418
9877.000000;0.427271
9876.000000;0.426102
9875.000000;0.425011
9874.000000;0.424077
9873.000000;0.423293
9872.000000;0.422505
9871.000000;0.421522
9870.000000;0.420333
9869.000000;0.419092
9868.000000;0.417881
9867.000000;0.416661
9866.000000;0.415533
9865.000000;0.414830
9864.000000;0.414717
9863.000000;0.414803
9862.000000;0.414396
9861.000000;0.413188
9860.000000;0.411535
9859.000000;0.410009
9858.000000;0.408847
9857.000000;0.407892
9856.000000;0.406938
9855.000000;0.405943
9854.000000;0.404923
9853.000000;0.403803
9852.000000;0.402494
9851.000000;0.401080
9850.000000;0.399791
9849.000000;0.398741
9848.000000;0.397743
9847.000000;0.396522
9846.000000;0.395060
9845.000000;0.393628
9844.000000;0.392449
9843.000000;0.391455
9842.000000;0.390435
9841.000000;0.389311
9840.000000;0.388192
9839.000000;0.387227
9838.000000;0.386493
9837.000000;0.385973
9836.000000;0.385526
9835.000000;0.384918
9834.000000;0.383976
9833.000000;0.382705
9832.000000;0.381226
9831.000000;0.379669
9830.000000;0.378157
9829.000000;0.376822
9828.000000;0.375717
9827.000000;0.374750
9826.000000;0.373774
9825.000000;0.372688
9824.000000;0.371405
9823.000000;0.369860
9822.000000;0.368167
9821.000000;0.366670
9820.000000;0.365624
9819.000000;0.364867
9818.000000;0.363980
9817.000000;0.362785
9816.000000;0.361507
9815.000000;0.360431
9814.000000;0.359551
9813.000000;0.358633
9812.000000;0.357492
9811.000000;0.356119
9810.000000;0.354641
9809.000000;0.353228
9808.000000;0.351975
9807.000000;0.350827
9806.000000;0.349671
9805.000000;0.348493
9804.000000;0.347351
9803.000000;0.346228
9802.000000;0.345036
9801.000000;0.343793
9800.000000;0.342625
9799.000000;0.341549
9798.000000;0.340396
9797.000000;0.339039
9796.000000;0.337564
9795.000000;0.336142
9794.000000;0.334840
9793.000000;0.333660
9792.000000;0.332633
9791.000000;0.331739
9790.000000;0.330820
9789.000000;0.329699
9788.000000;0.328343
9787.000000;0.326841
9786.000000;0.325290
9785.000000;0.323813
9784.000000;0.322559
9783.000000;0.321535
9782.000000;0.320515
9781.000000;0.319258
9780.000000;0.317784
9779.000000;0.316294
9778.000000;0.314868
9777.000000;0.313436
9776.000000;0.312021
9775.000000;0.310791
9774.000000;0.309810
9773.000000;0.308910
9772.000000;0.307877
9771.000000;0.306656
9770.000000;0.305297
9769.000000;0.303832
9768.000000;0.302315
9767.000000;0.300871
9766.000000;0.299590
9765.000000;0.298403
9764.000000;0.297187
9763.000000;0.295938
9762.000000;0.294762
9761.000000;0.293674
9760.000000;0.292524
9759.000000;0.291157
9758.000000;0.289569
9757.000000;0.287885
9756.000000;0.286220
9755.000000;0.284628
9754.000000;0.283144
9753.000000;0.281801
9752.000000;0.280574
9751.000000;0.279366
9750.000000;0.278088
9749.000000;0.276755
9748.000000;0.275430
9747.000000;0.274095
9746.000000;0.272641
9745.000000;0.271045
9744.000000;0.269502
9743.000000;0.268265
9742.000000;0.267354
9741.000000;0.266476
9740.000000;0.265283
9739.000000;0.263671
9738.000000;0.261799
9737.000000;0.259877
9736.000000;0.258020
9735.000000;0.256317
9734.000000;0.254913
9733.000000;0.253873
9732.000000;0.252963
9731.000000;0.251741
9730.000000;0.249997
9729.000000;0.248058
9728.000000;0.246467
9727.000000;0.245352
9726.000000;0.244298
9725.000000;0.242878
9724.000000;0.241159
9723.000000;0.239519
9722.000000;0.238112
9721.000000;0.236722
9720.000000;0.235102
9719.000000;0.233264
9718.000000;0.231384
9717.000000;0.229604
9716.000000;0.227973
9715.000000;0.226484
9714.000000;0.225075
9713.000000;0.223658
9712.000000;0.222206
9711.000000;0.220777
9710.000000;0.219411
9709.000000;0.218079
9708.000000;0.216732
9707.000000;0.215336
9706.000000;0.213841
9705.000000;0.212224
9704.000000;0.210572
9703.000000;0.209018
9702.000000;0.207536
9701.000000;0.205933
9700.000000;0.204119
9699.000000;0.202261
9698.000000;0.200578
9697.000000;0.199071
9696.000000;0.197592
9695.000000;0.196062
9694.000000;0.194483
9693.000000;0.192788
9692.000000;0.190901
9691.000000;0.188951
9690.000000;0.187220
9689.000000;0.185810
9688.000000;0.184505
9687.000000;0.183042
9686.000000;0.181404
9685.000000;0.179756
9684.000000;0.178207
9683.000000;0.176754
9682.000000;0.175371
9681.000000;0.174006
9680.000000;0.172503
9679.000000;0.170699
9678.000000;0.168645
9677.000000;0.166635
9676.000000;0.164945
9675.000000;0.163530
9674.000000;0.162069
9673.000000;0.160304
9672.000000;0.158309
9671.000000;0.156387
9670.000000;0.154723
9669.000000;0.153201
9668.000000;0.151573
9667.000000;0.149757
9666.000000;0.147885
9665.000000;0.146090
9664.000000;0.144363
9663.000000;0.142641
9662.000000;0.140931
9661.000000;0.139281
9660.000000;0.137656
9659.000000;0.135937
9658.000000;0.134043
9657.000000;0.131997
9656.000000;0.129912
9655.000000;0.127947
9654.000000;0.126245
9653.000000;0.124817
9652.000000;0.123468
9651.000000;0.121906
9650.000000;0.120008
9649.000000;0.117948
9648.000000;0.116050
9647.000000;0.114480
9646.000000;0.113112
9645.000000;0.111665
9644.000000;0.109957
9643.000000;0.108001
9642.000000;0.105900
9641.000000;0.103731
9640.000000;0.101567
9639.000000;0.099503
9638.000000;0.097585
9637.000000;0.095740
9636.000000;0.093876
9635.000000;0.092043
9634.000000;0.090381
9633.000000;0.088892
9632.000000;0.087386
9631.000000;0.085686
9630.000000;0.083786
9629.000000;0.081785
9628.000000;0.079768
9627.000000;0.077825
9626.000000;0.076026
9625.000000;0.074256
9624.000000;0.072239
9623.000000;0.069895
9622.000000;0.067595
9621.000000;0.065829
9620.000000;0.064648
9619.000000;0.063604
9618.000000;0.062230
9617.000000;0.060406
9616.000000;0.058263
9615.000000;0.055990
9614.000000;0.053793
9613.000000;0.051834
9612.000000;0.050053
9611.000000;0.048171
9610.000000;0.046005
9609.000000;0.043694
9608.000000;0.041534
9607.000000;0.039652
9606.000000;0.037915
9605.000000;0.036084
9604.000000;0.033996
9603.000000;0.031724
9602.000000;0.029607
9601.000000;0.027961
9600.000000;0.026658
9599.000000;0.025145
9598.000000;0.023024
9597.000000;0.020491
9596.000000;0.018043
9595.000000;0.015886
9594.000000;0.013845
9593.000000;0.011748
9592.000000;0.009635
9591.000000;0.007560
9590.000000;0.005459
9589.000000;0.003310
9588.000000;0.001243
9587.000000;-0.000612
9586.000000;-0.002311
9585.000000;-0.004057
9584.000000;-0.006021
9583.000000;-0.008207
9582.000000;-0.010436
9581.000000;-0.012454
9580.000000;-0.014163
9579.000000;-0.015731
9578.000000;-0.017436
9577.000000;-0.019386
9576.000000;-0.021484
9575.000000;-0.023602
9574.000000;-0.025666
9573.000000;-0.027607
9572.000000;-0.029386
9571.000000;-0.031104
9570.000000;-0.032940
9569.000000;-0.034961
9568.000000;-0.037095
9567.000000;-0.039316
9566.000000;-0.041681
9565.000000;-0.044129
9564.000000;-0.046406
9563.000000;-0.048312
9562.000000;-0.049922
9561.000000;-0.051504
9560.000000;-0.053285
9559.000000;-0.055327
9558.000000;-0.057490
9557.000000;-0.059489
9556.000000;-0.061144
9555.000000;-0.062642
9554.000000;-0.064415
9553.000000;-0.066651
9552.000000;-0.069074
9551.000000;-0.071319
9550.000000;-0.073340
9549.000000;-0.075304
9548.000000;-0.077252
9547.000000;-0.079125
9546.000000;-0.081002
9545.000000;-0.083030
9544.000000;-0.085133
9543.000000;-0.087031
9542.000000;-0.088595
9541.000000;-0.090000
9540.000000;-0.091483
9539.000000;-0.093139
9538.000000;-0.095010
9537.000000;-0.097172
9536.000000;-0.099603
9535.000000;-0.102095
9534.000000;-0.104422
9533.000000;-0.106532
9532.000000;-0.108504
9531.000000;-0.110392
9530.000000;-0.112197
9529.000000;-0.113904
9528.000000;-0.115473
9527.000000;-0.116856
9526.000000;-0.118136
9525.000000;-0.119552
9524.000000;-0.121270
9523.000000;-0.123157
9522.000000;-0.124916
9521.000000;-0.126431
9520.000000;-0.127865
9519.000000;-0.129399
9518.000000;-0.131006
9517.000000;-0.132537
9516.000000;-0.133949
9515.000000;-0.135374
9514.000000;-0.136986
9513.000000;-0.138851
9512.000000;-0.140846
9511.000000;-0.142727
9510.000000;-0.144312
9509.000000;-0.145659
9508.000000;-0.147018
9507.000000;-0.148545
9506.000000;-0.150120
9505.000000;-0.151507
9504.000000;-0.152649
9503.000000;-0.153715
9502.000000;-0.154880
9501.000000;-0.156208
9500.000000;-0.157754
9499.000000;-0.159615
9498.000000;-0.161750
9497.000000;-0.163812
9496.000000;-0.165345
9495.000000;-0.166195
9494.000000;-0.166655
9493.000000;-0.167196
9492.000000;-0.168118
9491.000000;-0.169430
9490.000000;-0.170934
9489.000000;-0.172349
9488.000000;-0.173457
9487.000000;-0.174253
9486.000000;-0.174945
9485.000000;-0.175738
9484.000000;-0.176601
9483.000000;-0.177334
9482.000000;-0.177852
9481.000000;-0.178324
9480.000000;-0.178985
9479.000000;-0.179878
9478.000000;-0.180834
9477.000000;-0.181709
9476.000000;-0.182531
9475.000000;-0.183418
9474.000000;-0.184397
9473.000000;-0.185374
9472.000000;-0.186254
9471.000000;-0.187012
9470.000000;-0.187632
9469.000000;-0.188088
9468.000000;-0.188467
9467.000000;-0.189002
9466.000000;-0.189836
9465.000000;-0.190756
9464.000000;-0.191330
9463.000000;-0.191392
9462.000000;-0.191252
9461.000000;-0.191317
9460.000000;-0.191614
9459.000000;-0.191822
9458.000000;-0.191735
9457.000000;-0.191515
9456.000000;-0.191463
9455.000000;-0.191715
9454.000000;-0.192216
9453.000000;-0.192836
9452.000000;-0.193403
9451.000000;-0.193729
9450.000000;-0.193736
9449.000000;-0.193540
9448.000000;-0.193327
9447.000000;-0.193168
9446.000000;-0.193007
9445.000000;-0.192782
9444.000000;-0.192454
9443.000000;-0.191984
9442.000000;-0.191398
9441.000000;-0.190842
9440.000000;-0.190445
9439.000000;-0.190147
9438.000000;-0.189803
9437.000000;-0.189450
9436.000000;-0.189289
9435.000000;-0.189323
9434.000000;-0.189225
9433.000000;-0.188700
9432.000000;-0.187880
9431.000000;-0.187175
9430.000000;-0.186802
9429.000000;-0.186621
9428.000000;-0.186374
9427.000000;-0.185933
9426.000000;-0.185284
9425.000000;-0.184468
9424.000000;-0.183604
9423.000000;-0.182867
9422.000000;-0.182338
9421.000000;-0.181920
9420.000000;-0.181453
9419.000000;-0.180868
9418.000000;-0.180200
9417.000000;-0.179502
9416.000000;-0.178766
9415.000000;-0.177915
9414.000000;-0.176856
9413.000000;-0.175604
9412.000000;-0.174340
9411.000000;-0.173238
9410.000000;-0.172265
9409.000000;-0.171247
9408.000000;-0.170145
9407.000000;-0.169109
9406.000000;-0.168202
9405.000000;-0.167246
9404.000000;-0.166072
9403.000000;-0.164816
9402.000000;-0.163753
9401.000000;-0.162915
9400.000000;-0.162022
9399.000000;-0.160825
9398.000000;-0.159365
9397.000000;-0.157881
9396.000000;-0.156583
9395.000000;-0.155570
9394.000000;-0.154816
9393.000000;-0.154152
9392.000000;-0.153310
9391.000000;-0.152115
9390.000000;-0.150644
9389.000000;-0.149162
9388.000000;-0.147884
9387.000000;-0.146790
9386.000000;-0.145662
9385.000000;-0.144303
9384.000000;-0.142721
9383.000000;-0.141100
9382.000000;-0.139594
9381.000000;-0.138228
9380.000000;-0.137006
9379.000000;-0.136005
9378.000000;-0.135225
9377.000000;-0.134407
9376.000000;-0.133182
9375.000000;-0.131455
9374.000000;-0.129526
9373.000000;-0.127759
9372.000000;-0.126237
9371.000000;-0.124811
9370.000000;-0.123377
9369.000000;-0.121955
9368.000000;-0.120527
9367.000000;-0.118983
9366.000000;-0.117273
9365.000000;-0.115534
9364.000000;-0.113976
9363.000000;-0.112664
9362.000000;-0.111462
9361.000000;-0.110207
9360.000000;-0.108901
9359.000000;-0.107678
9358.000000;-0.106605
9357.000000;-0.105542
9356.000000;-0.104257
9355.000000;-0.102661
9354.000000;-0.100902
9353.000000;-0.099222
9352.000000;-0.097741
9351.000000;-0.096403
9350.000000;-0.095088
9349.000000;-0.093746
9348.000000;-0.092433
9347.000000;-0.091186
9346.000000;-0.089913
9345.000000;-0.088461
9344.000000;-0.086814
9343.000000;-0.085167
9342.000000;-0.083691
9341.000000;-0.082327
9340.000000;-0.080908
9339.000000;-0.079438
9338.000000;-0.078078
9337.000000;-0.076848
9336.000000;-0.075544
9335.000000;-0.074028
9334.000000;-0.072432
9333.000000;-0.070949
9332.000000;-0.069569
9331.000000;-0.068160
9330.000000;-0.066720
9329.000000;-0.065341
9328.000000;-0.063988
9327.000000;-0.062492
9326.000000;-0.060789
9325.000000;-0.059011
9324.000000;-0.057311
9323.000000;-0.055732
9322.000000;-0.054299
9321.000000;-0.053112
9320.000000;-0.052236
9319.000000;-0.051546
9318.000000;-0.050753
9317.000000;-0.049591
9316.000000;-0.048000
9315.000000;-0.046167
9314.000000;-0.044389
9313.000000;-0.042852
9312.000000;-0.041502
9311.000000;-0.040137
9310.000000;-0.038618
9309.000000;-0.036951
9308.000000;-0.035242
9307.000000;-0.033629
9306.000000;-0.032207
9305.000000;-0.030919
9304.000000;-0.029552
9303.000000;-0.027954
9302.000000;-0.026264
9301.000000;-0.024796
9300.000000;-0.023684
9299.000000;-0.022743
9298.000000;-0.021712
9297.000000;-0.020517
9296.000000;-0.019268
9295.000000;-0.018092
9294.000000;-0.017013
9293.000000;-0.015927
9292.000000;-0.014634
9291.000000;-0.013026
9290.000000;-0.011273
9289.000000;-0.009731
9288.000000;-0.008596
9287.000000;-0.007741
9286.000000;-0.006910
9285.000000;-0.005921
9284.000000;-0.004643
9283.000000;-0.002956
9282.000000;-0.000954
9281.000000;0.000969
9280.000000;0.002421
9279.000000;0.003413
9278.000000;0.004273
9277.000000;0.005219
9276.000000;0.006214
9275.000000;0.007217
9274.000000;0.008345
9273.000000;0.009723
9272.000000;0.011321
9271.000000;0.013004
9270.000000;0.014630
9269.000000;0.016029
9268.000000;0.017065
9267.000000;0.017846
9266.000000;0.018721
9265.000000;0.019932
9264.000000;0.021338
9263.000000;0.022608
9262.000000;0.023620
9261.000000;0.024511
9260.000000;0.025397
9259.000000;0.026236
9258.000000;0.027019
9257.000000;0.027927
9256.000000;0.029198
9255.000000;0.030890
9254.000000;0.032827
9253.000000;0.034748
9252.000000;0.036465
9251.000000;0.037909
9250.000000;0.039087
9249.000000;0.039999
9248.000000;0.040637
9247.000000;0.041098
9246.000000;0.041656
9245.000000;0.042622
9244.000000;0.044059
9243.000000;0.045701
9242.000000;0.047209
9241.000000;0.048470
9240.000000;0.049606
9239.000000;0.050771
9238.000000;0.052012
9237.000000;0.053292
9236.000000;0.054535
9235.000000;0.055650
9234.000000;0.056582
9233.000000;0.057368
9232.000000;0.058094
9231.000000;0.058807
9230.000000;0.059519
9229.000000;0.060277
9228.000000;0.061145
9227.000000;0.062102
9226.000000;0.063061
9225.000000;0.064021
9224.000000;0.065121
9223.000000;0.066441
9222.000000;0.067844
9221.000000;0.069095
9220.000000;0.070109
9219.000000;0.070962
9218.000000;0.071693
9217.000000;0.072257
9216.000000;0.072728
9215.000000;0.073388
9214.000000;0.074486
9213.000000;0.075939
9212.000000;0.077411
9211.000000;0.078665
9210.000000;0.079723
9209.000000;0.080654
9208.000000;0.081375
9207.000000;0.081820
9206.000000;0.082199
9205.000000;0.082910
9204.000000;0.084134
9203.000000;0.085635
9202.000000;0.087041
9201.000000;0.088213
9200.000000;0.089258
9199.000000;0.090271
9198.000000;0.091205
9197.000000;0.092013
9196.000000;0.092754
9195.000000;0.093512
9194.000000;0.094281
9193.000000;0.095005
9192.000000;0.095686
9191.000000;0.096395
9190.000000;0.097193
9189.000000;0.098081
9188.000000;0.099021
9187.000000;0.099984
9186.000000;0.100967
9185.000000;0.101943
9184.000000;0.102825
9183.000000;0.103525
9182.000000;0.104096
9181.000000;0.104753
9180.000000;0.105668
9179.000000;0.106748
9178.000000;0.107727
9177.000000;0.108474
9176.000000;0.109127
9175.000000;0.109890
9174.000000;0.110815
9173.000000;0.111829
9172.000000;0.112847
9171.000000;0.113798
9170.000000;0.114622
9169.000000;0.115387
9168.000000;0.116321
9167.000000;0.117584
9166.000000;0.119000
9165.000000;0.120151
9164.000000;0.120777
9163.000000;0.121019
9162.000000;0.121262
9161.000000;0.121803
9160.000000;0.122673
9159.000000;0.123709
9158.000000;0.124712
9157.000000;0.125581
9156.000000;0.126336
9155.000000;0.127038
9154.000000;0.127720
9153.000000;0.128406
9152.000000;0.129145
9151.000000;0.129950
9150.000000;0.130715
9149.000000;0.131309
9148.000000;0.131766
9147.000000;0.132314
9146.000000;0.133123
9145.000000;0.134076
9144.000000;0.134876
9143.000000;0.135388
9142.000000;0.135821
9141.000000;0.136489
9140.000000;0.137449
9139.000000;0.138428
9138.000000;0.139147
9137.000000;0.139629
9136.000000;0.140124
9135.000000;0.140770
9134.000000;0.141456
9133.000000;0.142030
9132.000000;0.142532
9131.000000;0.143129
9130.000000;0.143891
9129.000000;0.144712
9128.000000;0.145457
9127.000000;0.146105
9126.000000;0.146728
9125.000000;0.147399
9124.000000;0.148117
9123.000000;0.148803
9122.000000;0.149363
9121.000000;0.149790
9120.000000;0.150199
9119.000000;0.150738
9118.000000;0.151473
9117.000000;0.152366
9116.000000;0.153334
9115.000000;0.154294
9114.000000;0.155158
9113.000000;0.155860
9112.000000;0.156388
9111.000000;0.156793
9110.000000;0.157169
9109.000000;0.157628
9108.000000;0.158263
9107.000000;0.159078
9106.000000;0.159966
9105.000000;0.160771
9104.000000;0.161374
9103.000000;0.161754
9102.000000;0.162015
9101.000000;0.162338
9100.000000;0.162849
9099.000000;0.163491
9098.000000;0.164102
9097.000000;0.164632
9096.000000;0.165196
9095.000000;0.165879
9094.000000;0.166581
9093.000000;0.167159
9092.000000;0.167638
9091.000000;0.168170
9090.000000;0.168824
9089.000000;0.169540
9088.000000;0.170228
9087.000000;0.170796
9086.000000;0.171145
9085.000000;0.171300
9084.000000;0.171540
9083.000000;0.172172
9082.000000;0.173112
9081.000000;0.173874
9080.000000;0.174116
9079.000000;0.174067
9078.000000;0.174255
9077.000000;0.174912
9076.000000;0.175802
9075.000000;0.176611
9074.000000;0.177287
9073.000000;0.177947
9072.000000;0.178603
9071.000000;0.179131
9070.000000;0.179457
9069.000000;0.179666
9068.000000;0.179916
9067.000000;0.180298
