Criado como novo conjunto de dados;"0307_DANIEL.spp","30063.5 Secs"
cm-1;Abs
10000.000000;1.205487
9999.000000;1.204630
9998.000000;1.203787
9997.000000;1.202924
9996.000000;1.202100
9995.000000;1.201202
9994.000000;1.200523
9993.000000;1.200473
9992.000000;1.200137
9991.000000;1.198821
9990.000000;1.196370
9989.000000;1.193312
9988.000000;1.190369
9987.000000;1.188096
9986.000000;1.186583
9985.000000;1.185428
9984.000000;1.184154
9983.000000;1.182705
9982.000000;1.181389
9981.000000;1.180383
9980.000000;1.179610
9979.000000;1.179041
9978.000000;1.178726
9977.000000;1.178410
9976.000000;1.177532
9975.000000;1.175803
9974.000000;1.173528
9973.000000;1.171190
9972.000000;1.169074
9971.000000;1.167405
9970.000000;1.166406
9969.000000;1.165916
9968.000000;1.165322
9967.000000;1.164243
9966.000000;1.163061
9965.000000;1.162377
9964.000000;1.162145
9963.000000;1.161714
9962.000000;1.160605
9961.000000;1.158902
9960.000000;1.156928
9959.000000;1.154899
9958.000000;1.152941
9957.000000;1.151212
9956.000000;1.149874
9955.000000;1.148944
9954.000000;1.148161
9953.000000;1.147061
9952.000000;1.145418
9951.000000;1.143604
9950.000000;1.142261
9949.000000;1.141552
9948.000000;1.141008
9947.000000;1.140177
9946.000000;1.139092
9945.000000;1.137948
9944.000000;1.136705
9943.000000;1.135272
9942.000000;1.133747
9941.000000;1.132162
9940.000000;1.130343
9939.000000;1.128384
9938.000000;1.126920
9937.000000;1.126447
9936.000000;1.126572
9935.000000;1.126375
9934.000000;1.125427
9933.000000;1.124031
9932.000000;1.122568
9931.000000;1.121104
9930.000000;1.119657
9929.000000;1.118367
9928.000000;1.117251
9927.000000;1.116117
9926.000000;1.114872
9925.000000;1.113663
9924.000000;1.112599
9923.000000;1.111546
9922.000000;1.110294
9921.000000;1.108737
9920.000000;1.106859
9919.000000;1.104735
9918.000000;1.102642
9917.000000;1.100970
9916.000000;1.099865
9915.000000;1.099071
9914.000000;1.098205
9913.000000;1.097143
9912.000000;1.096043
9911.000000;1.095023
9910.000000;1.093906
9909.000000;1.092385
9908.000000;1.090439
9907.000000;1.088471
9906.000000;1.086872
9905.000000;1.085517
9904.000000;1.083913
9903.000000;1.081882
9902.000000;1.079835
9901.000000;1.078285
9900.000000;1.077330
9899.000000;1.076778
9898.000000;1.076438
9897.000000;1.076018
9896.000000;1.074986
9895.000000;1.072976
9894.000000;1.070305
9893.000000;1.067770
9892.000000;1.065899
9891.000000;1.064584
9890.000000;1.063429
9889.000000;1.062221
9888.000000;1.061029
9887.000000;1.059986
9886.000000;1.059050
9885.000000;1.057977
9884.000000;1.056577
9883.000000;1.055007
9882.000000;1.053658
9881.000000;1.052661
9880.000000;1.051721
9879.000000;1.050566
9878.000000;1.049308
9877.000000;1.048108
9876.000000;1.046696
9875.000000;1.044640
9874.000000;1.042055
9873.000000;1.039689
9872.000000;1.038206
9871.000000;1.037601
9870.000000;1.037307
9869.000000;1.036692
9868.000000;1.035403
9867.000000;1.033479
9866.000000;1.031262
9865.000000;1.029131
9864.000000;1.027261
9863.000000;1.025672
9862.000000;1.024395
9861.000000;1.023469
9860.000000;1.022796
9859.000000;1.022141
9858.000000;1.021304
9857.000000;1.020212
9856.000000;1.018885
9855.000000;1.017379
9854.000000;1.015697
9853.000000;1.013687
9852.000000;1.011193
9851.000000;1.008428
9850.000000;1.006037
9849.000000;1.004513
9848.000000;1.003645
9847.000000;1.002767
9846.000000;1.001539
9845.000000;1.000219
9844.000000;0.999135
9843.000000;0.998178
9842.000000;0.996941
9841.000000;0.995220
9840.000000;0.993222
9839.000000;0.991330
9838.000000;0.989713
9837.000000;0.988186
9836.000000;0.986479
9835.000000;0.984629
9834.000000;0.983016
9833.000000;0.981952
9832.000000;0.981336
9831.000000;0.980750
9830.000000;0.979795
9829.000000;0.978268
9828.000000;0.976235
9827.000000;0.974087
9826.000000;0.972342
9825.000000;0.971151
9824.000000;0.970114
9823.000000;0.968788
9822.000000;0.967234
9821.000000;0.965810
9820.000000;0.964561
9819.000000;0.963182
9818.000000;0.961548
9817.000000;0.959888
9816.000000;0.958335
9815.000000;0.956651
9814.000000;0.954554
9813.000000;0.952097
9812.000000;0.949576
9811.000000;0.947278
9810.000000;0.945442
9809.000000;0.944230
9808.000000;0.943518
9807.000000;0.942813
9806.000000;0.941616
9805.000000;0.939857
9804.000000;0.937887
9803.000000;0.936099
9802.000000;0.934614
9801.000000;0.933278
9800.000000;0.931830
9799.000000;0.930077
9798.000000;0.927998
9797.000000;0.925720
9796.000000;0.923446
9795.000000;0.921401
9794.000000;0.919762
9793.000000;0.918482
9792.000000;0.917192
9791.000000;0.915463
9790.000000;0.913306
9789.000000;0.911260
9788.000000;0.909809
9787.000000;0.908776
9786.000000;0.907480
9785.000000;0.905501
9784.000000;0.903142
9783.000000;0.901051
9782.000000;0.899523
9781.000000;0.898308
9780.000000;0.897020
9779.000000;0.895571
9778.000000;0.894152
9777.000000;0.892932
9776.000000;0.891903
9775.000000;0.890914
9774.000000;0.889748
9773.000000;0.888190
9772.000000;0.886191
9771.000000;0.883982
9770.000000;0.881890
9769.000000;0.880021
9768.000000;0.878211
9767.000000;0.876294
9766.000000;0.874307
9765.000000;0.872401
9764.000000;0.870675
9763.000000;0.869125
9762.000000;0.867671
9761.000000;0.866177
9760.000000;0.864557
9759.000000;0.862910
9758.000000;0.861424
9757.000000;0.860102
9756.000000;0.858682
9755.000000;0.856934
9754.000000;0.854904
9753.000000;0.852810
9752.000000;0.850824
9751.000000;0.849043
9750.000000;0.847521
9749.000000;0.846183
9748.000000;0.844841
9747.000000;0.843389
9746.000000;0.841882
9745.000000;0.840311
9744.000000;0.838511
9743.000000;0.836410
9742.000000;0.834213
9741.000000;0.832110
9740.000000;0.829989
9739.000000;0.827706
9738.000000;0.825503
9737.000000;0.823825
9736.000000;0.822700
9735.000000;0.821607
9734.000000;0.820001
9733.000000;0.817751
9732.000000;0.815033
9731.000000;0.812102
9730.000000;0.809316
9729.000000;0.807131
9728.000000;0.805787
9727.000000;0.805018
9726.000000;0.804184
9725.000000;0.802719
9724.000000;0.800489
9723.000000;0.797839
9722.000000;0.795331
9721.000000;0.793309
9720.000000;0.791642
9719.000000;0.789965
9718.000000;0.788180
9717.000000;0.786560
9716.000000;0.785293
9715.000000;0.784128
9714.000000;0.782653
9713.000000;0.780771
9712.000000;0.778684
9711.000000;0.776463
9710.000000;0.773948
9709.000000;0.771122
9708.000000;0.768320
9707.000000;0.765910
9706.000000;0.763912
9705.000000;0.762106
9704.000000;0.760411
9703.000000;0.758921
9702.000000;0.757585
9701.000000;0.756093
9700.000000;0.754211
9699.000000;0.752065
9698.000000;0.749978
9697.000000;0.748134
9696.000000;0.746558
9695.000000;0.745237
9694.000000;0.744012
9693.000000;0.742423
9692.000000;0.740012
9691.000000;0.736915
9690.000000;0.733880
9689.000000;0.731535
9688.000000;0.729791
9687.000000;0.728093
9686.000000;0.726113
9685.000000;0.723961
9684.000000;0.721824
9683.000000;0.719707
9682.000000;0.717593
9681.000000;0.715611
9680.000000;0.713906
9679.000000;0.712428
9678.000000;0.710950
9677.000000;0.709231
9676.000000;0.707141
9675.000000;0.704729
9674.000000;0.702263
9673.000000;0.700083
9672.000000;0.698264
9671.000000;0.696461
9670.000000;0.694254
9669.000000;0.691658
9668.000000;0.689109
9667.000000;0.686891
9666.000000;0.684750
9665.000000;0.682255
9664.000000;0.679445
9663.000000;0.676893
9662.000000;0.675090
9661.000000;0.673918
9660.000000;0.672777
9659.000000;0.671134
9658.000000;0.668888
9657.000000;0.666335
9656.000000;0.663892
9655.000000;0.661761
9654.000000;0.659793
9653.000000;0.657746
9652.000000;0.655723
9651.000000;0.654146
9650.000000;0.653136
9649.000000;0.652095
9648.000000;0.650143
9647.000000;0.647009
9646.000000;0.643307
9645.000000;0.639953
9644.000000;0.637473
9643.000000;0.635800
9642.000000;0.634473
9641.000000;0.632972
9640.000000;0.631024
9639.000000;0.628739
9638.000000;0.626407
9637.000000;0.624209
9636.000000;0.622135
9635.000000;0.620069
9634.000000;0.617798
9633.000000;0.615063
9632.000000;0.611869
9631.000000;0.608710
9630.000000;0.606229
9629.000000;0.604592
9628.000000;0.603360
9627.000000;0.601968
9626.000000;0.600141
9625.000000;0.597850
9624.000000;0.595182
9623.000000;0.592376
9622.000000;0.589753
9621.000000;0.587454
9620.000000;0.585373
9619.000000;0.583384
9618.000000;0.581451
9617.000000;0.579480
9616.000000;0.577354
9615.000000;0.575176
9614.000000;0.573217
9613.000000;0.571426
9612.000000;0.569308
9611.000000;0.566501
9610.000000;0.563282
9609.000000;0.560200
9608.000000;0.557445
9607.000000;0.554839
9606.000000;0.552335
9605.000000;0.550149
9604.000000;0.548388
9603.000000;0.546824
9602.000000;0.545098
9601.000000;0.543019
9600.000000;0.540640
9599.000000;0.538151
9598.000000;0.535705
9597.000000;0.533297
9596.000000;0.530820
9595.000000;0.528280
9594.000000;0.525825
9593.000000;0.523508
9592.000000;0.521169
9591.000000;0.518672
9590.000000;0.516100
9589.000000;0.513560
9588.000000;0.510988
9587.000000;0.508354
9586.000000;0.505912
9585.000000;0.503971
9584.000000;0.502422
9583.000000;0.500773
9582.000000;0.498663
9581.000000;0.496213
9580.000000;0.493860
9579.000000;0.491975
9578.000000;0.490523
9577.000000;0.488927
9576.000000;0.486400
9575.000000;0.482694
9574.000000;0.478514
9573.000000;0.474930
9572.000000;0.472387
9571.000000;0.470472
9570.000000;0.468568
9569.000000;0.466438
9568.000000;0.464143
9567.000000;0.461786
9566.000000;0.459525
9565.000000;0.457566
9564.000000;0.455879
9563.000000;0.454065
9562.000000;0.451714
9561.000000;0.448850
9560.000000;0.445875
9559.000000;0.443181
9558.000000;0.440951
9557.000000;0.439189
9556.000000;0.437701
9555.000000;0.436096
9554.000000;0.434028
9553.000000;0.431505
9552.000000;0.428828
9551.000000;0.426196
9550.000000;0.423542
9549.000000;0.420761
9548.000000;0.417956
9547.000000;0.415325
9546.000000;0.412942
9545.000000;0.410758
9544.000000;0.408744
9543.000000;0.406891
9542.000000;0.405087
9541.000000;0.403134
9540.000000;0.400913
9539.000000;0.398463
9538.000000;0.395895
9537.000000;0.393321
9536.000000;0.390880
9535.000000;0.388691
9534.000000;0.386712
9533.000000;0.384735
9532.000000;0.382627
9531.000000;0.380527
9530.000000;0.378693
9529.000000;0.377202
9528.000000;0.375844
9527.000000;0.374270
9526.000000;0.372165
9525.000000;0.369420
9524.000000;0.366291
9523.000000;0.363348
9522.000000;0.361087
9521.000000;0.359538
9520.000000;0.358334
9519.000000;0.357073
9518.000000;0.355492
9517.000000;0.353417
9516.000000;0.350867
9515.000000;0.348222
9514.000000;0.345991
9513.000000;0.344329
9512.000000;0.342949
9511.000000;0.341569
9510.000000;0.340159
9509.000000;0.338660
9508.000000;0.336788
9507.000000;0.334404
9506.000000;0.331882
9505.000000;0.329789
9504.000000;0.328258
9503.000000;0.326913
9502.000000;0.325356
9501.000000;0.323521
9500.000000;0.321570
9499.000000;0.319671
9498.000000;0.317902
9497.000000;0.316215
9496.000000;0.314466
9495.000000;0.312585
9494.000000;0.310738
9493.000000;0.309210
9492.000000;0.308130
9491.000000;0.307354
9490.000000;0.306608
9489.000000;0.305651
9488.000000;0.304367
9487.000000;0.302805
9486.000000;0.301144
9485.000000;0.299547
9484.000000;0.298053
9483.000000;0.296628
9482.000000;0.295265
9481.000000;0.293970
9480.000000;0.292738
9479.000000;0.291604
9478.000000;0.290632
9477.000000;0.289756
9476.000000;0.288739
9475.000000;0.287440
9474.000000;0.286063
9473.000000;0.284976
9472.000000;0.284314
9471.000000;0.283869
9470.000000;0.283346
9469.000000;0.282567
9468.000000;0.281471
9467.000000;0.280107
9466.000000;0.278690
9465.000000;0.277526
9464.000000;0.276782
9463.000000;0.276364
9462.000000;0.276045
9461.000000;0.275658
9460.000000;0.275174
9459.000000;0.274664
9458.000000;0.274189
9457.000000;0.273732
9456.000000;0.273233
9455.000000;0.272702
9454.000000;0.272231
9453.000000;0.271847
9452.000000;0.271435
9451.000000;0.270890
9450.000000;0.270275
9449.000000;0.269763
9448.000000;0.269460
9447.000000;0.269348
9446.000000;0.269350
9445.000000;0.269374
9444.000000;0.269366
9443.000000;0.269360
9442.000000;0.269438
9441.000000;0.269599
9440.000000;0.269748
9439.000000;0.269833
9438.000000;0.269880
9437.000000;0.269822
9436.000000;0.269497
9435.000000;0.268923
9434.000000;0.268444
9433.000000;0.268389
9432.000000;0.268726
9431.000000;0.269171
9430.000000;0.269542
9429.000000;0.269812
9428.000000;0.269974
9427.000000;0.270096
9426.000000;0.270422
9425.000000;0.271166
9424.000000;0.272183
9423.000000;0.273072
9422.000000;0.273614
9421.000000;0.273928
9420.000000;0.274202
9419.000000;0.274499
9418.000000;0.274864
9417.000000;0.275401
9416.000000;0.276142
9415.000000;0.276980
9414.000000;0.277789
9413.000000;0.278490
9412.000000;0.278965
9411.000000;0.279102
9410.000000;0.279008
9409.000000;0.279039
9408.000000;0.279513
9407.000000;0.280454
9406.000000;0.281656
9405.000000;0.282888
9404.000000;0.283985
9403.000000;0.284855
9402.000000;0.285484
9401.000000;0.285928
9400.000000;0.286272
9399.000000;0.286663
9398.000000;0.287328
9397.000000;0.288408
9396.000000;0.289761
9395.000000;0.291081
9394.000000;0.292245
9393.000000;0.293386
9392.000000;0.294550
9391.000000;0.295518
9390.000000;0.296118
9389.000000;0.296590
9388.000000;0.297387
9387.000000;0.298644
9386.000000;0.300033
9385.000000;0.301152
9384.000000;0.301951
9383.000000;0.302717
9382.000000;0.303755
9381.000000;0.305151
9380.000000;0.306760
9379.000000;0.308315
9378.000000;0.309550
9377.000000;0.310344
9376.000000;0.310817
9375.000000;0.311274
9374.000000;0.311978
9373.000000;0.312972
9372.000000;0.314142
9371.000000;0.315428
9370.000000;0.316857
9369.000000;0.318358
9368.000000;0.319663
9367.000000;0.320525
9366.000000;0.321000
9365.000000;0.321401
9364.000000;0.322026
9363.000000;0.323000
9362.000000;0.324327
9361.000000;0.325900
9360.000000;0.327471
9359.000000;0.328790
9358.000000;0.329866
9357.000000;0.330972
9356.000000;0.332326
9355.000000;0.333850
9354.000000;0.335329
9353.000000;0.336652
9352.000000;0.337800
9351.000000;0.338719
9350.000000;0.339393
9349.000000;0.340021
9348.000000;0.340907
9347.000000;0.342139
9346.000000;0.343508
9345.000000;0.344799
9344.000000;0.346030
9343.000000;0.347313
9342.000000;0.348598
9341.000000;0.349724
9340.000000;0.350669
9339.000000;0.351607
9338.000000;0.352665
9337.000000;0.353759
9336.000000;0.354719
9335.000000;0.355536
9334.000000;0.356427
9333.000000;0.357666
9332.000000;0.359348
9331.000000;0.361280
9330.000000;0.363068
9329.000000;0.364396
9328.000000;0.365267
9327.000000;0.365971
9326.000000;0.366819
9325.000000;0.367948
9324.000000;0.369310
9323.000000;0.370744
9322.000000;0.372028
9321.000000;0.373028
9320.000000;0.373855
9319.000000;0.374762
9318.000000;0.375804
9317.000000;0.376781
9316.000000;0.377603
9315.000000;0.378528
9314.000000;0.379803
9313.000000;0.381222
9312.000000;0.382344
9311.000000;0.383119
9310.000000;0.383972
9309.000000;0.385218
9308.000000;0.386672
9307.000000;0.387965
9306.000000;0.389000
9305.000000;0.389955
9304.000000;0.391013
9303.000000;0.392254
9302.000000;0.393677
9301.000000;0.395160
9300.000000;0.396508
9299.000000;0.397657
9298.000000;0.398735
9297.000000;0.399840
9296.000000;0.400896
9295.000000;0.401849
9294.000000;0.402836
9293.000000;0.403963
9292.000000;0.405067
9291.000000;0.405952
9290.000000;0.406758
9289.000000;0.407820
9288.000000;0.409161
9287.000000;0.410404
9286.000000;0.411251
9285.000000;0.411853
9284.000000;0.412584
9283.000000;0.413621
9282.000000;0.414869
9281.000000;0.416180
9280.000000;0.417499
9279.000000;0.418804
9278.000000;0.420015
9277.000000;0.421012
9276.000000;0.421731
9275.000000;0.422263
9274.000000;0.422842
9273.000000;0.423678
9272.000000;0.424790
9271.000000;0.426025
9270.000000;0.427244
9269.000000;0.428418
9268.000000;0.429538
9267.000000;0.430523
9266.000000;0.431295
9265.000000;0.431918
9264.000000;0.432589
9263.000000;0.433466
9262.000000;0.434519
9261.000000;0.435565
9260.000000;0.436446
9259.000000;0.437148
9258.000000;0.437790
9257.000000;0.438510
9256.000000;0.439396
9255.000000;0.440447
9254.000000;0.441564
9253.000000;0.442605
9252.000000;0.443507
9251.000000;0.444355
9250.000000;0.445255
9249.000000;0.446200
9248.000000;0.447121
9247.000000;0.448054
9246.000000;0.449095
9245.000000;0.450191
9244.000000;0.451116
9243.000000;0.451755
9242.000000;0.452299
9241.000000;0.453033
9240.000000;0.454004
9239.000000;0.455003
9238.000000;0.455830
9237.000000;0.456457
9236.000000;0.457001
9235.000000;0.457644
9234.000000;0.458557
9233.000000;0.459744
9232.000000;0.460960
9231.000000;0.461889
9230.000000;0.462463
9229.000000;0.462937
9228.000000;0.463609
9227.000000;0.464551
9226.000000;0.465618
9225.000000;0.466640
9224.000000;0.467562
9223.000000;0.468448
9222.000000;0.469381
9221.000000;0.470342
9220.000000;0.471181
9219.000000;0.471769
9218.000000;0.472213
9217.000000;0.472823
9216.000000;0.473822
9215.000000;0.475078
9214.000000;0.476208
9213.000000;0.476948
9212.000000;0.477369
9211.000000;0.477741
9210.000000;0.478239
9209.000000;0.478852
9208.000000;0.479523
9207.000000;0.480266
9206.000000;0.481107
9205.000000;0.481972
9204.000000;0.482725
9203.000000;0.483316
9202.000000;0.483830
9201.000000;0.484383
9200.000000;0.485047
9199.000000;0.485861
9198.000000;0.486810
9197.000000;0.487759
9196.000000;0.488503
9195.000000;0.488958
9194.000000;0.489262
9193.000000;0.489612
9192.000000;0.490073
9191.000000;0.490600
9190.000000;0.491187
9189.000000;0.491853
9188.000000;0.492521
9187.000000;0.493076
9186.000000;0.493566
9185.000000;0.494211
9184.000000;0.495114
9183.000000;0.496053
9182.000000;0.496719
9181.000000;0.497113
9180.000000;0.497563
9179.000000;0.498345
9178.000000;0.499403
9177.000000;0.500492
9176.000000;0.501441
9175.000000;0.502190
9174.000000;0.502691
9173.000000;0.502953
9172.000000;0.503165
9171.000000;0.503597
9170.000000;0.504320
9169.000000;0.505134
9168.000000;0.505814
9167.000000;0.506307
9166.000000;0.506668
9165.000000;0.506939
9164.000000;0.507206
9163.000000;0.507654
9162.000000;0.508400
9161.000000;0.509336
9160.000000;0.510245
9159.000000;0.511030
9158.000000;0.511702
9157.000000;0.512214
9156.000000;0.512497
9155.000000;0.512666
9154.000000;0.512995
9153.000000;0.513625
9152.000000;0.514415
9151.000000;0.515146
9150.000000;0.515760
9149.000000;0.516325
9148.000000;0.516884
9147.000000;0.517432
9146.000000;0.518006
9145.000000;0.518658
9144.000000;0.519347
9143.000000;0.519930
9142.000000;0.520312
9141.000000;0.520572
9140.000000;0.520910
9139.000000;0.521436
9138.000000;0.522032
9137.000000;0.522474
9136.000000;0.522709
9135.000000;0.522935
9134.000000;0.523350
9133.000000;0.523908
9132.000000;0.524411
9131.000000;0.524792
9130.000000;0.525162
9129.000000;0.525596
9128.000000;0.526047
9127.000000;0.526472
9126.000000;0.526919
9125.000000;0.527411
9124.000000;0.527902
9123.000000;0.528407
9122.000000;0.529067
9121.000000;0.529968
9120.000000;0.530923
9119.000000;0.531566
9118.000000;0.531673
9117.000000;0.531391
9116.000000;0.531133
9115.000000;0.531255
9114.000000;0.531758
9113.000000;0.532321
9112.000000;0.532653
9111.000000;0.532813
9110.000000;0.533116
9109.000000;0.533731
9108.000000;0.534486
9107.000000;0.535094
9106.000000;0.535481
9105.000000;0.535817
9104.000000;0.536308
9103.000000;0.537002
9102.000000;0.537753
9101.000000;0.538324
9100.000000;0.538561
9099.000000;0.538498
9098.000000;0.538289
9097.000000;0.538081
9096.000000;0.538002
9095.000000;0.538206
9094.000000;0.538782
9093.000000;0.539594
9092.000000;0.540360
9091.000000;0.540930
9090.000000;0.541378
9089.000000;0.541793
9088.000000;0.542131
9087.000000;0.542377
9086.000000;0.542688
9085.000000;0.543224
9084.000000;0.543905
9083.000000;0.544471
9082.000000;0.544767
9081.000000;0.544882
9080.000000;0.545005
9079.000000;0.545235
9078.000000;0.545533
9077.000000;0.545808
9076.000000;0.546046
9075.000000;0.546353
9074.000000;0.546859
9073.000000;0.547549
9072.000000;0.548252
9071.000000;0.548789
9070.000000;0.549079
9069.000000;0.549103
9068.000000;0.548903
9067.000000;0.548652
9066.000000;0.548626
9065.000000;0.548976
9064.000000;0.549605
9063.000000;0.550302
9062.000000;0.550937
9061.000000;0.551431
9060.000000;0.551652
9059.000000;0.551491
9058.000000;0.551052
9057.000000;0.550625
9056.000000;0.550471
9055.000000;0.550683
9054.000000;0.551237
9053.000000;0.552049
