Criado como novo conjunto de dados;"0307_DANIEL.spp","19082.7 Secs"
cm-1;Abs
10000.000000;1.008863
9999.000000;1.008671
9998.000000;1.008576
9997.000000;1.008079
9996.000000;1.007236
9995.000000;1.006405
9994.000000;1.005573
9993.000000;1.004562
9992.000000;1.003288
9991.000000;1.001996
9990.000000;1.000941
9989.000000;1.000065
9988.000000;0.999038
9987.000000;0.997720
9986.000000;0.996400
9985.000000;0.995384
9984.000000;0.994492
9983.000000;0.993242
9982.000000;0.991508
9981.000000;0.989647
9980.000000;0.987991
9979.000000;0.986547
9978.000000;0.985265
9977.000000;0.984250
9976.000000;0.983539
9975.000000;0.982907
9974.000000;0.982094
9973.000000;0.981050
9972.000000;0.979870
9971.000000;0.978642
9970.000000;0.977443
9969.000000;0.976294
9968.000000;0.975090
9967.000000;0.973764
9966.000000;0.972515
9965.000000;0.971614
9964.000000;0.970954
9963.000000;0.970104
9962.000000;0.968897
9961.000000;0.967631
9960.000000;0.966532
9959.000000;0.965343
9958.000000;0.963690
9957.000000;0.961649
9956.000000;0.959689
9955.000000;0.958211
9954.000000;0.957321
9953.000000;0.956887
9952.000000;0.956573
9951.000000;0.955930
9950.000000;0.954675
9949.000000;0.952920
9948.000000;0.951046
9947.000000;0.949406
9946.000000;0.948160
9945.000000;0.947262
9944.000000;0.946498
9943.000000;0.945617
9942.000000;0.944484
9941.000000;0.943096
9940.000000;0.941509
9939.000000;0.939884
9938.000000;0.938527
9937.000000;0.937620
9936.000000;0.936891
9935.000000;0.935779
9934.000000;0.934014
9933.000000;0.931892
9932.000000;0.929928
9931.000000;0.928406
9930.000000;0.927275
9929.000000;0.926278
9928.000000;0.925146
9927.000000;0.923853
9926.000000;0.922680
9925.000000;0.921824
9924.000000;0.920997
9923.000000;0.919717
9922.000000;0.917988
9921.000000;0.916344
9920.000000;0.915133
9919.000000;0.914109
9918.000000;0.912847
9917.000000;0.911260
9916.000000;0.909546
9915.000000;0.907934
9914.000000;0.906660
9913.000000;0.905891
9912.000000;0.905415
9911.000000;0.904662
9910.000000;0.903281
9909.000000;0.901506
9908.000000;0.899753
9907.000000;0.898082
9906.000000;0.896304
9905.000000;0.894396
9904.000000;0.892531
9903.000000;0.890831
9902.000000;0.889342
9901.000000;0.888111
9900.000000;0.887061
9899.000000;0.885945
9898.000000;0.884664
9897.000000;0.883516
9896.000000;0.882808
9895.000000;0.882327
9894.000000;0.881501
9893.000000;0.880089
9892.000000;0.878384
9891.000000;0.876724
9890.000000;0.875117
9889.000000;0.873476
9888.000000;0.871950
9887.000000;0.870742
9886.000000;0.869733
9885.000000;0.868520
9884.000000;0.866888
9883.000000;0.865109
9882.000000;0.863685
9881.000000;0.862844
9880.000000;0.862334
9879.000000;0.861657
9878.000000;0.860456
9877.000000;0.858691
9876.000000;0.856580
9875.000000;0.854460
9874.000000;0.852602
9873.000000;0.851037
9872.000000;0.849557
9871.000000;0.847976
9870.000000;0.846373
9869.000000;0.844995
9868.000000;0.843923
9867.000000;0.842940
9866.000000;0.841741
9865.000000;0.840218
9864.000000;0.838546
9863.000000;0.837020
9862.000000;0.835805
9861.000000;0.834799
9860.000000;0.833768
9859.000000;0.832605
9858.000000;0.831362
9857.000000;0.830042
9856.000000;0.828554
9855.000000;0.826918
9854.000000;0.825324
9853.000000;0.823850
9852.000000;0.822338
9851.000000;0.820752
9850.000000;0.819416
9849.000000;0.818606
9848.000000;0.818044
9847.000000;0.817145
9846.000000;0.815689
9845.000000;0.813936
9844.000000;0.812148
9843.000000;0.810370
9842.000000;0.808678
9841.000000;0.807244
9840.000000;0.806050
9839.000000;0.804816
9838.000000;0.803318
9837.000000;0.801573
9836.000000;0.799675
9835.000000;0.797719
9834.000000;0.795912
9833.000000;0.794464
9832.000000;0.793283
9831.000000;0.792041
9830.000000;0.790634
9829.000000;0.789290
9828.000000;0.788109
9827.000000;0.786822
9826.000000;0.785171
9825.000000;0.783284
9824.000000;0.781454
9823.000000;0.779756
9822.000000;0.778102
9821.000000;0.776514
9820.000000;0.775123
9819.000000;0.773946
9818.000000;0.772825
9817.000000;0.771537
9816.000000;0.769924
9815.000000;0.767975
9814.000000;0.765858
9813.000000;0.763771
9812.000000;0.761767
9811.000000;0.759862
9810.000000;0.758289
9809.000000;0.757348
9808.000000;0.756922
9807.000000;0.756387
9806.000000;0.755172
9805.000000;0.753281
9804.000000;0.751146
9803.000000;0.749141
9802.000000;0.747404
9801.000000;0.745935
9800.000000;0.744634
9799.000000;0.743320
9798.000000;0.741877
9797.000000;0.740332
9796.000000;0.738724
9795.000000;0.736971
9794.000000;0.734990
9793.000000;0.732842
9792.000000;0.730674
9791.000000;0.728599
9790.000000;0.726715
9789.000000;0.725121
9788.000000;0.723798
9787.000000;0.722543
9786.000000;0.721150
9785.000000;0.719641
9784.000000;0.718204
9783.000000;0.716922
9782.000000;0.715622
9781.000000;0.713983
9780.000000;0.711834
9779.000000;0.709395
9778.000000;0.707185
9777.000000;0.705587
9776.000000;0.704495
9775.000000;0.703437
9774.000000;0.702042
9773.000000;0.700282
9772.000000;0.698355
9771.000000;0.696488
9770.000000;0.694840
9769.000000;0.693361
9768.000000;0.691742
9767.000000;0.689718
9766.000000;0.687456
9765.000000;0.685425
9764.000000;0.683816
9763.000000;0.682336
9762.000000;0.680674
9761.000000;0.678939
9760.000000;0.677443
9759.000000;0.676224
9758.000000;0.674993
9757.000000;0.673478
9756.000000;0.671652
9755.000000;0.669652
9754.000000;0.667628
9753.000000;0.665668
9752.000000;0.663793
9751.000000;0.662004
9750.000000;0.660350
9749.000000;0.658894
9748.000000;0.657621
9747.000000;0.656418
9746.000000;0.655158
9745.000000;0.653700
9744.000000;0.651856
9743.000000;0.649513
9742.000000;0.646847
9741.000000;0.644268
9740.000000;0.642110
9739.000000;0.640429
9738.000000;0.639092
9737.000000;0.637902
9736.000000;0.636577
9735.000000;0.634850
9734.000000;0.632713
9733.000000;0.630478
9732.000000;0.628441
9731.000000;0.626581
9730.000000;0.624674
9729.000000;0.622660
9728.000000;0.620749
9727.000000;0.619187
9726.000000;0.617975
9725.000000;0.616868
9724.000000;0.615579
9723.000000;0.613993
9722.000000;0.612179
9721.000000;0.610265
9720.000000;0.608348
9719.000000;0.606508
9718.000000;0.604757
9717.000000;0.602933
9716.000000;0.600811
9715.000000;0.598434
9714.000000;0.596185
9713.000000;0.594337
9712.000000;0.592675
9711.000000;0.590778
9710.000000;0.588604
9709.000000;0.586517
9708.000000;0.584744
9707.000000;0.583084
9706.000000;0.581222
9705.000000;0.579118
9704.000000;0.576967
9703.000000;0.574954
9702.000000;0.573157
9701.000000;0.571556
9700.000000;0.570032
9699.000000;0.568403
9698.000000;0.566528
9697.000000;0.564370
9696.000000;0.561996
9695.000000;0.559624
9694.000000;0.557557
9693.000000;0.555937
9692.000000;0.554557
9691.000000;0.553065
9690.000000;0.551304
9689.000000;0.549306
9688.000000;0.547057
9687.000000;0.544539
9686.000000;0.541992
9685.000000;0.539830
9684.000000;0.538190
9683.000000;0.536747
9682.000000;0.535070
9681.000000;0.533001
9680.000000;0.530673
9679.000000;0.528354
9678.000000;0.526306
9677.000000;0.524580
9676.000000;0.522885
9675.000000;0.520863
9674.000000;0.518556
9673.000000;0.516364
9672.000000;0.514477
9671.000000;0.512620
9670.000000;0.510503
9669.000000;0.508228
9668.000000;0.506035
9667.000000;0.503888
9666.000000;0.501615
9665.000000;0.499301
9664.000000;0.497194
9663.000000;0.495265
9662.000000;0.493148
9661.000000;0.490617
9660.000000;0.487894
9659.000000;0.485385
9658.000000;0.483247
9657.000000;0.481328
9656.000000;0.479437
9655.000000;0.477527
9654.000000;0.475627
9653.000000;0.473717
9652.000000;0.471768
9651.000000;0.469852
9650.000000;0.468059
9649.000000;0.466313
9648.000000;0.464392
9647.000000;0.462215
9646.000000;0.459969
9645.000000;0.457846
9644.000000;0.455767
9643.000000;0.453531
9642.000000;0.451150
9641.000000;0.448832
9640.000000;0.446671
9639.000000;0.444543
9638.000000;0.442315
9637.000000;0.439969
9636.000000;0.437481
9635.000000;0.434797
9634.000000;0.432007
9633.000000;0.429399
9632.000000;0.427216
9631.000000;0.425411
9630.000000;0.423715
9629.000000;0.421876
9628.000000;0.419808
9627.000000;0.417580
9626.000000;0.415301
9625.000000;0.412995
9624.000000;0.410582
9623.000000;0.408028
9622.000000;0.405489
9621.000000;0.403221
9620.000000;0.401352
9619.000000;0.399761
9618.000000;0.398140
9617.000000;0.396149
9616.000000;0.393646
9615.000000;0.390856
9614.000000;0.388226
9613.000000;0.385955
9612.000000;0.383776
9611.000000;0.381317
9610.000000;0.378605
9609.000000;0.376002
9608.000000;0.373750
9607.000000;0.371808
9606.000000;0.370044
9605.000000;0.368348
9604.000000;0.366548
9603.000000;0.364482
9602.000000;0.362195
9601.000000;0.359875
9600.000000;0.357570
9599.000000;0.355170
9598.000000;0.352662
9597.000000;0.350175
9596.000000;0.347735
9595.000000;0.345208
9594.000000;0.342583
9593.000000;0.340091
9592.000000;0.337958
9591.000000;0.336144
9590.000000;0.334385
9589.000000;0.332355
9588.000000;0.329799
9587.000000;0.326724
9586.000000;0.323501
9585.000000;0.320614
9584.000000;0.318225
9583.000000;0.316114
9582.000000;0.314041
9581.000000;0.311956
9580.000000;0.309852
9579.000000;0.307645
9578.000000;0.305331
9577.000000;0.303063
9576.000000;0.300956
9575.000000;0.298945
9574.000000;0.296899
9573.000000;0.294737
9572.000000;0.292379
9571.000000;0.289763
9570.000000;0.286985
9569.000000;0.284318
9568.000000;0.281973
9567.000000;0.279952
9566.000000;0.278131
9565.000000;0.276366
9564.000000;0.274465
9563.000000;0.272228
9562.000000;0.269602
9561.000000;0.266708
9560.000000;0.263710
9559.000000;0.260799
9558.000000;0.258231
9557.000000;0.256175
9556.000000;0.254457
9555.000000;0.252675
9554.000000;0.250624
9553.000000;0.248416
9552.000000;0.246137
9551.000000;0.243668
9550.000000;0.240950
9549.000000;0.238188
9548.000000;0.235614
9547.000000;0.233245
9546.000000;0.231021
9545.000000;0.228996
9544.000000;0.227207
9543.000000;0.225484
9542.000000;0.223595
9541.000000;0.221501
9540.000000;0.219340
9539.000000;0.217244
9538.000000;0.215278
9537.000000;0.213430
9536.000000;0.211550
9535.000000;0.209431
9534.000000;0.207077
9533.000000;0.204765
9532.000000;0.202702
9531.000000;0.200763
9530.000000;0.198717
9529.000000;0.196607
9528.000000;0.194665
9527.000000;0.192921
9526.000000;0.191128
9525.000000;0.189069
9524.000000;0.186787
9523.000000;0.184455
9522.000000;0.182179
9521.000000;0.179982
9520.000000;0.177885
9519.000000;0.175898
9518.000000;0.173961
9517.000000;0.171980
9516.000000;0.169946
9515.000000;0.167978
9514.000000;0.166169
9513.000000;0.164361
9512.000000;0.162217
9511.000000;0.159641
9510.000000;0.157057
9509.000000;0.155096
9508.000000;0.153934
9507.000000;0.153095
9506.000000;0.151923
9505.000000;0.150166
9504.000000;0.148049
9503.000000;0.145958
9502.000000;0.144154
9501.000000;0.142670
9500.000000;0.141297
9499.000000;0.139716
9498.000000;0.137781
9497.000000;0.135693
9496.000000;0.133828
9495.000000;0.132373
9494.000000;0.131170
9493.000000;0.129900
9492.000000;0.128416
9491.000000;0.126872
9490.000000;0.125541
9489.000000;0.124480
9488.000000;0.123437
9487.000000;0.122118
9486.000000;0.120532
9485.000000;0.118963
9484.000000;0.117629
9483.000000;0.116464
9482.000000;0.115263
9481.000000;0.113954
9480.000000;0.112693
9479.000000;0.111739
9478.000000;0.111234
9477.000000;0.111038
9476.000000;0.110744
9475.000000;0.109931
9474.000000;0.108499
9473.000000;0.106761
9472.000000;0.105178
9471.000000;0.104004
9470.000000;0.103161
9469.000000;0.102391
9468.000000;0.101507
9467.000000;0.100521
9466.000000;0.099573
9465.000000;0.098774
9464.000000;0.098129
9463.000000;0.097569
9462.000000;0.097010
9461.000000;0.096396
9460.000000;0.095770
9459.000000;0.095254
9458.000000;0.094870
9457.000000;0.094428
9456.000000;0.093729
9455.000000;0.092889
9454.000000;0.092263
9453.000000;0.092036
9452.000000;0.092046
9451.000000;0.092053
9450.000000;0.091956
9449.000000;0.091704
9448.000000;0.091230
9447.000000;0.090634
9446.000000;0.090196
9445.000000;0.090033
9444.000000;0.089932
9443.000000;0.089654
9442.000000;0.089245
9441.000000;0.088888
9440.000000;0.088699
9439.000000;0.088792
9438.000000;0.089296
9437.000000;0.090042
9436.000000;0.090513
9435.000000;0.090446
9434.000000;0.090262
9433.000000;0.090549
9432.000000;0.091274
9431.000000;0.091891
9430.000000;0.092112
9429.000000;0.092159
9428.000000;0.092312
9427.000000;0.092602
9426.000000;0.092975
9425.000000;0.093401
9424.000000;0.093773
9423.000000;0.094004
9422.000000;0.094251
9421.000000;0.094760
9420.000000;0.095483
9419.000000;0.096140
9418.000000;0.096678
9417.000000;0.097326
9416.000000;0.098155
9415.000000;0.098928
9414.000000;0.099480
9413.000000;0.099942
9412.000000;0.100489
9411.000000;0.101118
9410.000000;0.101786
9409.000000;0.102526
9408.000000;0.103316
9407.000000;0.104057
9406.000000;0.104769
9405.000000;0.105586
9404.000000;0.106490
9403.000000;0.107301
9402.000000;0.107994
9401.000000;0.108772
9400.000000;0.109727
9399.000000;0.110686
9398.000000;0.111490
9397.000000;0.112184
9396.000000;0.112817
9395.000000;0.113322
9394.000000;0.113750
9393.000000;0.114388
9392.000000;0.115443
9391.000000;0.116781
9390.000000;0.118119
9389.000000;0.119335
9388.000000;0.120447
9387.000000;0.121438
9386.000000;0.122291
9385.000000;0.123091
9384.000000;0.123959
9383.000000;0.124956
9382.000000;0.126108
9381.000000;0.127413
9380.000000;0.128760
9379.000000;0.129982
9378.000000;0.131057
9377.000000;0.132131
9376.000000;0.133275
9375.000000;0.134387
9374.000000;0.135400
9373.000000;0.136394
9372.000000;0.137408
9371.000000;0.138331
9370.000000;0.139107
9369.000000;0.139909
9368.000000;0.140957
9367.000000;0.142251
9366.000000;0.143593
9365.000000;0.144808
9364.000000;0.145852
9363.000000;0.146799
9362.000000;0.147803
9361.000000;0.148985
9360.000000;0.150307
9359.000000;0.151616
9358.000000;0.152841
9357.000000;0.154042
9356.000000;0.155258
9355.000000;0.156449
9354.000000;0.157638
9353.000000;0.158939
9352.000000;0.160392
9351.000000;0.161877
9350.000000;0.163252
9349.000000;0.164460
9348.000000;0.165480
9347.000000;0.166341
9346.000000;0.167224
9345.000000;0.168368
9344.000000;0.169773
9343.000000;0.171149
9342.000000;0.172269
9341.000000;0.173252
9340.000000;0.174414
9339.000000;0.175907
9338.000000;0.177583
9337.000000;0.179102
9336.000000;0.180176
9335.000000;0.180838
9334.000000;0.181493
9333.000000;0.182562
9332.000000;0.184036
9331.000000;0.185489
9330.000000;0.186596
9329.000000;0.187465
9328.000000;0.188407
9327.000000;0.189554
9326.000000;0.190811
9325.000000;0.192031
9324.000000;0.193124
9323.000000;0.194089
9322.000000;0.195039
9321.000000;0.196121
9320.000000;0.197356
9319.000000;0.198625
9318.000000;0.199835
9317.000000;0.200991
9316.000000;0.202125
9315.000000;0.203260
9314.000000;0.204471
9313.000000;0.205792
9312.000000;0.207061
9311.000000;0.208054
9310.000000;0.208846
9309.000000;0.209817
9308.000000;0.211201
9307.000000;0.212782
9306.000000;0.214162
9305.000000;0.215161
9304.000000;0.215881
9303.000000;0.216532
9302.000000;0.217354
9301.000000;0.218524
9300.000000;0.219970
9299.000000;0.221381
9298.000000;0.222528
9297.000000;0.223518
9296.000000;0.224575
9295.000000;0.225694
9294.000000;0.226680
9293.000000;0.227477
9292.000000;0.228258
9291.000000;0.229228
9290.000000;0.230463
9289.000000;0.231938
9288.000000;0.233577
9287.000000;0.235208
9286.000000;0.236598
9285.000000;0.237603
9284.000000;0.238320
9283.000000;0.239046
9282.000000;0.240056
9281.000000;0.241381
9280.000000;0.242789
9279.000000;0.244011
9278.000000;0.244996
9277.000000;0.245919
9276.000000;0.246957
9275.000000;0.248120
9274.000000;0.249264
9273.000000;0.250242
9272.000000;0.251034
9271.000000;0.251787
9270.000000;0.252666
9269.000000;0.253654
9268.000000;0.254555
9267.000000;0.255264
9266.000000;0.255925
9265.000000;0.256751
9264.000000;0.257756
9263.000000;0.258824
9262.000000;0.259924
9261.000000;0.261088
9260.000000;0.262238
9259.000000;0.263234
9258.000000;0.264082
9257.000000;0.264894
9256.000000;0.265673
9255.000000;0.266327
9254.000000;0.266885
9253.000000;0.267524
9252.000000;0.268367
9251.000000;0.269423
9250.000000;0.270699
9249.000000;0.272165
9248.000000;0.273610
9247.000000;0.274760
9246.000000;0.275604
9245.000000;0.276391
9244.000000;0.277255
9243.000000;0.278061
9242.000000;0.278701
9241.000000;0.279326
9240.000000;0.280147
9239.000000;0.281165
9238.000000;0.282215
9237.000000;0.283144
9236.000000;0.283862
9235.000000;0.284340
9234.000000;0.284670
9233.000000;0.285056
9232.000000;0.285677
9231.000000;0.286615
9230.000000;0.287894
9229.000000;0.289417
9228.000000;0.290866
9227.000000;0.291864
9226.000000;0.292362
9225.000000;0.292725
9224.000000;0.293365
9223.000000;0.294375
9222.000000;0.295547
9221.000000;0.296596
9220.000000;0.297338
9219.000000;0.297794
9218.000000;0.298196
9217.000000;0.298767
9216.000000;0.299479
9215.000000;0.300182
9214.000000;0.300914
9213.000000;0.301853
9212.000000;0.302934
9211.000000;0.303823
9210.000000;0.304375
9209.000000;0.304861
9208.000000;0.305580
9207.000000;0.306494
9206.000000;0.307389
9205.000000;0.308199
9204.000000;0.308973
9203.000000;0.309684
9202.000000;0.310302
9201.000000;0.310917
9200.000000;0.311640
9199.000000;0.312465
9198.000000;0.313347
9197.000000;0.314292
9196.000000;0.315243
9195.000000;0.316024
9194.000000;0.316567
9193.000000;0.317046
9192.000000;0.317645
9191.000000;0.318312
9190.000000;0.318912
9189.000000;0.319495
9188.000000;0.320209
9187.000000;0.321037
9186.000000;0.321811
9185.000000;0.322440
9184.000000;0.322954
9183.000000;0.323386
9182.000000;0.323793
9181.000000;0.324332
9180.000000;0.325135
9179.000000;0.326116
9178.000000;0.327047
9177.000000;0.327811
9176.000000;0.328469
9175.000000;0.329115
9174.000000;0.329772
9173.000000;0.330431
9172.000000;0.331078
9171.000000;0.331692
9170.000000;0.332287
9169.000000;0.332916
9168.000000;0.333571
9167.000000;0.334130
9166.000000;0.334527
9165.000000;0.334889
9164.000000;0.335398
9163.000000;0.336052
9162.000000;0.336689
9161.000000;0.337213
9160.000000;0.337692
9159.000000;0.338227
9158.000000;0.338813
9157.000000;0.339347
9156.000000;0.339716
9155.000000;0.339910
9154.000000;0.340078
9153.000000;0.340443
9152.000000;0.341117
9151.000000;0.342053
9150.000000;0.343160
9149.000000;0.344396
9148.000000;0.345673
9147.000000;0.346792
9146.000000;0.347569
9145.000000;0.347984
9144.000000;0.348142
9143.000000;0.348171
9142.000000;0.348192
9141.000000;0.348319
9140.000000;0.348570
9139.000000;0.348871
9138.000000;0.349204
9137.000000;0.349653
9136.000000;0.350232
9135.000000;0.350779
9134.000000;0.351146
9133.000000;0.351426
9132.000000;0.351844
9131.000000;0.352492
9130.000000;0.353274
9129.000000;0.354041
9128.000000;0.354662
9127.000000;0.355029
9126.000000;0.355159
9125.000000;0.355263
9124.000000;0.355571
9123.000000;0.356101
9122.000000;0.356715
9121.000000;0.357365
9120.000000;0.358110
9119.000000;0.358887
9118.000000;0.359455
9117.000000;0.359661
9116.000000;0.359671
9115.000000;0.359832
9114.000000;0.360333
9113.000000;0.361060
9112.000000;0.361745
9111.000000;0.362202
9110.000000;0.362451
9109.000000;0.362630
9108.000000;0.362843
9107.000000;0.363104
9106.000000;0.363415
9105.000000;0.363822
9104.000000;0.364360
9103.000000;0.364991
9102.000000;0.365640
9101.000000;0.366263
9100.000000;0.366831
9099.000000;0.367299
9098.000000;0.367661
9097.000000;0.367997
9096.000000;0.368382
9095.000000;0.368767
9094.000000;0.369036
9093.000000;0.369183
9092.000000;0.369366
9091.000000;0.369725
9090.000000;0.370214
9089.000000;0.370646
9088.000000;0.370890
9087.000000;0.370984
9086.000000;0.371046
9085.000000;0.371157
9084.000000;0.371355
9083.000000;0.371724
9082.000000;0.372373
9081.000000;0.373267
9080.000000;0.374150
9079.000000;0.374740
9078.000000;0.374980
9077.000000;0.375064
9076.000000;0.375214
9075.000000;0.375539
9074.000000;0.376053
9073.000000;0.376705
9072.000000;0.377363
9071.000000;0.377867
9070.000000;0.378169
9069.000000;0.378368
9068.000000;0.378563
9067.000000;0.378746
9066.000000;0.378877
9065.000000;0.379005
9064.000000;0.379267
9063.000000;0.379750
9062.000000;0.380374
9061.000000;0.380895
9060.000000;0.381089
9059.000000;0.380994
9058.000000;0.380913
9057.000000;0.381065
9056.000000;0.381319
9055.000000;0.381400
9054.000000;0.381332
9053.000000;0.381444
