Criado como novo conjunto de dados;"0307_DANIEL.spp","43024.3 Secs"
cm-1;Abs
10000.000000;1.122595
9999.000000;1.120636
9998.000000;1.119184
9997.000000;1.118067
9996.000000;1.116989
9995.000000;1.116074
9994.000000;1.115430
9993.000000;1.114783
9992.000000;1.113615
9991.000000;1.111913
9990.000000;1.110263
9989.000000;1.109162
9988.000000;1.108415
9987.000000;1.107418
9986.000000;1.105869
9985.000000;1.104037
9984.000000;1.102376
9983.000000;1.101093
9982.000000;1.100069
9981.000000;1.099060
9980.000000;1.097881
9979.000000;1.096465
9978.000000;1.094887
9977.000000;1.093397
9976.000000;1.092327
9975.000000;1.091818
9974.000000;1.091545
9973.000000;1.090868
9972.000000;1.089440
9971.000000;1.087607
9970.000000;1.086019
9969.000000;1.084866
9968.000000;1.083777
9967.000000;1.082458
9966.000000;1.081106
9965.000000;1.079999
9964.000000;1.078958
9963.000000;1.077565
9962.000000;1.075780
9961.000000;1.074046
9960.000000;1.072758
9959.000000;1.071849
9958.000000;1.070928
9957.000000;1.069661
9956.000000;1.068022
9955.000000;1.066336
9954.000000;1.065083
9953.000000;1.064521
9952.000000;1.064409
9951.000000;1.064180
9950.000000;1.063411
9949.000000;1.062060
9948.000000;1.060334
9947.000000;1.058516
9946.000000;1.056904
9945.000000;1.055686
9944.000000;1.054768
9943.000000;1.053837
9942.000000;1.052664
9941.000000;1.051271
9940.000000;1.049766
9939.000000;1.048174
9938.000000;1.046479
9937.000000;1.044734
9936.000000;1.043040
9935.000000;1.041450
9934.000000;1.039952
9933.000000;1.038535
9932.000000;1.037268
9931.000000;1.036277
9930.000000;1.035585
9929.000000;1.034952
9928.000000;1.034046
9927.000000;1.032845
9926.000000;1.031719
9925.000000;1.030927
9924.000000;1.030174
9923.000000;1.028933
9922.000000;1.027130
9921.000000;1.025193
9920.000000;1.023428
9919.000000;1.021725
9918.000000;1.019969
9917.000000;1.018392
9916.000000;1.017272
9915.000000;1.016478
9914.000000;1.015584
9913.000000;1.014322
9912.000000;1.012748
9911.000000;1.011061
9910.000000;1.009450
9909.000000;1.008077
9908.000000;1.006992
9907.000000;1.006033
9906.000000;1.004941
9905.000000;1.003607
9904.000000;1.002143
9903.000000;1.000706
9902.000000;0.999304
9901.000000;0.997836
9900.000000;0.996303
9899.000000;0.994900
9898.000000;0.993825
9897.000000;0.992984
9896.000000;0.992030
9895.000000;0.990790
9894.000000;0.989496
9893.000000;0.988409
9892.000000;0.987362
9891.000000;0.985970
9890.000000;0.984233
9889.000000;0.982553
9888.000000;0.981104
9887.000000;0.979552
9886.000000;0.977592
9885.000000;0.975478
9884.000000;0.973747
9883.000000;0.972600
9882.000000;0.971785
9881.000000;0.970986
9880.000000;0.970084
9879.000000;0.969070
9878.000000;0.967927
9877.000000;0.966602
9876.000000;0.965039
9875.000000;0.963235
9874.000000;0.961326
9873.000000;0.959546
9872.000000;0.958086
9871.000000;0.957034
9870.000000;0.956406
9869.000000;0.956035
9868.000000;0.955456
9867.000000;0.954201
9866.000000;0.952351
9865.000000;0.950503
9864.000000;0.949023
9863.000000;0.947568
9862.000000;0.945564
9861.000000;0.942965
9860.000000;0.940237
9859.000000;0.937792
9858.000000;0.935758
9857.000000;0.934165
9856.000000;0.932979
9855.000000;0.931941
9854.000000;0.930679
9853.000000;0.929107
9852.000000;0.927556
9851.000000;0.926403
9850.000000;0.925674
9849.000000;0.925024
9848.000000;0.924048
9847.000000;0.922616
9846.000000;0.920975
9845.000000;0.919508
9844.000000;0.918336
9843.000000;0.917219
9842.000000;0.915913
9841.000000;0.914513
9840.000000;0.913288
9839.000000;0.912271
9838.000000;0.911177
9837.000000;0.909689
9836.000000;0.907707
9835.000000;0.905394
9834.000000;0.903073
9833.000000;0.901034
9832.000000;0.899292
9831.000000;0.897629
9830.000000;0.895963
9829.000000;0.894538
9828.000000;0.893542
9827.000000;0.892690
9826.000000;0.891458
9825.000000;0.889675
9824.000000;0.887631
9823.000000;0.885633
9822.000000;0.883750
9821.000000;0.882013
9820.000000;0.880548
9819.000000;0.879328
9818.000000;0.878032
9817.000000;0.876349
9816.000000;0.874364
9815.000000;0.872523
9814.000000;0.871231
9813.000000;0.870516
9812.000000;0.869975
9811.000000;0.869005
9810.000000;0.867218
9809.000000;0.864769
9808.000000;0.862261
9807.000000;0.860298
9806.000000;0.859098
9805.000000;0.858464
9804.000000;0.857975
9803.000000;0.857217
9802.000000;0.855937
9801.000000;0.854123
9800.000000;0.851978
9799.000000;0.849779
9798.000000;0.847734
9797.000000;0.845909
9796.000000;0.844271
9795.000000;0.842794
9794.000000;0.841486
9793.000000;0.840257
9792.000000;0.838834
9791.000000;0.836985
9790.000000;0.834843
9789.000000;0.832812
9788.000000;0.831091
9787.000000;0.829450
9786.000000;0.827598
9785.000000;0.825607
9784.000000;0.823816
9783.000000;0.822443
9782.000000;0.821433
9781.000000;0.820555
9780.000000;0.819476
9779.000000;0.817872
9778.000000;0.815693
9777.000000;0.813261
9776.000000;0.810938
9775.000000;0.808741
9774.000000;0.806456
9773.000000;0.804081
9772.000000;0.801970
9771.000000;0.800542
9770.000000;0.799903
9769.000000;0.799684
9768.000000;0.799164
9767.000000;0.797742
9766.000000;0.795505
9765.000000;0.793160
9764.000000;0.791235
9763.000000;0.789507
9762.000000;0.787483
9761.000000;0.785231
9760.000000;0.783330
9759.000000;0.782022
9758.000000;0.780859
9757.000000;0.779282
9756.000000;0.777241
9755.000000;0.775087
9754.000000;0.773113
9753.000000;0.771372
9752.000000;0.769761
9751.000000;0.768097
9750.000000;0.766248
9749.000000;0.764278
9748.000000;0.762393
9747.000000;0.760711
9746.000000;0.759185
9745.000000;0.757723
9744.000000;0.756240
9743.000000;0.754600
9742.000000;0.752723
9741.000000;0.750786
9740.000000;0.749089
9739.000000;0.747675
9738.000000;0.746255
9737.000000;0.744555
9736.000000;0.742523
9735.000000;0.740187
9734.000000;0.737625
9733.000000;0.735134
9732.000000;0.733106
9731.000000;0.731525
9730.000000;0.729859
9729.000000;0.727707
9728.000000;0.725354
9727.000000;0.723407
9726.000000;0.722039
9725.000000;0.720866
9724.000000;0.719474
9723.000000;0.717792
9722.000000;0.715946
9721.000000;0.714035
9720.000000;0.712102
9719.000000;0.710178
9718.000000;0.708246
9717.000000;0.706226
9716.000000;0.704045
9715.000000;0.701719
9714.000000;0.699386
9713.000000;0.697288
9712.000000;0.695625
9711.000000;0.694348
9710.000000;0.693137
9709.000000;0.691681
9708.000000;0.689942
9707.000000;0.688063
9706.000000;0.686100
9705.000000;0.683971
9704.000000;0.681629
9703.000000;0.679150
9702.000000;0.676653
9701.000000;0.674273
9700.000000;0.672210
9699.000000;0.670644
9698.000000;0.669468
9697.000000;0.668207
9696.000000;0.666360
9695.000000;0.663890
9694.000000;0.661307
9693.000000;0.659205
9692.000000;0.657744
9691.000000;0.656573
9690.000000;0.655175
9689.000000;0.653250
9688.000000;0.650859
9687.000000;0.648327
9686.000000;0.645991
9685.000000;0.643900
9684.000000;0.641770
9683.000000;0.639371
9682.000000;0.636947
9681.000000;0.635015
9680.000000;0.633653
9679.000000;0.632243
9678.000000;0.630133
9677.000000;0.627405
9676.000000;0.624735
9675.000000;0.622625
9674.000000;0.621040
9673.000000;0.619676
9672.000000;0.618242
9671.000000;0.616489
9670.000000;0.614319
9669.000000;0.611974
9668.000000;0.609823
9667.000000;0.607870
9666.000000;0.605711
9665.000000;0.603121
9664.000000;0.600403
9663.000000;0.598002
9662.000000;0.595994
9661.000000;0.594143
9660.000000;0.592272
9659.000000;0.590334
9658.000000;0.588245
9657.000000;0.585933
9656.000000;0.583514
9655.000000;0.581240
9654.000000;0.579245
9653.000000;0.577459
9652.000000;0.575742
9651.000000;0.573957
9650.000000;0.571990
9649.000000;0.569867
9648.000000;0.567800
9647.000000;0.565962
9646.000000;0.564207
9645.000000;0.562194
9644.000000;0.559814
9643.000000;0.557335
9642.000000;0.555028
9641.000000;0.552817
9640.000000;0.550422
9639.000000;0.547787
9638.000000;0.545184
9637.000000;0.542848
9636.000000;0.540667
9635.000000;0.538348
9634.000000;0.535844
9633.000000;0.533434
9632.000000;0.531366
9631.000000;0.529554
9630.000000;0.527746
9629.000000;0.525842
9628.000000;0.523898
9627.000000;0.521889
9626.000000;0.519678
9625.000000;0.517240
9624.000000;0.514739
9623.000000;0.512312
9622.000000;0.509910
9621.000000;0.507432
9620.000000;0.504910
9619.000000;0.502477
9618.000000;0.500226
9617.000000;0.498195
9616.000000;0.496396
9615.000000;0.494766
9614.000000;0.493096
9613.000000;0.491104
9612.000000;0.488647
9611.000000;0.485898
9610.000000;0.483290
9609.000000;0.481218
9608.000000;0.479666
9607.000000;0.478138
9606.000000;0.476061
9605.000000;0.473318
9604.000000;0.470310
9603.000000;0.467509
9602.000000;0.465046
9601.000000;0.462732
9600.000000;0.460365
9599.000000;0.457962
9598.000000;0.455711
9597.000000;0.453743
9596.000000;0.451937
9595.000000;0.449975
9594.000000;0.447660
9593.000000;0.445132
9592.000000;0.442672
9591.000000;0.440355
9590.000000;0.438025
9589.000000;0.435570
9588.000000;0.433038
9587.000000;0.430477
9586.000000;0.427861
9585.000000;0.425222
9584.000000;0.422681
9583.000000;0.420268
9582.000000;0.417857
9581.000000;0.415360
9580.000000;0.412846
9579.000000;0.410401
9578.000000;0.408015
9577.000000;0.405709
9576.000000;0.403618
9575.000000;0.401825
9574.000000;0.400169
9573.000000;0.398346
9572.000000;0.396149
9571.000000;0.393553
9570.000000;0.390679
9569.000000;0.387766
9568.000000;0.385078
9567.000000;0.382717
9566.000000;0.380576
9565.000000;0.378517
9564.000000;0.376503
9563.000000;0.374476
9562.000000;0.372257
9561.000000;0.369707
9560.000000;0.366899
9559.000000;0.364036
9558.000000;0.361263
9557.000000;0.358667
9556.000000;0.356364
9555.000000;0.354432
9554.000000;0.352750
9553.000000;0.351031
9552.000000;0.349013
9551.000000;0.346602
9550.000000;0.343904
9549.000000;0.341208
9548.000000;0.338842
9547.000000;0.336925
9546.000000;0.335271
9545.000000;0.333588
9544.000000;0.331735
9543.000000;0.329701
9542.000000;0.327475
9541.000000;0.325041
9540.000000;0.322463
9539.000000;0.319840
9538.000000;0.317201
9537.000000;0.314545
9536.000000;0.311932
9535.000000;0.309455
9534.000000;0.307134
9533.000000;0.304913
9532.000000;0.302746
9531.000000;0.300629
9530.000000;0.298587
9529.000000;0.296672
9528.000000;0.294906
9527.000000;0.293167
9526.000000;0.291219
9525.000000;0.288967
9524.000000;0.286612
9523.000000;0.284444
9522.000000;0.282536
9521.000000;0.280755
9520.000000;0.278997
9519.000000;0.277257
9518.000000;0.275518
9517.000000;0.273714
9516.000000;0.271825
9515.000000;0.269873
9514.000000;0.267824
9513.000000;0.265609
9512.000000;0.263275
9511.000000;0.261013
9510.000000;0.258994
9509.000000;0.257233
9508.000000;0.255631
9507.000000;0.254085
9506.000000;0.252535
9505.000000;0.250962
9504.000000;0.249386
9503.000000;0.247839
9502.000000;0.246336
9501.000000;0.244837
9500.000000;0.243237
9499.000000;0.241423
9498.000000;0.239420
9497.000000;0.237447
9496.000000;0.235715
9495.000000;0.234153
9494.000000;0.232476
9493.000000;0.230602
9492.000000;0.228848
9491.000000;0.227568
9490.000000;0.226712
9489.000000;0.225885
9488.000000;0.224753
9487.000000;0.223263
9486.000000;0.221553
9485.000000;0.219864
9484.000000;0.218487
9483.000000;0.217547
9482.000000;0.216809
9481.000000;0.215878
9480.000000;0.214640
9479.000000;0.213364
9478.000000;0.212315
9477.000000;0.211435
9476.000000;0.210486
9475.000000;0.209361
9474.000000;0.208142
9473.000000;0.206954
9472.000000;0.205894
9471.000000;0.205014
9470.000000;0.204275
9469.000000;0.203528
9468.000000;0.202630
9467.000000;0.201577
9466.000000;0.200497
9465.000000;0.199508
9464.000000;0.198612
9463.000000;0.197701
9462.000000;0.196693
9461.000000;0.195673
9460.000000;0.194874
9459.000000;0.194447
9458.000000;0.194270
9457.000000;0.194070
9456.000000;0.193716
9455.000000;0.193287
9454.000000;0.192876
9453.000000;0.192479
9452.000000;0.192095
9451.000000;0.191790
9450.000000;0.191558
9449.000000;0.191278
9448.000000;0.190925
9447.000000;0.190712
9446.000000;0.190862
9445.000000;0.191280
9444.000000;0.191606
9443.000000;0.191597
9442.000000;0.191323
9441.000000;0.191003
9440.000000;0.190758
9439.000000;0.190582
9438.000000;0.190468
9437.000000;0.190467
9436.000000;0.190628
9435.000000;0.190937
9434.000000;0.191325
9433.000000;0.191718
9432.000000;0.192083
9431.000000;0.192422
9430.000000;0.192729
9429.000000;0.192970
9428.000000;0.193096
9427.000000;0.193091
9426.000000;0.193010
9425.000000;0.192988
9424.000000;0.193172
9423.000000;0.193589
9422.000000;0.194129
9421.000000;0.194665
9420.000000;0.195177
9419.000000;0.195686
9418.000000;0.196143
9417.000000;0.196487
9416.000000;0.196793
9415.000000;0.197216
9414.000000;0.197777
9413.000000;0.198339
9412.000000;0.198845
9411.000000;0.199428
9410.000000;0.200187
9409.000000;0.200991
9408.000000;0.201645
9407.000000;0.202203
9406.000000;0.202929
9405.000000;0.203981
9404.000000;0.205241
9403.000000;0.206489
9402.000000;0.207625
9401.000000;0.208686
9400.000000;0.209682
9399.000000;0.210516
9398.000000;0.211064
9397.000000;0.211350
9396.000000;0.211603
9395.000000;0.212087
9394.000000;0.212887
9393.000000;0.213896
9392.000000;0.215003
9391.000000;0.216154
9390.000000;0.217225
9389.000000;0.218031
9388.000000;0.218591
9387.000000;0.219260
9386.000000;0.220380
9385.000000;0.221858
9384.000000;0.223235
9383.000000;0.224189
9382.000000;0.224842
9381.000000;0.225582
9380.000000;0.226719
9379.000000;0.228279
9378.000000;0.229990
9377.000000;0.231444
9376.000000;0.232434
9375.000000;0.233165
9374.000000;0.234024
9373.000000;0.235173
9372.000000;0.236466
9371.000000;0.237740
9370.000000;0.238981
9369.000000;0.240180
9368.000000;0.241244
9367.000000;0.242176
9366.000000;0.243177
9365.000000;0.244395
9364.000000;0.245694
9363.000000;0.246818
9362.000000;0.247728
9361.000000;0.248610
9360.000000;0.249596
9359.000000;0.250626
9358.000000;0.251580
9357.000000;0.252436
9356.000000;0.253285
9355.000000;0.254293
9354.000000;0.255631
9353.000000;0.257309
9352.000000;0.259049
9351.000000;0.260410
9350.000000;0.261142
9349.000000;0.261393
9348.000000;0.261568
9347.000000;0.262014
9346.000000;0.262857
9345.000000;0.264065
9344.000000;0.265575
9343.000000;0.267343
9342.000000;0.269289
9341.000000;0.271252
9340.000000;0.273006
9339.000000;0.274367
9338.000000;0.275319
9337.000000;0.276058
9336.000000;0.276892
9335.000000;0.278051
9334.000000;0.279548
9333.000000;0.281208
9332.000000;0.282817
9331.000000;0.284235
9330.000000;0.285393
9329.000000;0.286284
9328.000000;0.287042
9327.000000;0.287938
9326.000000;0.289167
9325.000000;0.290616
9324.000000;0.291927
9323.000000;0.292847
9322.000000;0.293465
9321.000000;0.294098
9320.000000;0.295001
9319.000000;0.296200
9318.000000;0.297527
9317.000000;0.298775
9316.000000;0.299862
9315.000000;0.300881
9314.000000;0.301981
9313.000000;0.303206
9312.000000;0.304496
9311.000000;0.305809
9310.000000;0.307167
9309.000000;0.308578
9308.000000;0.309991
9307.000000;0.311369
9306.000000;0.312724
9305.000000;0.314046
9304.000000;0.315270
9303.000000;0.316352
9302.000000;0.317349
9301.000000;0.318364
9300.000000;0.319435
9299.000000;0.320490
9298.000000;0.321387
9297.000000;0.322043
9296.000000;0.322591
9295.000000;0.323333
9294.000000;0.324452
9293.000000;0.325792
9292.000000;0.327062
9291.000000;0.328207
9290.000000;0.329388
9289.000000;0.330609
9288.000000;0.331626
9287.000000;0.332327
9286.000000;0.332953
9285.000000;0.333763
9284.000000;0.334683
9283.000000;0.335494
9282.000000;0.336228
9281.000000;0.337139
9280.000000;0.338342
9279.000000;0.339683
9278.000000;0.340930
9277.000000;0.341927
9276.000000;0.342609
9275.000000;0.343101
9274.000000;0.343775
9273.000000;0.344973
9272.000000;0.346596
9271.000000;0.348150
9270.000000;0.349261
9269.000000;0.350042
9268.000000;0.350865
9267.000000;0.351937
9266.000000;0.353170
9265.000000;0.354359
9264.000000;0.355369
9263.000000;0.356197
9262.000000;0.356955
9261.000000;0.357778
9260.000000;0.358727
9259.000000;0.359759
9258.000000;0.360772
9257.000000;0.361675
9256.000000;0.362429
9255.000000;0.363085
9254.000000;0.363752
9253.000000;0.364483
9252.000000;0.365250
9251.000000;0.366058
9250.000000;0.366988
9249.000000;0.368031
9248.000000;0.368964
9247.000000;0.369579
9246.000000;0.370007
9245.000000;0.370624
9244.000000;0.371636
9243.000000;0.372894
9242.000000;0.374139
9241.000000;0.375274
9240.000000;0.376339
9239.000000;0.377386
9238.000000;0.378445
9237.000000;0.379484
9236.000000;0.380349
9235.000000;0.380911
9234.000000;0.381316
9233.000000;0.381938
9232.000000;0.382969
9231.000000;0.384194
9230.000000;0.385274
9229.000000;0.386103
9228.000000;0.386777
9227.000000;0.387357
9226.000000;0.387881
9225.000000;0.388502
9224.000000;0.389401
9223.000000;0.390545
9222.000000;0.391674
9221.000000;0.392581
9220.000000;0.393281
9219.000000;0.393906
9218.000000;0.394531
9217.000000;0.395157
9216.000000;0.395789
9215.000000;0.396483
9214.000000;0.397295
9213.000000;0.398186
9212.000000;0.398999
9211.000000;0.399613
9210.000000;0.400128
9209.000000;0.400823
9208.000000;0.401839
9207.000000;0.402998
9206.000000;0.404024
9205.000000;0.404869
9204.000000;0.405716
9203.000000;0.406679
9202.000000;0.407648
9201.000000;0.408420
9200.000000;0.408919
9199.000000;0.409266
9198.000000;0.409687
9197.000000;0.410357
9196.000000;0.411262
9195.000000;0.412217
9194.000000;0.413035
9193.000000;0.413654
9192.000000;0.414099
9191.000000;0.414412
9190.000000;0.414683
9189.000000;0.415081
9188.000000;0.415714
9187.000000;0.416493
9186.000000;0.417225
9185.000000;0.417844
9184.000000;0.418454
9183.000000;0.419165
9182.000000;0.419978
9181.000000;0.420829
9180.000000;0.421622
9179.000000;0.422216
9178.000000;0.422521
9177.000000;0.422647
9176.000000;0.422892
9175.000000;0.423498
9174.000000;0.424460
9173.000000;0.425579
9172.000000;0.426644
9171.000000;0.427513
9170.000000;0.428099
9169.000000;0.428394
9168.000000;0.428510
9167.000000;0.428645
9166.000000;0.428959
9165.000000;0.429473
9164.000000;0.430092
9163.000000;0.430723
9162.000000;0.431356
9161.000000;0.431995
9160.000000;0.432553
9159.000000;0.432911
9158.000000;0.433114
9157.000000;0.433405
9156.000000;0.433964
9155.000000;0.434694
9154.000000;0.435364
9153.000000;0.435958
9152.000000;0.436709
9151.000000;0.437746
9150.000000;0.438841
9149.000000;0.439596
9148.000000;0.439859
9147.000000;0.439898
9146.000000;0.440170
9145.000000;0.440935
9144.000000;0.442040
9143.000000;0.443076
9142.000000;0.443783
9141.000000;0.444285
9140.000000;0.444874
9139.000000;0.445594
9138.000000;0.446160
9137.000000;0.446339
9136.000000;0.446277
9135.000000;0.446342
9134.000000;0.446713
9133.000000;0.447218
9132.000000;0.447572
9131.000000;0.447672
9130.000000;0.447628
9129.000000;0.447614
9128.000000;0.447751
9127.000000;0.448111
9126.000000;0.448727
9125.000000;0.449553
9124.000000;0.450435
9123.000000;0.451207
9122.000000;0.451820
9121.000000;0.452345
9120.000000;0.452815
9119.000000;0.453138
9118.000000;0.453234
9117.000000;0.453208
9116.000000;0.453317
9115.000000;0.453729
9114.000000;0.454388
9113.000000;0.455105
9112.000000;0.455736
9111.000000;0.456253
9110.000000;0.456687
9109.000000;0.457071
9108.000000;0.457402
9107.000000;0.457668
9106.000000;0.457925
9105.000000;0.458341
9104.000000;0.459093
9103.000000;0.460142
9102.000000;0.461153
9101.000000;0.461706
9100.000000;0.461691
9099.000000;0.461467
9098.000000;0.461570
9097.000000;0.462192
9096.000000;0.462986
9095.000000;0.463473
9094.000000;0.463603
9093.000000;0.463773
9092.000000;0.464265
9091.000000;0.464868
9090.000000;0.465206
9089.000000;0.465282
9088.000000;0.465453
9087.000000;0.465905
9086.000000;0.466426
9085.000000;0.466756
9084.000000;0.466906
9083.000000;0.467051
9082.000000;0.467266
9081.000000;0.467554
9080.000000;0.467963
9079.000000;0.468513
9078.000000;0.469063
9077.000000;0.469456
9076.000000;0.469729
9075.000000;0.470046
9074.000000;0.470421
9073.000000;0.470681
9072.000000;0.470737
9071.000000;0.470744
9070.000000;0.470940
9069.000000;0.471393
9068.000000;0.471978
9067.000000;0.472519
9066.000000;0.472912
9065.000000;0.473141
9064.000000;0.473266
9063.000000;0.473388
9062.000000;0.473596
9061.000000;0.473924
9060.000000;0.474335
9059.000000;0.474750
9058.000000;0.475085
9057.000000;0.475305
9056.000000;0.475449
9055.000000;0.475591
9054.000000;0.475788
9053.000000;0.476032
