Criado como novo conjunto de dados;"0307_DANIEL.spp","68405.6 Secs"
cm-1;Abs
10000.000000;0.599476
9999.000000;0.598444
9998.000000;0.597542
9997.000000;0.596972
9996.000000;0.596571
9995.000000;0.595954
9994.000000;0.594899
9993.000000;0.593480
9992.000000;0.592019
9991.000000;0.590905
9990.000000;0.590327
9989.000000;0.590103
9988.000000;0.589848
9987.000000;0.589350
9986.000000;0.588675
9985.000000;0.587931
9984.000000;0.587141
9983.000000;0.586357
9982.000000;0.585683
9981.000000;0.585082
9980.000000;0.584341
9979.000000;0.583340
9978.000000;0.582216
9977.000000;0.581165
9976.000000;0.580208
9975.000000;0.579267
9974.000000;0.578341
9973.000000;0.577472
9972.000000;0.576637
9971.000000;0.575795
9970.000000;0.574970
9969.000000;0.574189
9968.000000;0.573430
9967.000000;0.572688
9966.000000;0.572006
9965.000000;0.571339
9964.000000;0.570512
9963.000000;0.569401
9962.000000;0.568120
9961.000000;0.566910
9960.000000;0.565922
9959.000000;0.565174
9958.000000;0.564629
9957.000000;0.564192
9956.000000;0.563707
9955.000000;0.563028
9954.000000;0.562109
9953.000000;0.560987
9952.000000;0.559789
9951.000000;0.558742
9950.000000;0.558012
9949.000000;0.557455
9948.000000;0.556698
9947.000000;0.555587
9946.000000;0.554419
9945.000000;0.553570
9944.000000;0.553051
9943.000000;0.552601
9942.000000;0.552097
9941.000000;0.551621
9940.000000;0.551131
9939.000000;0.550349
9938.000000;0.549076
9937.000000;0.547484
9936.000000;0.545973
9935.000000;0.544810
9934.000000;0.543948
9933.000000;0.543142
9932.000000;0.542186
9931.000000;0.541078
9930.000000;0.540009
9929.000000;0.539178
9928.000000;0.538595
9927.000000;0.538034
9926.000000;0.537217
9925.000000;0.536064
9924.000000;0.534795
9923.000000;0.533710
9922.000000;0.532868
9921.000000;0.532035
9920.000000;0.531024
9919.000000;0.529961
9918.000000;0.529099
9917.000000;0.528438
9916.000000;0.527719
9915.000000;0.526799
9914.000000;0.525789
9913.000000;0.524792
9912.000000;0.523744
9911.000000;0.522629
9910.000000;0.521638
9909.000000;0.520921
9908.000000;0.520332
9907.000000;0.519581
9906.000000;0.518554
9905.000000;0.517352
9904.000000;0.516137
9903.000000;0.515083
9902.000000;0.514372
9901.000000;0.513994
9900.000000;0.513601
9899.000000;0.512746
9898.000000;0.511320
9897.000000;0.509652
9896.000000;0.508178
9895.000000;0.507097
9894.000000;0.506287
9893.000000;0.505445
9892.000000;0.504322
9891.000000;0.502933
9890.000000;0.501519
9889.000000;0.500267
9888.000000;0.499138
9887.000000;0.498053
9886.000000;0.497102
9885.000000;0.496434
9884.000000;0.496001
9883.000000;0.495554
9882.000000;0.494903
9881.000000;0.494054
9880.000000;0.493120
9879.000000;0.492180
9878.000000;0.491204
9877.000000;0.490043
9876.000000;0.488575
9875.000000;0.486951
9874.000000;0.485569
9873.000000;0.484675
9872.000000;0.484059
9871.000000;0.483297
9870.000000;0.482217
9869.000000;0.481005
9868.000000;0.479900
9867.000000;0.478974
9866.000000;0.478162
9865.000000;0.477338
9864.000000;0.476368
9863.000000;0.475230
9862.000000;0.474102
9861.000000;0.473165
9860.000000;0.472359
9859.000000;0.471458
9858.000000;0.470363
9857.000000;0.469159
9856.000000;0.467922
9855.000000;0.466642
9854.000000;0.465358
9853.000000;0.464164
9852.000000;0.463054
9851.000000;0.461905
9850.000000;0.460665
9849.000000;0.459398
9848.000000;0.458134
9847.000000;0.456808
9846.000000;0.455386
9845.000000;0.453939
9844.000000;0.452574
9843.000000;0.451409
9842.000000;0.450569
9841.000000;0.450028
9840.000000;0.449469
9839.000000;0.448540
9838.000000;0.447282
9837.000000;0.446075
9836.000000;0.445078
9835.000000;0.443995
9834.000000;0.442537
9833.000000;0.440893
9832.000000;0.439523
9831.000000;0.438591
9830.000000;0.437829
9829.000000;0.436910
9828.000000;0.435777
9827.000000;0.434625
9826.000000;0.433654
9825.000000;0.432848
9824.000000;0.431928
9823.000000;0.430561
9822.000000;0.428719
9821.000000;0.426795
9820.000000;0.425268
9819.000000;0.424256
9818.000000;0.423449
9817.000000;0.422454
9816.000000;0.421158
9815.000000;0.419780
9814.000000;0.418634
9813.000000;0.417831
9812.000000;0.417176
9811.000000;0.416375
9810.000000;0.415322
9809.000000;0.414142
9808.000000;0.412933
9807.000000;0.411568
9806.000000;0.409843
9805.000000;0.407797
9804.000000;0.405795
9803.000000;0.404247
9802.000000;0.403264
9801.000000;0.402567
9800.000000;0.401723
9799.000000;0.400488
9798.000000;0.398943
9797.000000;0.397335
9796.000000;0.395857
9795.000000;0.394561
9794.000000;0.393390
9793.000000;0.392220
9792.000000;0.390949
9791.000000;0.389624
9790.000000;0.388444
9789.000000;0.387535
9788.000000;0.386774
9787.000000;0.385913
9786.000000;0.384815
9785.000000;0.383472
9784.000000;0.381891
9783.000000;0.380154
9782.000000;0.378514
9781.000000;0.377193
9780.000000;0.376080
9779.000000;0.374854
9778.000000;0.373441
9777.000000;0.372115
9776.000000;0.371052
9775.000000;0.370046
9774.000000;0.368822
9773.000000;0.367411
9772.000000;0.366018
9771.000000;0.364667
9770.000000;0.363196
9769.000000;0.361539
9768.000000;0.359816
9767.000000;0.358187
9766.000000;0.356778
9765.000000;0.355703
9764.000000;0.354951
9763.000000;0.354250
9762.000000;0.353199
9761.000000;0.351585
9760.000000;0.349512
9759.000000;0.347264
9758.000000;0.345153
9757.000000;0.343446
9756.000000;0.342254
9755.000000;0.341415
9754.000000;0.340610
9753.000000;0.339671
9752.000000;0.338685
9751.000000;0.337752
9750.000000;0.336724
9749.000000;0.335325
9748.000000;0.333514
9747.000000;0.331619
9746.000000;0.330041
9745.000000;0.328858
9744.000000;0.327793
9743.000000;0.326519
9742.000000;0.324933
9741.000000;0.323126
9740.000000;0.321234
9739.000000;0.319419
9738.000000;0.317884
9737.000000;0.316722
9736.000000;0.315755
9735.000000;0.314672
9734.000000;0.313343
9733.000000;0.311892
9732.000000;0.310443
9731.000000;0.308954
9730.000000;0.307333
9729.000000;0.305577
9728.000000;0.303735
9727.000000;0.301878
9726.000000;0.300159
9725.000000;0.298734
9724.000000;0.297548
9723.000000;0.296328
9722.000000;0.294912
9721.000000;0.293406
9720.000000;0.291905
9719.000000;0.290259
9718.000000;0.288334
9717.000000;0.286365
9716.000000;0.284772
9715.000000;0.283662
9714.000000;0.282727
9713.000000;0.281636
9712.000000;0.280324
9711.000000;0.278866
9710.000000;0.277277
9709.000000;0.275531
9708.000000;0.273664
9707.000000;0.271759
9706.000000;0.269882
9705.000000;0.268069
9704.000000;0.266321
9703.000000;0.264605
9702.000000;0.262903
9701.000000;0.261242
9700.000000;0.259641
9699.000000;0.258078
9698.000000;0.256569
9697.000000;0.255220
9696.000000;0.254052
9695.000000;0.252835
9694.000000;0.251271
9693.000000;0.249356
9692.000000;0.247372
9691.000000;0.245535
9690.000000;0.243799
9689.000000;0.242065
9688.000000;0.240376
9687.000000;0.238793
9686.000000;0.237219
9685.000000;0.235494
9684.000000;0.233623
9683.000000;0.231781
9682.000000;0.230116
9681.000000;0.228634
9680.000000;0.227238
9679.000000;0.225812
9678.000000;0.224271
9677.000000;0.222594
9676.000000;0.220813
9675.000000;0.218954
9674.000000;0.217028
9673.000000;0.215095
9672.000000;0.213277
9671.000000;0.211655
9670.000000;0.210158
9669.000000;0.208624
9668.000000;0.206938
9667.000000;0.205104
9666.000000;0.203191
9665.000000;0.201260
9664.000000;0.199364
9663.000000;0.197554
9662.000000;0.195864
9661.000000;0.194247
9660.000000;0.192581
9659.000000;0.190775
9658.000000;0.188922
9657.000000;0.187242
9656.000000;0.185809
9655.000000;0.184378
9654.000000;0.182618
9653.000000;0.180508
9652.000000;0.178380
9651.000000;0.176528
9650.000000;0.174904
9649.000000;0.173247
9648.000000;0.171375
9647.000000;0.169276
9646.000000;0.167021
9645.000000;0.164733
9644.000000;0.162590
9643.000000;0.160706
9642.000000;0.159012
9641.000000;0.157356
9640.000000;0.155692
9639.000000;0.154074
9638.000000;0.152455
9637.000000;0.150639
9636.000000;0.148490
9635.000000;0.146107
9634.000000;0.143714
9633.000000;0.141451
9632.000000;0.139321
9631.000000;0.137300
9630.000000;0.135402
9629.000000;0.133639
9628.000000;0.131967
9627.000000;0.130298
9626.000000;0.128543
9625.000000;0.126699
9624.000000;0.124889
9623.000000;0.123290
9622.000000;0.121939
9621.000000;0.120653
9620.000000;0.119171
9619.000000;0.117377
9618.000000;0.115330
9617.000000;0.113120
9616.000000;0.110778
9615.000000;0.108357
9614.000000;0.105974
9613.000000;0.103733
9612.000000;0.101640
9611.000000;0.099658
9610.000000;0.097780
9609.000000;0.095976
9608.000000;0.094141
9607.000000;0.092185
9606.000000;0.090172
9605.000000;0.088255
9604.000000;0.086494
9603.000000;0.084809
9602.000000;0.083110
9601.000000;0.081385
9600.000000;0.079608
9599.000000;0.077670
9598.000000;0.075477
9597.000000;0.073080
9596.000000;0.070627
9595.000000;0.068229
9594.000000;0.065926
9593.000000;0.063757
9592.000000;0.061769
9591.000000;0.059939
9590.000000;0.058145
9589.000000;0.056258
9588.000000;0.054234
9587.000000;0.052101
9586.000000;0.049875
9585.000000;0.047537
9584.000000;0.045140
9583.000000;0.042873
9582.000000;0.040929
9581.000000;0.039264
9580.000000;0.037560
9579.000000;0.035550
9578.000000;0.033352
9577.000000;0.031352
9576.000000;0.029728
9575.000000;0.028214
9574.000000;0.026391
9573.000000;0.024120
9572.000000;0.021608
9571.000000;0.019128
9570.000000;0.016826
9569.000000;0.014741
9568.000000;0.012835
9567.000000;0.010992
9566.000000;0.009087
9565.000000;0.007124
9564.000000;0.005229
9563.000000;0.003461
9562.000000;0.001704
9561.000000;-0.000213
9560.000000;-0.002321
9559.000000;-0.004505
9558.000000;-0.006660
9557.000000;-0.008790
9556.000000;-0.010982
9555.000000;-0.013287
9554.000000;-0.015625
9553.000000;-0.017799
9552.000000;-0.019650
9551.000000;-0.021227
9550.000000;-0.022767
9549.000000;-0.024474
9548.000000;-0.026338
9547.000000;-0.028235
9546.000000;-0.030161
9545.000000;-0.032256
9544.000000;-0.034557
9543.000000;-0.036833
9542.000000;-0.038762
9541.000000;-0.040269
9540.000000;-0.041622
9539.000000;-0.043201
9538.000000;-0.045217
9537.000000;-0.047628
9536.000000;-0.050219
9535.000000;-0.052697
9534.000000;-0.054802
9533.000000;-0.056470
9532.000000;-0.057917
9531.000000;-0.059497
9530.000000;-0.061433
9529.000000;-0.063670
9528.000000;-0.065963
9527.000000;-0.068073
9526.000000;-0.069902
9525.000000;-0.071517
9524.000000;-0.073071
9523.000000;-0.074643
9522.000000;-0.076166
9521.000000;-0.077522
9520.000000;-0.078724
9519.000000;-0.079935
9518.000000;-0.081299
9517.000000;-0.082796
9516.000000;-0.084299
9515.000000;-0.085745
9514.000000;-0.087237
9513.000000;-0.088976
9512.000000;-0.091055
9511.000000;-0.093266
9510.000000;-0.095179
9509.000000;-0.096516
9508.000000;-0.097481
9507.000000;-0.098602
9506.000000;-0.100184
9505.000000;-0.102023
9504.000000;-0.103715
9503.000000;-0.105125
9502.000000;-0.106431
9501.000000;-0.107823
9500.000000;-0.109327
9499.000000;-0.110900
9498.000000;-0.112495
9497.000000;-0.113978
9496.000000;-0.115134
9495.000000;-0.115925
9494.000000;-0.116659
9493.000000;-0.117767
9492.000000;-0.119393
9491.000000;-0.121258
9490.000000;-0.122963
9489.000000;-0.124320
9488.000000;-0.125403
9487.000000;-0.126356
9486.000000;-0.127255
9485.000000;-0.128111
9484.000000;-0.128925
9483.000000;-0.129703
9482.000000;-0.130486
9481.000000;-0.131351
9480.000000;-0.132324
9479.000000;-0.133276
9478.000000;-0.134009
9477.000000;-0.134525
9476.000000;-0.135145
9475.000000;-0.136234
9474.000000;-0.137795
9473.000000;-0.139434
9472.000000;-0.140724
9471.000000;-0.141544
9470.000000;-0.142074
9469.000000;-0.142565
9468.000000;-0.143159
9467.000000;-0.143819
9466.000000;-0.144379
9465.000000;-0.144680
9464.000000;-0.144735
9463.000000;-0.144746
9462.000000;-0.144895
9461.000000;-0.145168
9460.000000;-0.145393
9459.000000;-0.145459
9458.000000;-0.145433
9457.000000;-0.145493
9456.000000;-0.145757
9455.000000;-0.146183
9454.000000;-0.146609
9453.000000;-0.146903
9452.000000;-0.147075
9451.000000;-0.147251
9450.000000;-0.147545
9449.000000;-0.147949
9448.000000;-0.148305
9447.000000;-0.148365
9446.000000;-0.147940
9445.000000;-0.147091
9444.000000;-0.146153
9443.000000;-0.145487
9442.000000;-0.145179
9441.000000;-0.145050
9440.000000;-0.144934
9439.000000;-0.144834
9438.000000;-0.144787
9437.000000;-0.144701
9436.000000;-0.144438
9435.000000;-0.143985
9434.000000;-0.143450
9433.000000;-0.142916
9432.000000;-0.142397
9431.000000;-0.141903
9430.000000;-0.141456
9429.000000;-0.141018
9428.000000;-0.140521
9427.000000;-0.139995
9426.000000;-0.139609
9425.000000;-0.139471
9424.000000;-0.139423
9423.000000;-0.139124
9422.000000;-0.138386
9421.000000;-0.137361
9420.000000;-0.136333
9419.000000;-0.135376
9418.000000;-0.134361
9417.000000;-0.133283
9416.000000;-0.132396
9415.000000;-0.131920
9414.000000;-0.131706
9413.000000;-0.131352
9412.000000;-0.130620
9411.000000;-0.129603
9410.000000;-0.128551
9409.000000;-0.127639
9408.000000;-0.126878
9407.000000;-0.126073
9406.000000;-0.124893
9405.000000;-0.123191
9404.000000;-0.121337
9403.000000;-0.120032
9402.000000;-0.119610
9401.000000;-0.119630
9400.000000;-0.119286
9399.000000;-0.118160
9398.000000;-0.116498
9397.000000;-0.114845
9396.000000;-0.113560
9395.000000;-0.112633
9394.000000;-0.111807
9393.000000;-0.110809
9392.000000;-0.109533
9391.000000;-0.108069
9390.000000;-0.106583
9389.000000;-0.105206
9388.000000;-0.104016
9387.000000;-0.103020
9386.000000;-0.102081
9385.000000;-0.100953
9384.000000;-0.099497
9383.000000;-0.097834
9382.000000;-0.096226
9381.000000;-0.094859
9380.000000;-0.093784
9379.000000;-0.092985
9378.000000;-0.092347
9377.000000;-0.091595
9376.000000;-0.090447
9375.000000;-0.088908
9374.000000;-0.087316
9373.000000;-0.086002
9372.000000;-0.084939
9371.000000;-0.083801
9370.000000;-0.082334
9369.000000;-0.080612
9368.000000;-0.078912
9367.000000;-0.077394
9366.000000;-0.075972
9365.000000;-0.074492
9364.000000;-0.072987
9363.000000;-0.071652
9362.000000;-0.070602
9361.000000;-0.069710
9360.000000;-0.068730
9359.000000;-0.067491
9358.000000;-0.065949
9357.000000;-0.064143
9356.000000;-0.062182
9355.000000;-0.060248
9354.000000;-0.058489
9353.000000;-0.056928
9352.000000;-0.055496
9351.000000;-0.054146
9350.000000;-0.052880
9349.000000;-0.051677
9348.000000;-0.050481
9347.000000;-0.049248
9346.000000;-0.047954
9345.000000;-0.046583
9344.000000;-0.045149
9343.000000;-0.043740
9342.000000;-0.042446
9341.000000;-0.041232
9340.000000;-0.039951
9339.000000;-0.038511
9338.000000;-0.036976
9337.000000;-0.035471
9336.000000;-0.034050
9335.000000;-0.032691
9334.000000;-0.031384
9333.000000;-0.030128
9332.000000;-0.028840
9331.000000;-0.027386
9330.000000;-0.025762
9329.000000;-0.024225
9328.000000;-0.023112
9327.000000;-0.022452
9326.000000;-0.021808
9325.000000;-0.020627
9324.000000;-0.018755
9323.000000;-0.016571
9322.000000;-0.014617
9321.000000;-0.013148
9320.000000;-0.012056
9319.000000;-0.011084
9318.000000;-0.009997
9317.000000;-0.008632
9316.000000;-0.006984
9315.000000;-0.005263
9314.000000;-0.003773
9313.000000;-0.002632
9312.000000;-0.001676
9311.000000;-0.000648
9310.000000;0.000577
9309.000000;0.001958
9308.000000;0.003399
9307.000000;0.004810
9306.000000;0.006134
9305.000000;0.007406
9304.000000;0.008759
9303.000000;0.010285
9302.000000;0.011864
9301.000000;0.013248
9300.000000;0.014346
9299.000000;0.015344
9298.000000;0.016479
9297.000000;0.017761
9296.000000;0.019035
9295.000000;0.020278
9294.000000;0.021673
9293.000000;0.023324
9292.000000;0.025053
9291.000000;0.026585
9290.000000;0.027888
9289.000000;0.029161
9288.000000;0.030505
9287.000000;0.031763
9286.000000;0.032772
9285.000000;0.033641
9284.000000;0.034654
9283.000000;0.035920
9282.000000;0.037221
9281.000000;0.038268
9280.000000;0.039053
9279.000000;0.039894
9278.000000;0.041128
9277.000000;0.042780
9276.000000;0.044567
9275.000000;0.046212
9274.000000;0.047665
9273.000000;0.048973
9272.000000;0.050071
9271.000000;0.050862
9270.000000;0.051466
9269.000000;0.052204
9268.000000;0.053260
9267.000000;0.054489
9266.000000;0.055668
9265.000000;0.056841
9264.000000;0.058268
9263.000000;0.060076
9262.000000;0.062080
9261.000000;0.063945
9260.000000;0.065445
9259.000000;0.066544
9258.000000;0.067345
9257.000000;0.068003
9256.000000;0.068680
9255.000000;0.069512
9254.000000;0.070559
9253.000000;0.071741
9252.000000;0.072844
9251.000000;0.073695
9250.000000;0.074365
9249.000000;0.075135
9248.000000;0.076197
9247.000000;0.077458
9246.000000;0.078708
9245.000000;0.079882
9244.000000;0.081041
9243.000000;0.082152
9242.000000;0.083084
9241.000000;0.083837
9240.000000;0.084623
9239.000000;0.085602
9238.000000;0.086673
9237.000000;0.087628
9236.000000;0.088463
9235.000000;0.089388
9234.000000;0.090536
9233.000000;0.091803
9232.000000;0.093023
9231.000000;0.094200
9230.000000;0.095462
9229.000000;0.096806
9228.000000;0.098026
9227.000000;0.098921
9226.000000;0.099513
9225.000000;0.100025
9224.000000;0.100695
9223.000000;0.101666
9222.000000;0.102965
9221.000000;0.104478
9220.000000;0.105966
9219.000000;0.107195
9218.000000;0.108104
9217.000000;0.108800
9216.000000;0.109449
9215.000000;0.110208
9214.000000;0.111206
9213.000000;0.112428
9212.000000;0.113623
9211.000000;0.114469
9210.000000;0.114907
9209.000000;0.115204
9208.000000;0.115654
9207.000000;0.116316
9206.000000;0.117119
9205.000000;0.118069
9204.000000;0.119233
9203.000000;0.120590
9202.000000;0.122006
9201.000000;0.123309
9200.000000;0.124359
9199.000000;0.125129
9198.000000;0.125781
9197.000000;0.126542
9196.000000;0.127433
9195.000000;0.128240
9194.000000;0.128838
9193.000000;0.129411
9192.000000;0.130204
9191.000000;0.131181
9190.000000;0.132098
9189.000000;0.132827
9188.000000;0.133429
9187.000000;0.133980
9186.000000;0.134561
9185.000000;0.135360
9184.000000;0.136518
9183.000000;0.137845
9182.000000;0.138936
9181.000000;0.139658
9180.000000;0.140312
9179.000000;0.141212
9178.000000;0.142290
9177.000000;0.143256
9176.000000;0.143994
9175.000000;0.144635
9174.000000;0.145333
9173.000000;0.146132
9172.000000;0.146995
9171.000000;0.147829
9170.000000;0.148516
9169.000000;0.149034
9168.000000;0.149550
9167.000000;0.150257
9166.000000;0.151123
9165.000000;0.151910
9164.000000;0.152470
9163.000000;0.152939
9162.000000;0.153571
9161.000000;0.154437
9160.000000;0.155400
9159.000000;0.156345
9158.000000;0.157326
9157.000000;0.158410
9156.000000;0.159447
9155.000000;0.160168
9154.000000;0.160505
9153.000000;0.160700
9152.000000;0.161024
9151.000000;0.161507
9150.000000;0.162037
9149.000000;0.162640
9148.000000;0.163484
9147.000000;0.164639
9146.000000;0.165939
9145.000000;0.167080
9144.000000;0.167787
9143.000000;0.167978
9142.000000;0.167913
9141.000000;0.168131
9140.000000;0.169029
9139.000000;0.170429
9138.000000;0.171720
9137.000000;0.172477
9136.000000;0.172798
9135.000000;0.173016
9134.000000;0.173266
9133.000000;0.173501
9132.000000;0.173745
9131.000000;0.174135
9130.000000;0.174716
9129.000000;0.175396
9128.000000;0.176108
9127.000000;0.176902
9126.000000;0.177834
9125.000000;0.178799
9124.000000;0.179560
9123.000000;0.179948
9122.000000;0.180052
9121.000000;0.180183
9120.000000;0.180598
9119.000000;0.181286
9118.000000;0.182071
9117.000000;0.182874
9116.000000;0.183765
9115.000000;0.184753
9114.000000;0.185670
9113.000000;0.186330
9112.000000;0.186700
9111.000000;0.186861
9110.000000;0.186927
9109.000000;0.187069
9108.000000;0.187500
9107.000000;0.188291
9106.000000;0.189285
9105.000000;0.190308
9104.000000;0.191365
9103.000000;0.192499
9102.000000;0.193525
9101.000000;0.194141
9100.000000;0.194296
9099.000000;0.194286
9098.000000;0.194434
9097.000000;0.194816
9096.000000;0.195356
9095.000000;0.196015
9094.000000;0.196750
9093.000000;0.197407
9092.000000;0.197810
9091.000000;0.197987
9090.000000;0.198178
9089.000000;0.198604
9088.000000;0.199271
9087.000000;0.200018
9086.000000;0.200676
9085.000000;0.201162
9084.000000;0.201486
9083.000000;0.201727
9082.000000;0.201992
9081.000000;0.202350
9080.000000;0.202793
9079.000000;0.203264
9078.000000;0.203707
9077.000000;0.204091
9076.000000;0.204420
9075.000000;0.204763
9074.000000;0.205224
9073.000000;0.205834
9072.000000;0.206485
9071.000000;0.207045
9070.000000;0.207522
9069.000000;0.208015
9068.000000;0.208540
9067.000000;0.208997
9066.000000;0.209355
9065.000000;0.209730
