Criado como novo conjunto de dados;"0307_DANIEL.spp","24843.5 Secs"
cm-1;Abs
10000.000000;1.046990
9999.000000;1.046158
9998.000000;1.045328
9997.000000;1.044500
9996.000000;1.043673
9995.000000;1.042849
9994.000000;1.042024
9993.000000;1.041206
9992.000000;1.040378
9991.000000;1.039571
9990.000000;1.038731
9989.000000;1.038002
9988.000000;1.037120
9987.000000;1.035692
9986.000000;1.033948
9985.000000;1.032345
9984.000000;1.031125
9983.000000;1.030062
9982.000000;1.028874
9981.000000;1.027675
9980.000000;1.026880
9979.000000;1.026623
9978.000000;1.026423
9977.000000;1.025535
9976.000000;1.023660
9975.000000;1.021240
9974.000000;1.019029
9973.000000;1.017477
9972.000000;1.016534
9971.000000;1.015903
9970.000000;1.015300
9969.000000;1.014494
9968.000000;1.013354
9967.000000;1.011977
9966.000000;1.010631
9965.000000;1.009459
9964.000000;1.008342
9963.000000;1.007164
9962.000000;1.006010
9961.000000;1.004933
9960.000000;1.003691
9959.000000;1.002034
9958.000000;1.000193
9957.000000;0.998740
9956.000000;0.997915
9955.000000;0.997332
9954.000000;0.996434
9953.000000;0.994991
9952.000000;0.993106
9951.000000;0.991046
9950.000000;0.989218
9949.000000;0.988035
9948.000000;0.987511
9947.000000;0.987109
9946.000000;0.986189
9945.000000;0.984580
9944.000000;0.982623
9943.000000;0.980819
9942.000000;0.979548
9941.000000;0.978930
9940.000000;0.978667
9939.000000;0.978115
9938.000000;0.976764
9937.000000;0.974695
9936.000000;0.972463
9935.000000;0.970610
9934.000000;0.969390
9933.000000;0.968762
9932.000000;0.968351
9931.000000;0.967527
9930.000000;0.965896
9929.000000;0.963808
9928.000000;0.962077
9927.000000;0.961078
9926.000000;0.960338
9925.000000;0.959143
9924.000000;0.957355
9923.000000;0.955425
9922.000000;0.953778
9921.000000;0.952459
9920.000000;0.951272
9919.000000;0.950013
9918.000000;0.948501
9917.000000;0.946678
9916.000000;0.944799
9915.000000;0.943336
9914.000000;0.942526
9913.000000;0.942075
9912.000000;0.941473
9911.000000;0.940533
9910.000000;0.939434
9909.000000;0.938312
9908.000000;0.937090
9907.000000;0.935753
9906.000000;0.934496
9905.000000;0.933426
9904.000000;0.932316
9903.000000;0.930864
9902.000000;0.929074
9901.000000;0.927181
9900.000000;0.925331
9899.000000;0.923570
9898.000000;0.922035
9897.000000;0.920890
9896.000000;0.920052
9895.000000;0.919202
9894.000000;0.918094
9893.000000;0.916701
9892.000000;0.915105
9891.000000;0.913419
9890.000000;0.911818
9889.000000;0.910433
9888.000000;0.909196
9887.000000;0.907976
9886.000000;0.906818
9885.000000;0.905821
9884.000000;0.904837
9883.000000;0.903590
9882.000000;0.902118
9881.000000;0.900751
9880.000000;0.899557
9879.000000;0.898157
9878.000000;0.896253
9877.000000;0.894077
9876.000000;0.892098
9875.000000;0.890496
9874.000000;0.889130
9873.000000;0.887823
9872.000000;0.886497
9871.000000;0.885144
9870.000000;0.883852
9869.000000;0.882723
9868.000000;0.881656
9867.000000;0.880359
9866.000000;0.878706
9865.000000;0.876883
9864.000000;0.875071
9863.000000;0.873202
9862.000000;0.871224
9861.000000;0.869370
9860.000000;0.867918
9859.000000;0.866815
9858.000000;0.865777
9857.000000;0.864642
9856.000000;0.863421
9855.000000;0.862158
9854.000000;0.860968
9853.000000;0.860041
9852.000000;0.859372
9851.000000;0.858594
9850.000000;0.857369
9849.000000;0.855845
9848.000000;0.854426
9847.000000;0.853187
9846.000000;0.851844
9845.000000;0.850262
9844.000000;0.848638
9843.000000;0.847132
9842.000000;0.845604
9841.000000;0.843836
9840.000000;0.841819
9839.000000;0.839740
9838.000000;0.837832
9837.000000;0.836269
9836.000000;0.835046
9835.000000;0.833916
9834.000000;0.832558
9833.000000;0.830842
9832.000000;0.828857
9831.000000;0.826748
9830.000000;0.824693
9829.000000;0.822965
9828.000000;0.821757
9827.000000;0.820952
9826.000000;0.820218
9825.000000;0.819354
9824.000000;0.818321
9823.000000;0.816947
9822.000000;0.814933
9821.000000;0.812309
9820.000000;0.809630
9819.000000;0.807491
9818.000000;0.805969
9817.000000;0.804710
9816.000000;0.803455
9815.000000;0.802294
9814.000000;0.801391
9813.000000;0.800620
9812.000000;0.799596
9811.000000;0.798041
9810.000000;0.796040
9809.000000;0.793912
9808.000000;0.791875
9807.000000;0.789936
9806.000000;0.788078
9805.000000;0.786365
9804.000000;0.784811
9803.000000;0.783272
9802.000000;0.781627
9801.000000;0.779954
9800.000000;0.778411
9799.000000;0.777029
9798.000000;0.775748
9797.000000;0.774557
9796.000000;0.773400
9795.000000;0.772044
9794.000000;0.770281
9793.000000;0.768243
9792.000000;0.766326
9791.000000;0.764780
9790.000000;0.763552
9789.000000;0.762440
9788.000000;0.761184
9787.000000;0.759450
9786.000000;0.757063
9785.000000;0.754333
9784.000000;0.751913
9783.000000;0.750181
9782.000000;0.748945
9781.000000;0.747791
9780.000000;0.746510
9779.000000;0.745081
9778.000000;0.743481
9777.000000;0.741733
9776.000000;0.740006
9775.000000;0.738507
9774.000000;0.737296
9773.000000;0.736295
9772.000000;0.735313
9771.000000;0.733998
9770.000000;0.731991
9769.000000;0.729346
9768.000000;0.726665
9767.000000;0.724576
9766.000000;0.723144
9765.000000;0.721927
9764.000000;0.720539
9763.000000;0.718923
9762.000000;0.717152
9761.000000;0.715250
9760.000000;0.713291
9759.000000;0.711431
9758.000000;0.709698
9757.000000;0.707895
9756.000000;0.705869
9755.000000;0.703787
9754.000000;0.701999
9753.000000;0.700637
9752.000000;0.699443
9751.000000;0.698025
9750.000000;0.696229
9749.000000;0.694252
9748.000000;0.692409
9747.000000;0.690810
9746.000000;0.689235
9745.000000;0.687373
9744.000000;0.685184
9743.000000;0.682964
9742.000000;0.681010
9741.000000;0.679257
9740.000000;0.677354
9739.000000;0.675097
9738.000000;0.672694
9737.000000;0.670565
9736.000000;0.668928
9735.000000;0.667613
9734.000000;0.666246
9733.000000;0.664554
9732.000000;0.662561
9731.000000;0.660529
9730.000000;0.658705
9729.000000;0.657082
9728.000000;0.655430
9727.000000;0.653572
9726.000000;0.651571
9725.000000;0.649589
9724.000000;0.647643
9723.000000;0.645653
9722.000000;0.643652
9721.000000;0.641788
9720.000000;0.640086
9719.000000;0.638385
9718.000000;0.636594
9717.000000;0.634857
9716.000000;0.633337
9715.000000;0.631897
9714.000000;0.630176
9713.000000;0.628000
9712.000000;0.625607
9711.000000;0.623416
9710.000000;0.621619
9709.000000;0.620077
9708.000000;0.618588
9707.000000;0.617154
9706.000000;0.615885
9705.000000;0.614648
9704.000000;0.613006
9703.000000;0.610631
9702.000000;0.607738
9701.000000;0.604942
9700.000000;0.602696
9699.000000;0.600955
9698.000000;0.599339
9697.000000;0.597493
9696.000000;0.595297
9695.000000;0.592922
9694.000000;0.590734
9693.000000;0.588975
9692.000000;0.587498
9691.000000;0.585923
9690.000000;0.584118
9689.000000;0.582310
9688.000000;0.580675
9687.000000;0.579032
9686.000000;0.577108
9685.000000;0.574902
9684.000000;0.572565
9683.000000;0.570111
9682.000000;0.567514
9681.000000;0.565009
9680.000000;0.562975
9679.000000;0.561473
9678.000000;0.560118
9677.000000;0.558452
9676.000000;0.556312
9675.000000;0.553819
9674.000000;0.551200
9673.000000;0.548702
9672.000000;0.546498
9671.000000;0.544548
9670.000000;0.542632
9669.000000;0.540588
9668.000000;0.538469
9667.000000;0.536405
9666.000000;0.534410
9665.000000;0.532394
9664.000000;0.530282
9663.000000;0.528069
9662.000000;0.525799
9661.000000;0.523594
9660.000000;0.521628
9659.000000;0.519978
9658.000000;0.518454
9657.000000;0.516677
9656.000000;0.514391
9655.000000;0.511747
9654.000000;0.509188
9653.000000;0.507002
9652.000000;0.505024
9651.000000;0.502861
9650.000000;0.500396
9649.000000;0.497948
9648.000000;0.495878
9647.000000;0.494182
9646.000000;0.492589
9645.000000;0.490926
9644.000000;0.489207
9643.000000;0.487412
9642.000000;0.485391
9641.000000;0.483046
9640.000000;0.480479
9639.000000;0.477870
9638.000000;0.475284
9637.000000;0.472657
9636.000000;0.469950
9635.000000;0.467301
9634.000000;0.464992
9633.000000;0.463203
9632.000000;0.461737
9631.000000;0.460103
9630.000000;0.457997
9629.000000;0.455644
9628.000000;0.453482
9627.000000;0.451533
9626.000000;0.449352
9625.000000;0.446660
9624.000000;0.443814
9623.000000;0.441425
9622.000000;0.439624
9621.000000;0.437909
9620.000000;0.435695
9619.000000;0.432877
9618.000000;0.429823
9617.000000;0.427000
9616.000000;0.424658
9615.000000;0.422755
9614.000000;0.421040
9613.000000;0.419258
9612.000000;0.417350
9611.000000;0.415453
9610.000000;0.413639
9609.000000;0.411690
9608.000000;0.409273
9607.000000;0.406343
9606.000000;0.403278
9605.000000;0.400541
9604.000000;0.398280
9603.000000;0.396328
9602.000000;0.394457
9601.000000;0.392508
9600.000000;0.390356
9599.000000;0.387951
9598.000000;0.385425
9597.000000;0.383001
9596.000000;0.380727
9595.000000;0.378441
9594.000000;0.376052
9593.000000;0.373699
9592.000000;0.371511
9591.000000;0.369326
9590.000000;0.366854
9589.000000;0.364093
9588.000000;0.361411
9587.000000;0.359175
9586.000000;0.357373
9585.000000;0.355650
9584.000000;0.353674
9583.000000;0.351404
9582.000000;0.349025
9581.000000;0.346672
9580.000000;0.344292
9579.000000;0.341792
9578.000000;0.339230
9577.000000;0.336748
9576.000000;0.334358
9575.000000;0.331947
9574.000000;0.329471
9573.000000;0.327011
9572.000000;0.324596
9571.000000;0.322147
9570.000000;0.319654
9569.000000;0.317241
9568.000000;0.314949
9567.000000;0.312620
9566.000000;0.310163
9565.000000;0.307778
9564.000000;0.305721
9563.000000;0.303922
9562.000000;0.302031
9561.000000;0.299807
9560.000000;0.297292
9559.000000;0.294676
9558.000000;0.292177
9557.000000;0.290011
9556.000000;0.288219
9555.000000;0.286487
9554.000000;0.284361
9553.000000;0.281731
9552.000000;0.278939
9551.000000;0.276356
9550.000000;0.274024
9549.000000;0.271788
9548.000000;0.269577
9547.000000;0.267398
9546.000000;0.265187
9545.000000;0.262851
9544.000000;0.260421
9543.000000;0.258040
9542.000000;0.255807
9541.000000;0.253700
9540.000000;0.251633
9539.000000;0.249497
9538.000000;0.247195
9537.000000;0.244733
9536.000000;0.242288
9535.000000;0.240095
9534.000000;0.238187
9533.000000;0.236301
9532.000000;0.234100
9531.000000;0.231542
9530.000000;0.228978
9529.000000;0.226831
9528.000000;0.225155
9527.000000;0.223559
9526.000000;0.221630
9525.000000;0.219377
9524.000000;0.217152
9523.000000;0.215180
9522.000000;0.213305
9521.000000;0.211245
9520.000000;0.208971
9519.000000;0.206726
9518.000000;0.204744
9517.000000;0.203052
9516.000000;0.201511
9515.000000;0.199956
9514.000000;0.198262
9513.000000;0.196362
9512.000000;0.194268
9511.000000;0.192110
9510.000000;0.190095
9509.000000;0.188394
9508.000000;0.186999
9507.000000;0.185667
9506.000000;0.184051
9505.000000;0.181943
9504.000000;0.179451
9503.000000;0.176948
9502.000000;0.174836
9501.000000;0.173285
9500.000000;0.172130
9499.000000;0.171005
9498.000000;0.169623
9497.000000;0.167943
9496.000000;0.166107
9495.000000;0.164262
9494.000000;0.162473
9493.000000;0.160792
9492.000000;0.159300
9491.000000;0.158021
9490.000000;0.156829
9489.000000;0.155520
9488.000000;0.154000
9487.000000;0.152397
9486.000000;0.150931
9485.000000;0.149717
9484.000000;0.148680
9483.000000;0.147655
9482.000000;0.146530
9481.000000;0.145315
9480.000000;0.144130
9479.000000;0.143144
9478.000000;0.142445
9477.000000;0.141891
9476.000000;0.141149
9475.000000;0.139964
9474.000000;0.138419
9473.000000;0.136865
9472.000000;0.135597
9471.000000;0.134677
9470.000000;0.134032
9469.000000;0.133558
9468.000000;0.133069
9467.000000;0.132261
9466.000000;0.130958
9465.000000;0.129386
9464.000000;0.128078
9463.000000;0.127419
9462.000000;0.127297
9461.000000;0.127234
9460.000000;0.126815
9459.000000;0.125991
9458.000000;0.125029
9457.000000;0.124226
9456.000000;0.123703
9455.000000;0.123406
9454.000000;0.123229
9453.000000;0.123088
9452.000000;0.122901
9451.000000;0.122576
9450.000000;0.122073
9449.000000;0.121484
9448.000000;0.121011
9447.000000;0.120823
9446.000000;0.120900
9445.000000;0.121033
9444.000000;0.121005
9443.000000;0.120775
9442.000000;0.120481
9441.000000;0.120268
9440.000000;0.120182
9439.000000;0.120220
9438.000000;0.120408
9437.000000;0.120742
9436.000000;0.121110
9435.000000;0.121348
9434.000000;0.121378
9433.000000;0.121239
9432.000000;0.121028
9431.000000;0.120880
9430.000000;0.120968
9429.000000;0.121410
9428.000000;0.122141
9427.000000;0.122944
9426.000000;0.123626
9425.000000;0.124119
9424.000000;0.124436
9423.000000;0.124608
9422.000000;0.124703
9421.000000;0.124808
9420.000000;0.125002
9419.000000;0.125369
9418.000000;0.126035
9417.000000;0.127057
9416.000000;0.128276
9415.000000;0.129381
9414.000000;0.130164
9413.000000;0.130679
9412.000000;0.131098
9411.000000;0.131520
9410.000000;0.131946
9409.000000;0.132358
9408.000000;0.132741
9407.000000;0.133103
9406.000000;0.133535
9405.000000;0.134173
9404.000000;0.135024
9403.000000;0.135897
9402.000000;0.136601
9401.000000;0.137191
9400.000000;0.137914
9399.000000;0.138926
9398.000000;0.140138
9397.000000;0.141324
9396.000000;0.142314
9395.000000;0.143068
9394.000000;0.143641
9393.000000;0.144138
9392.000000;0.144695
9391.000000;0.145434
9390.000000;0.146407
9389.000000;0.147544
9388.000000;0.148692
9387.000000;0.149755
9386.000000;0.150785
9385.000000;0.151915
9384.000000;0.153183
9383.000000;0.154486
9382.000000;0.155711
9381.000000;0.156855
9380.000000;0.157979
9379.000000;0.159117
9378.000000;0.160256
9377.000000;0.161372
9376.000000;0.162399
9375.000000;0.163215
9374.000000;0.163758
9373.000000;0.164191
9372.000000;0.164885
9371.000000;0.166155
9370.000000;0.167974
9369.000000;0.169968
9368.000000;0.171716
9367.000000;0.173071
9366.000000;0.174165
9365.000000;0.175175
9364.000000;0.176151
9363.000000;0.177107
9362.000000;0.178124
9361.000000;0.179287
9360.000000;0.180563
9359.000000;0.181860
9358.000000;0.183160
9357.000000;0.184472
9356.000000;0.185697
9355.000000;0.186681
9354.000000;0.187429
9353.000000;0.188143
9352.000000;0.189005
9351.000000;0.190028
9350.000000;0.191144
9349.000000;0.192305
9348.000000;0.193459
9347.000000;0.194558
9346.000000;0.195678
9345.000000;0.196994
9344.000000;0.198516
9343.000000;0.199955
9342.000000;0.201026
9341.000000;0.201851
9340.000000;0.202858
9339.000000;0.204273
9338.000000;0.205875
9337.000000;0.207283
9336.000000;0.208367
9335.000000;0.209289
9334.000000;0.210259
9333.000000;0.211364
9332.000000;0.212570
9331.000000;0.213776
9330.000000;0.214860
9329.000000;0.215782
9328.000000;0.216674
9327.000000;0.217758
9326.000000;0.219131
9325.000000;0.220651
9324.000000;0.222079
9323.000000;0.223294
9322.000000;0.224346
9321.000000;0.225347
9320.000000;0.226372
9319.000000;0.227452
9318.000000;0.228587
9317.000000;0.229747
9316.000000;0.230913
9315.000000;0.232120
9314.000000;0.233427
9313.000000;0.234813
9312.000000;0.236153
9311.000000;0.237327
9310.000000;0.238336
9309.000000;0.239277
9308.000000;0.240260
9307.000000;0.241387
9306.000000;0.242727
9305.000000;0.244254
9304.000000;0.245795
9303.000000;0.247123
9302.000000;0.248085
9301.000000;0.248683
9300.000000;0.249069
9299.000000;0.249529
9298.000000;0.250348
9297.000000;0.251598
9296.000000;0.253063
9295.000000;0.254450
9294.000000;0.255649
9293.000000;0.256730
9292.000000;0.257747
9291.000000;0.258667
9290.000000;0.259486
9289.000000;0.260282
9288.000000;0.261128
9287.000000;0.262035
9286.000000;0.262997
9285.000000;0.264042
9284.000000;0.265216
9283.000000;0.266557
9282.000000;0.268071
9281.000000;0.269672
9280.000000;0.271206
9279.000000;0.272580
9278.000000;0.273849
9277.000000;0.275072
9276.000000;0.276133
9275.000000;0.276849
9274.000000;0.277243
9273.000000;0.277586
9272.000000;0.278137
9271.000000;0.278968
9270.000000;0.280017
9269.000000;0.281183
9268.000000;0.282325
9267.000000;0.283326
9266.000000;0.284236
9265.000000;0.285225
9264.000000;0.286359
9263.000000;0.287503
9262.000000;0.288525
9261.000000;0.289441
9260.000000;0.290291
9259.000000;0.291024
9258.000000;0.291635
9257.000000;0.292309
9256.000000;0.293256
9255.000000;0.294440
9254.000000;0.295611
9253.000000;0.296587
9252.000000;0.297396
9251.000000;0.298168
9250.000000;0.298995
9249.000000;0.299916
9248.000000;0.300912
9247.000000;0.301895
9246.000000;0.302781
9245.000000;0.303598
9244.000000;0.304466
9243.000000;0.305448
9242.000000;0.306462
9241.000000;0.307383
9240.000000;0.308198
9239.000000;0.309038
9238.000000;0.310052
9237.000000;0.311263
9236.000000;0.312527
9235.000000;0.313619
9234.000000;0.314359
9233.000000;0.314697
9232.000000;0.314775
9231.000000;0.314929
9230.000000;0.315518
9229.000000;0.316633
9228.000000;0.317967
9227.000000;0.319081
9226.000000;0.319810
9225.000000;0.320346
9224.000000;0.320932
9223.000000;0.321632
9222.000000;0.322411
9221.000000;0.323280
9220.000000;0.324271
9219.000000;0.325332
9218.000000;0.326367
9217.000000;0.327308
9216.000000;0.328093
9215.000000;0.328651
9214.000000;0.329032
9213.000000;0.329467
9212.000000;0.330179
9211.000000;0.331133
9210.000000;0.332075
9209.000000;0.332830
9208.000000;0.333478
9207.000000;0.334206
9206.000000;0.335074
9205.000000;0.335956
9204.000000;0.336684
9203.000000;0.337209
9202.000000;0.337622
9201.000000;0.338061
9200.000000;0.338621
9199.000000;0.339362
9198.000000;0.340331
9197.000000;0.341473
9196.000000;0.342540
9195.000000;0.343244
9194.000000;0.343559
9193.000000;0.343790
9192.000000;0.344266
9191.000000;0.345014
9190.000000;0.345814
9189.000000;0.346501
9188.000000;0.347095
9187.000000;0.347679
9186.000000;0.348285
9185.000000;0.348937
9184.000000;0.349703
9183.000000;0.350627
9182.000000;0.351626
9181.000000;0.352535
9180.000000;0.353248
9179.000000;0.353795
9178.000000;0.354263
9177.000000;0.354669
9176.000000;0.354977
9175.000000;0.355255
9174.000000;0.355723
9173.000000;0.356526
9172.000000;0.357492
9171.000000;0.358256
9170.000000;0.358661
9169.000000;0.358937
9168.000000;0.359416
9167.000000;0.360197
9166.000000;0.361142
9165.000000;0.362074
9164.000000;0.362880
9163.000000;0.363480
9162.000000;0.363882
9161.000000;0.364244
9160.000000;0.364762
9159.000000;0.365453
9158.000000;0.366137
9157.000000;0.366658
9156.000000;0.367050
9155.000000;0.367444
9154.000000;0.367889
9153.000000;0.368313
9152.000000;0.368666
9151.000000;0.369030
9150.000000;0.369563
9149.000000;0.370316
9148.000000;0.371153
9147.000000;0.371867
9146.000000;0.372375
9145.000000;0.372764
9144.000000;0.373160
9143.000000;0.373649
9142.000000;0.374289
9141.000000;0.375097
9140.000000;0.375950
9139.000000;0.376627
9138.000000;0.377011
9137.000000;0.377207
9136.000000;0.377380
9135.000000;0.377569
9134.000000;0.377764
9133.000000;0.378068
9132.000000;0.378628
9131.000000;0.379379
9130.000000;0.380024
9129.000000;0.380331
9128.000000;0.380395
9127.000000;0.380545
9126.000000;0.381023
9125.000000;0.381761
9124.000000;0.382468
9123.000000;0.382900
9122.000000;0.383081
9121.000000;0.383253
9120.000000;0.383634
9119.000000;0.384247
9118.000000;0.384982
9117.000000;0.385743
9116.000000;0.386492
9115.000000;0.387191
9114.000000;0.387790
9113.000000;0.388267
9112.000000;0.388614
9111.000000;0.388827
9110.000000;0.388943
9109.000000;0.389088
9108.000000;0.389409
9107.000000;0.389949
9106.000000;0.390613
9105.000000;0.391256
9104.000000;0.391794
9103.000000;0.392236
9102.000000;0.392648
9101.000000;0.393078
9100.000000;0.393517
9099.000000;0.393946
9098.000000;0.394396
9097.000000;0.394887
9096.000000;0.395329
9095.000000;0.395584
9094.000000;0.395677
9093.000000;0.395817
9092.000000;0.396138
9091.000000;0.396518
9090.000000;0.396745
9089.000000;0.396803
9088.000000;0.396863
9087.000000;0.397038
9086.000000;0.397285
9085.000000;0.397522
9084.000000;0.397728
9083.000000;0.397936
9082.000000;0.398208
9081.000000;0.398621
9080.000000;0.399179
9079.000000;0.399769
9078.000000;0.400290
9077.000000;0.400800
9076.000000;0.401404
9075.000000;0.402023
9074.000000;0.402427
9073.000000;0.402519
9072.000000;0.402469
9071.000000;0.402502
9070.000000;0.402683
9069.000000;0.402948
9068.000000;0.403233
9067.000000;0.403498
9066.000000;0.403712
9065.000000;0.403900
9064.000000;0.404165
9063.000000;0.404570
9062.000000;0.405050
9061.000000;0.405478
9060.000000;0.405795
9059.000000;0.406032
9058.000000;0.406260
9057.000000;0.406560
9056.000000;0.406966
9055.000000;0.407381
9054.000000;0.407611
9053.000000;0.407567
