Criado como novo conjunto de dados;"0307_DANIEL.spp","10982.3 Secs"
cm-1;Abs
10000.000000;0.687901
9999.000000;0.686872
9998.000000;0.685846
9997.000000;0.684821
9996.000000;0.683799
9995.000000;0.682781
9994.000000;0.681763
9993.000000;0.680750
9992.000000;0.679734
9991.000000;0.678730
9990.000000;0.677710
9989.000000;0.676756
9988.000000;0.675770
9987.000000;0.674560
9986.000000;0.673168
9985.000000;0.671760
9984.000000;0.670550
9983.000000;0.669605
9982.000000;0.668818
9981.000000;0.668033
9980.000000;0.667152
9979.000000;0.666080
9978.000000;0.664733
9977.000000;0.663217
9976.000000;0.661848
9975.000000;0.660788
9974.000000;0.659798
9973.000000;0.658552
9972.000000;0.657113
9971.000000;0.655842
9970.000000;0.654878
9969.000000;0.654001
9968.000000;0.652991
9967.000000;0.651851
9966.000000;0.650627
9965.000000;0.649295
9964.000000;0.647931
9963.000000;0.646716
9962.000000;0.645648
9961.000000;0.644459
9960.000000;0.642981
9959.000000;0.641429
9958.000000;0.640176
9957.000000;0.639350
9956.000000;0.638774
9955.000000;0.638171
9954.000000;0.637325
9953.000000;0.636167
9952.000000;0.634815
9951.000000;0.633448
9950.000000;0.632062
9949.000000;0.630462
9948.000000;0.628613
9947.000000;0.626830
9946.000000;0.625480
9945.000000;0.624550
9944.000000;0.623648
9943.000000;0.622424
9942.000000;0.620890
9941.000000;0.619356
9940.000000;0.618124
9939.000000;0.617246
9938.000000;0.616499
9937.000000;0.615565
9936.000000;0.614277
9935.000000;0.612713
9934.000000;0.611097
9933.000000;0.609626
9932.000000;0.608373
9931.000000;0.607255
9930.000000;0.606116
9929.000000;0.604874
9928.000000;0.603601
9927.000000;0.602426
9926.000000;0.601395
9925.000000;0.600464
9924.000000;0.599554
9923.000000;0.598515
9922.000000;0.597167
9921.000000;0.595488
9920.000000;0.593743
9919.000000;0.592254
9918.000000;0.591085
9917.000000;0.590053
9916.000000;0.589012
9915.000000;0.587950
9914.000000;0.586843
9913.000000;0.585594
9912.000000;0.584172
9911.000000;0.582678
9910.000000;0.581219
9909.000000;0.579827
9908.000000;0.578527
9907.000000;0.577343
9906.000000;0.576218
9905.000000;0.575040
9904.000000;0.573801
9903.000000;0.572606
9902.000000;0.571493
9901.000000;0.570359
9900.000000;0.569119
9899.000000;0.567846
9898.000000;0.566652
9897.000000;0.565499
9896.000000;0.564197
9895.000000;0.562599
9894.000000;0.560776
9893.000000;0.558971
9892.000000;0.557388
9891.000000;0.556025
9890.000000;0.554754
9889.000000;0.553532
9888.000000;0.552426
9887.000000;0.551411
9886.000000;0.550325
9885.000000;0.549077
9884.000000;0.547776
9883.000000;0.546527
9882.000000;0.545246
9881.000000;0.543816
9880.000000;0.542278
9879.000000;0.540730
9878.000000;0.539157
9877.000000;0.537556
9876.000000;0.536070
9875.000000;0.534784
9874.000000;0.533507
9873.000000;0.532011
9872.000000;0.530409
9871.000000;0.529013
9870.000000;0.527875
9869.000000;0.526756
9868.000000;0.525500
9867.000000;0.524164
9866.000000;0.522784
9865.000000;0.521301
9864.000000;0.519788
9863.000000;0.518448
9862.000000;0.517305
9861.000000;0.516120
9860.000000;0.514713
9859.000000;0.513159
9858.000000;0.511587
9857.000000;0.510012
9856.000000;0.508481
9855.000000;0.507150
9854.000000;0.506068
9853.000000;0.505040
9852.000000;0.503818
9851.000000;0.502341
9850.000000;0.500716
9849.000000;0.499085
9848.000000;0.497581
9847.000000;0.496254
9846.000000;0.494970
9845.000000;0.493502
9844.000000;0.491812
9843.000000;0.490108
9842.000000;0.488565
9841.000000;0.487162
9840.000000;0.485846
9839.000000;0.484682
9838.000000;0.483704
9837.000000;0.482760
9836.000000;0.481625
9835.000000;0.480203
9834.000000;0.478526
9833.000000;0.476670
9832.000000;0.474751
9831.000000;0.472916
9830.000000;0.471226
9829.000000;0.469617
9828.000000;0.468036
9827.000000;0.466536
9826.000000;0.465174
9825.000000;0.463891
9824.000000;0.462568
9823.000000;0.461148
9822.000000;0.459650
9821.000000;0.458122
9820.000000;0.456605
9819.000000;0.455096
9818.000000;0.453548
9817.000000;0.451958
9816.000000;0.450409
9815.000000;0.448942
9814.000000;0.447445
9813.000000;0.445806
9812.000000;0.444147
9811.000000;0.442706
9810.000000;0.441483
9809.000000;0.440183
9808.000000;0.438562
9807.000000;0.436677
9806.000000;0.434745
9805.000000;0.432923
9804.000000;0.431294
9803.000000;0.429902
9802.000000;0.428680
9801.000000;0.427459
9800.000000;0.426141
9799.000000;0.424787
9798.000000;0.423469
9797.000000;0.422127
9796.000000;0.420647
9795.000000;0.418989
9794.000000;0.417202
9793.000000;0.415371
9792.000000;0.413591
9791.000000;0.411898
9790.000000;0.410211
9789.000000;0.408446
9788.000000;0.406682
9787.000000;0.405074
9786.000000;0.403583
9785.000000;0.401986
9784.000000;0.400203
9783.000000;0.398433
9782.000000;0.396872
9781.000000;0.395447
9780.000000;0.393967
9779.000000;0.392407
9778.000000;0.390867
9777.000000;0.389359
9776.000000;0.387784
9775.000000;0.386124
9774.000000;0.384483
9773.000000;0.382940
9772.000000;0.381462
9771.000000;0.379997
9770.000000;0.378542
9769.000000;0.377084
9768.000000;0.375519
9767.000000;0.373732
9766.000000;0.371762
9765.000000;0.369837
9764.000000;0.368148
9763.000000;0.366608
9762.000000;0.364928
9761.000000;0.362951
9760.000000;0.360833
9759.000000;0.358841
9758.000000;0.357077
9757.000000;0.355491
9756.000000;0.354042
9755.000000;0.352692
9754.000000;0.351302
9753.000000;0.349715
9752.000000;0.347930
9751.000000;0.346085
9750.000000;0.344273
9749.000000;0.342517
9748.000000;0.340872
9747.000000;0.339379
9746.000000;0.337903
9745.000000;0.336201
9744.000000;0.334214
9743.000000;0.332154
9742.000000;0.330250
9741.000000;0.328510
9740.000000;0.326795
9739.000000;0.325014
9738.000000;0.323196
9737.000000;0.321427
9736.000000;0.319765
9735.000000;0.318165
9734.000000;0.316491
9733.000000;0.314661
9732.000000;0.312754
9731.000000;0.310913
9730.000000;0.309183
9729.000000;0.307528
9728.000000;0.305942
9727.000000;0.304423
9726.000000;0.302852
9725.000000;0.301067
9724.000000;0.299048
9723.000000;0.296933
9722.000000;0.294842
9721.000000;0.292810
9720.000000;0.290868
9719.000000;0.289034
9718.000000;0.287238
9717.000000;0.285397
9716.000000;0.283555
9715.000000;0.281820
9714.000000;0.280172
9713.000000;0.278486
9712.000000;0.276740
9711.000000;0.275030
9710.000000;0.273367
9709.000000;0.271644
9708.000000;0.269814
9707.000000;0.267950
9706.000000;0.266053
9705.000000;0.263995
9704.000000;0.261728
9703.000000;0.259423
9702.000000;0.257286
9701.000000;0.255346
9700.000000;0.253515
9699.000000;0.251747
9698.000000;0.250048
9697.000000;0.248371
9696.000000;0.246594
9695.000000;0.244614
9694.000000;0.242442
9693.000000;0.240227
9692.000000;0.238163
9691.000000;0.236321
9690.000000;0.234589
9689.000000;0.232827
9688.000000;0.231014
9687.000000;0.229188
9686.000000;0.227304
9685.000000;0.225318
9684.000000;0.223331
9683.000000;0.221497
9682.000000;0.219780
9681.000000;0.217957
9680.000000;0.215897
9679.000000;0.213700
9678.000000;0.211561
9677.000000;0.209608
9676.000000;0.207831
9675.000000;0.206061
9674.000000;0.204027
9673.000000;0.201598
9672.000000;0.198973
9671.000000;0.196490
9670.000000;0.194286
9669.000000;0.192275
9668.000000;0.190408
9667.000000;0.188699
9666.000000;0.187019
9665.000000;0.185126
9664.000000;0.182999
9663.000000;0.180916
9662.000000;0.179072
9661.000000;0.177309
9660.000000;0.175348
9659.000000;0.173132
9658.000000;0.170818
9657.000000;0.168557
9656.000000;0.166407
9655.000000;0.164383
9654.000000;0.162452
9653.000000;0.160532
9652.000000;0.158585
9651.000000;0.156647
9650.000000;0.154720
9649.000000;0.152702
9648.000000;0.150491
9647.000000;0.148099
9646.000000;0.145638
9645.000000;0.143259
9644.000000;0.141105
9643.000000;0.139216
9642.000000;0.137415
9641.000000;0.135410
9640.000000;0.133078
9639.000000;0.130579
9638.000000;0.128153
9637.000000;0.125889
9636.000000;0.123720
9635.000000;0.121554
9634.000000;0.119346
9633.000000;0.117121
9632.000000;0.114950
9631.000000;0.112863
9630.000000;0.110785
9629.000000;0.108629
9628.000000;0.106447
9627.000000;0.104366
9626.000000;0.102394
9625.000000;0.100423
9624.000000;0.098419
9623.000000;0.096436
9622.000000;0.094415
9621.000000;0.092179
9620.000000;0.089716
9619.000000;0.087293
9618.000000;0.085146
9617.000000;0.083193
9616.000000;0.081158
9615.000000;0.078890
9614.000000;0.076459
9613.000000;0.073999
9612.000000;0.071577
9611.000000;0.069187
9610.000000;0.066778
9609.000000;0.064340
9608.000000;0.061985
9607.000000;0.059885
9606.000000;0.058063
9605.000000;0.056312
9604.000000;0.054362
9603.000000;0.052084
9602.000000;0.049504
9601.000000;0.046755
9600.000000;0.044057
9599.000000;0.041635
9598.000000;0.039514
9597.000000;0.037464
9596.000000;0.035258
9595.000000;0.032933
9594.000000;0.030713
9593.000000;0.028700
9592.000000;0.026746
9591.000000;0.024642
9590.000000;0.022324
9589.000000;0.019881
9588.000000;0.017429
9587.000000;0.015037
9586.000000;0.012744
9585.000000;0.010598
9584.000000;0.008606
9583.000000;0.006645
9582.000000;0.004493
9581.000000;0.002028
9580.000000;-0.000610
9579.000000;-0.003139
9578.000000;-0.005436
9577.000000;-0.007652
9576.000000;-0.010014
9575.000000;-0.012568
9574.000000;-0.015155
9573.000000;-0.017598
9572.000000;-0.019870
9571.000000;-0.022081
9570.000000;-0.024340
9569.000000;-0.026662
9568.000000;-0.029010
9567.000000;-0.031375
9566.000000;-0.033755
9565.000000;-0.036058
9564.000000;-0.038163
9563.000000;-0.040125
9562.000000;-0.042212
9561.000000;-0.044631
9560.000000;-0.047274
9559.000000;-0.049816
9558.000000;-0.052038
9557.000000;-0.053973
9556.000000;-0.055809
9555.000000;-0.057763
9554.000000;-0.059994
9553.000000;-0.062492
9552.000000;-0.065050
9551.000000;-0.067443
9550.000000;-0.069646
9549.000000;-0.071796
9548.000000;-0.073989
9547.000000;-0.076217
9546.000000;-0.078462
9545.000000;-0.080731
9544.000000;-0.082988
9543.000000;-0.085169
9542.000000;-0.087258
9541.000000;-0.089282
9540.000000;-0.091256
9539.000000;-0.093227
9538.000000;-0.095327
9537.000000;-0.097657
9536.000000;-0.100137
9535.000000;-0.102576
9534.000000;-0.104863
9533.000000;-0.106977
9532.000000;-0.108877
9531.000000;-0.110571
9530.000000;-0.112264
9529.000000;-0.114228
9528.000000;-0.116473
9527.000000;-0.118720
9526.000000;-0.120752
9525.000000;-0.122644
9524.000000;-0.124578
9523.000000;-0.126596
9522.000000;-0.128615
9521.000000;-0.130581
9520.000000;-0.132499
9519.000000;-0.134408
9518.000000;-0.136372
9517.000000;-0.138442
9516.000000;-0.140552
9515.000000;-0.142548
9514.000000;-0.144362
9513.000000;-0.146091
9512.000000;-0.147852
9511.000000;-0.149663
9510.000000;-0.151497
9509.000000;-0.153375
9508.000000;-0.155292
9507.000000;-0.157146
9506.000000;-0.158834
9505.000000;-0.160392
9504.000000;-0.161949
9503.000000;-0.163568
9502.000000;-0.165178
9501.000000;-0.166685
9500.000000;-0.168108
9499.000000;-0.169573
9498.000000;-0.171166
9497.000000;-0.172818
9496.000000;-0.174384
9495.000000;-0.175865
9494.000000;-0.177438
9493.000000;-0.179197
9492.000000;-0.180954
9491.000000;-0.182438
9490.000000;-0.183638
9489.000000;-0.184794
9488.000000;-0.186050
9487.000000;-0.187300
9486.000000;-0.188420
9485.000000;-0.189498
9484.000000;-0.190730
9483.000000;-0.192172
9482.000000;-0.193699
9481.000000;-0.195144
9480.000000;-0.196383
9479.000000;-0.197354
9478.000000;-0.198087
9477.000000;-0.198722
9476.000000;-0.199427
9475.000000;-0.200282
9474.000000;-0.201251
9473.000000;-0.202246
9472.000000;-0.203197
9471.000000;-0.204079
9470.000000;-0.204915
9469.000000;-0.205749
9468.000000;-0.206627
9467.000000;-0.207576
9466.000000;-0.208561
9465.000000;-0.209456
9464.000000;-0.210116
9463.000000;-0.210549
9462.000000;-0.210955
9461.000000;-0.211530
9460.000000;-0.212257
9459.000000;-0.212957
9458.000000;-0.213523
9457.000000;-0.214015
9456.000000;-0.214535
9455.000000;-0.215095
9454.000000;-0.215631
9453.000000;-0.216072
9452.000000;-0.216390
9451.000000;-0.216630
9450.000000;-0.216889
9449.000000;-0.217234
9448.000000;-0.217615
9447.000000;-0.217906
9446.000000;-0.218010
9445.000000;-0.217928
9444.000000;-0.217757
9443.000000;-0.217660
9442.000000;-0.217747
9441.000000;-0.217916
9440.000000;-0.217889
9439.000000;-0.217519
9438.000000;-0.216988
9437.000000;-0.216598
9436.000000;-0.216425
9435.000000;-0.216307
9434.000000;-0.216133
9433.000000;-0.215952
9432.000000;-0.215816
9431.000000;-0.215703
9430.000000;-0.215613
9429.000000;-0.215580
9428.000000;-0.215522
9427.000000;-0.215244
9426.000000;-0.214686
9425.000000;-0.214039
9424.000000;-0.213543
9423.000000;-0.213245
9422.000000;-0.213022
9421.000000;-0.212717
9420.000000;-0.212183
9419.000000;-0.211326
9418.000000;-0.210243
9417.000000;-0.209245
9416.000000;-0.208624
9415.000000;-0.208399
9414.000000;-0.208340
9413.000000;-0.208181
9412.000000;-0.207753
9411.000000;-0.206999
9410.000000;-0.205994
9409.000000;-0.204961
9408.000000;-0.204138
9407.000000;-0.203566
9406.000000;-0.203055
9405.000000;-0.202368
9404.000000;-0.201429
9403.000000;-0.200358
9402.000000;-0.199335
9401.000000;-0.198473
9400.000000;-0.197769
9399.000000;-0.197138
9398.000000;-0.196453
9397.000000;-0.195592
9396.000000;-0.194499
9395.000000;-0.193256
9394.000000;-0.192043
9393.000000;-0.190986
9392.000000;-0.190056
9391.000000;-0.189135
9390.000000;-0.188158
9389.000000;-0.187165
9388.000000;-0.186241
9387.000000;-0.185416
9386.000000;-0.184622
9385.000000;-0.183716
9384.000000;-0.182590
9383.000000;-0.181290
9382.000000;-0.179982
9381.000000;-0.178795
9380.000000;-0.177725
9379.000000;-0.176725
9378.000000;-0.175786
9377.000000;-0.174859
9376.000000;-0.173801
9375.000000;-0.172530
9374.000000;-0.171170
9373.000000;-0.169921
9372.000000;-0.168805
9371.000000;-0.167687
9370.000000;-0.166521
9369.000000;-0.165423
9368.000000;-0.164454
9367.000000;-0.163473
9366.000000;-0.162289
9365.000000;-0.160898
9364.000000;-0.159480
9363.000000;-0.158205
9362.000000;-0.157072
9361.000000;-0.155946
9360.000000;-0.154702
9359.000000;-0.153375
9358.000000;-0.152141
9357.000000;-0.151132
9356.000000;-0.150270
9355.000000;-0.149291
9354.000000;-0.147965
9353.000000;-0.146294
9352.000000;-0.144543
9351.000000;-0.143080
9350.000000;-0.142084
9349.000000;-0.141371
9348.000000;-0.140550
9347.000000;-0.139406
9346.000000;-0.138065
9345.000000;-0.136754
9344.000000;-0.135516
9343.000000;-0.134269
9342.000000;-0.133032
9341.000000;-0.131886
9340.000000;-0.130779
9339.000000;-0.129553
9338.000000;-0.128190
9337.000000;-0.126875
9336.000000;-0.125759
9335.000000;-0.124784
9334.000000;-0.123776
9333.000000;-0.122625
9332.000000;-0.121341
9331.000000;-0.120015
9330.000000;-0.118785
9329.000000;-0.117749
9328.000000;-0.116878
9327.000000;-0.116031
9326.000000;-0.115066
9325.000000;-0.113906
9324.000000;-0.112538
9323.000000;-0.111034
9322.000000;-0.109557
9321.000000;-0.108253
9320.000000;-0.107130
9319.000000;-0.106079
9318.000000;-0.104988
9317.000000;-0.103784
9316.000000;-0.102426
9315.000000;-0.100977
9314.000000;-0.099644
9313.000000;-0.098604
9312.000000;-0.097766
9311.000000;-0.096824
9310.000000;-0.095563
9309.000000;-0.094040
9308.000000;-0.092475
9307.000000;-0.091086
9306.000000;-0.089996
9305.000000;-0.089163
9304.000000;-0.088352
9303.000000;-0.087303
9302.000000;-0.085993
9301.000000;-0.084671
9300.000000;-0.083584
9299.000000;-0.082723
9298.000000;-0.081842
9297.000000;-0.080672
9296.000000;-0.079139
9295.000000;-0.077443
9294.000000;-0.075910
9293.000000;-0.074710
9292.000000;-0.073726
9291.000000;-0.072765
9290.000000;-0.071814
9289.000000;-0.070968
9288.000000;-0.070174
9287.000000;-0.069241
9286.000000;-0.068107
9285.000000;-0.066897
9284.000000;-0.065708
9283.000000;-0.064490
9282.000000;-0.063232
9281.000000;-0.062061
9280.000000;-0.061057
9279.000000;-0.060111
9278.000000;-0.059068
9277.000000;-0.057947
9276.000000;-0.056887
9275.000000;-0.055961
9274.000000;-0.055116
9273.000000;-0.054271
9272.000000;-0.053368
9271.000000;-0.052358
9270.000000;-0.051225
9269.000000;-0.050017
9268.000000;-0.048822
9267.000000;-0.047710
9266.000000;-0.046708
9265.000000;-0.045795
9264.000000;-0.044917
9263.000000;-0.044019
9262.000000;-0.043083
9261.000000;-0.042106
9260.000000;-0.041080
9259.000000;-0.040027
9258.000000;-0.039029
9257.000000;-0.038130
9256.000000;-0.037263
9255.000000;-0.036342
9254.000000;-0.035396
9253.000000;-0.034506
9252.000000;-0.033626
9251.000000;-0.032612
9250.000000;-0.031441
9249.000000;-0.030261
9248.000000;-0.029195
9247.000000;-0.028219
9246.000000;-0.027275
9245.000000;-0.026395
9244.000000;-0.025615
9243.000000;-0.024857
9242.000000;-0.024018
9241.000000;-0.023112
9240.000000;-0.022247
9239.000000;-0.021480
9238.000000;-0.020754
9237.000000;-0.019959
9236.000000;-0.019043
9235.000000;-0.018066
9234.000000;-0.017161
9233.000000;-0.016404
9232.000000;-0.015729
9231.000000;-0.015016
9230.000000;-0.014234
9229.000000;-0.013433
9228.000000;-0.012609
9227.000000;-0.011666
9226.000000;-0.010579
9225.000000;-0.009478
9224.000000;-0.008528
9223.000000;-0.007743
9222.000000;-0.006971
9221.000000;-0.006059
9220.000000;-0.005009
9219.000000;-0.003979
9218.000000;-0.003134
9217.000000;-0.002495
9216.000000;-0.001934
9215.000000;-0.001319
9214.000000;-0.000614
9213.000000;0.000176
9212.000000;0.001062
9211.000000;0.001998
9210.000000;0.002839
9209.000000;0.003489
9208.000000;0.004066
9207.000000;0.004779
9206.000000;0.005674
9205.000000;0.006595
9204.000000;0.007419
9203.000000;0.008181
9202.000000;0.008965
9201.000000;0.009778
9200.000000;0.010583
9199.000000;0.011349
9198.000000;0.012031
9197.000000;0.012583
9196.000000;0.013040
9195.000000;0.013544
9194.000000;0.014234
9193.000000;0.015133
9192.000000;0.016144
9191.000000;0.017112
9190.000000;0.017910
9189.000000;0.018526
9188.000000;0.019090
9187.000000;0.019755
9186.000000;0.020562
9185.000000;0.021450
9184.000000;0.022327
9183.000000;0.023100
9182.000000;0.023686
9181.000000;0.024124
9180.000000;0.024632
9179.000000;0.025410
9178.000000;0.026381
9177.000000;0.027239
9176.000000;0.027776
9175.000000;0.028054
9174.000000;0.028267
9173.000000;0.028564
9172.000000;0.029049
9171.000000;0.029783
9170.000000;0.030702
9169.000000;0.031616
9168.000000;0.032375
9167.000000;0.032996
9166.000000;0.033586
9165.000000;0.034198
9164.000000;0.034815
9163.000000;0.035399
9162.000000;0.035908
9161.000000;0.036331
9160.000000;0.036736
9159.000000;0.037252
9158.000000;0.037931
9157.000000;0.038684
9156.000000;0.039393
9155.000000;0.040065
9154.000000;0.040801
9153.000000;0.041636
9152.000000;0.042452
9151.000000;0.043105
9150.000000;0.043591
9149.000000;0.044053
9148.000000;0.044587
9147.000000;0.045117
9146.000000;0.045526
9145.000000;0.045867
9144.000000;0.046323
9143.000000;0.046945
9142.000000;0.047579
9141.000000;0.048100
9140.000000;0.048577
9139.000000;0.049108
9138.000000;0.049634
9137.000000;0.050080
9136.000000;0.050554
9135.000000;0.051217
9134.000000;0.051998
9133.000000;0.052652
9132.000000;0.053075
9131.000000;0.053393
9130.000000;0.053749
9129.000000;0.054171
9128.000000;0.054671
9127.000000;0.055287
9126.000000;0.055957
9125.000000;0.056506
9124.000000;0.056848
9123.000000;0.057101
9122.000000;0.057450
9121.000000;0.057958
9120.000000;0.058571
9119.000000;0.059201
9118.000000;0.059772
9117.000000;0.060266
9116.000000;0.060766
9115.000000;0.061368
9114.000000;0.062040
9113.000000;0.062629
9112.000000;0.063042
9111.000000;0.063343
9110.000000;0.063658
9109.000000;0.064052
9108.000000;0.064520
9107.000000;0.065015
9106.000000;0.065468
9105.000000;0.065844
9104.000000;0.066188
9103.000000;0.066546
9102.000000;0.066884
9101.000000;0.067163
9100.000000;0.067466
9099.000000;0.067920
9098.000000;0.068519
9097.000000;0.069138
9096.000000;0.069723
9095.000000;0.070317
9094.000000;0.070869
9093.000000;0.071218
9092.000000;0.071314
9091.000000;0.071344
9090.000000;0.071538
9089.000000;0.071954
9088.000000;0.072492
9087.000000;0.073025
9086.000000;0.073437
9085.000000;0.073659
9084.000000;0.073775
9083.000000;0.074002
9082.000000;0.074484
9081.000000;0.075129
9080.000000;0.075714
9079.000000;0.076115
9078.000000;0.076385
9077.000000;0.076669
9076.000000;0.077077
9075.000000;0.077606
9074.000000;0.078129
9073.000000;0.078507
9072.000000;0.078718
9071.000000;0.078878
9070.000000;0.079101
