Criado como novo conjunto de dados;"0307_DANIEL.spp","66605.3 Secs"
cm-1;Abs
10000.000000;0.589093
9999.000000;0.588589
9998.000000;0.587651
9997.000000;0.586496
9996.000000;0.585686
9995.000000;0.585454
9994.000000;0.585545
9993.000000;0.585417
9992.000000;0.584821
9991.000000;0.583893
9990.000000;0.582899
9989.000000;0.581937
9988.000000;0.581004
9987.000000;0.580181
9986.000000;0.579577
9985.000000;0.579110
9984.000000;0.578490
9983.000000;0.577478
9982.000000;0.576121
9981.000000;0.574647
9980.000000;0.573224
9979.000000;0.571935
9978.000000;0.570943
9977.000000;0.570452
9976.000000;0.570389
9975.000000;0.570300
9974.000000;0.569754
9973.000000;0.568815
9972.000000;0.567879
9971.000000;0.567095
9970.000000;0.566190
9969.000000;0.564943
9968.000000;0.563580
9967.000000;0.562531
9966.000000;0.561953
9965.000000;0.561662
9964.000000;0.561374
9963.000000;0.560859
9962.000000;0.559984
9961.000000;0.558816
9960.000000;0.557656
9959.000000;0.556755
9958.000000;0.556046
9957.000000;0.555275
9956.000000;0.554374
9955.000000;0.553504
9954.000000;0.552772
9953.000000;0.552103
9952.000000;0.551366
9951.000000;0.550458
9950.000000;0.549255
9949.000000;0.547735
9948.000000;0.546180
9947.000000;0.545024
9946.000000;0.544402
9945.000000;0.544017
9944.000000;0.543549
9943.000000;0.543011
9942.000000;0.542570
9941.000000;0.542227
9940.000000;0.541808
9939.000000;0.541165
9938.000000;0.540218
9937.000000;0.538928
9936.000000;0.537404
9935.000000;0.535960
9934.000000;0.534847
9933.000000;0.533976
9932.000000;0.533061
9931.000000;0.532020
9930.000000;0.531096
9929.000000;0.530545
9928.000000;0.530313
9927.000000;0.530047
9926.000000;0.529366
9925.000000;0.528167
9924.000000;0.526732
9923.000000;0.525497
9922.000000;0.524654
9921.000000;0.524005
9920.000000;0.523256
9919.000000;0.522374
9918.000000;0.521538
9917.000000;0.520848
9916.000000;0.520221
9915.000000;0.519528
9914.000000;0.518678
9913.000000;0.517589
9912.000000;0.516267
9911.000000;0.514905
9910.000000;0.513755
9909.000000;0.512837
9908.000000;0.511903
9907.000000;0.510758
9906.000000;0.509504
9905.000000;0.508406
9904.000000;0.507629
9903.000000;0.507121
9902.000000;0.506683
9901.000000;0.506059
9900.000000;0.505056
9899.000000;0.503666
9898.000000;0.502047
9897.000000;0.500371
9896.000000;0.498742
9895.000000;0.497261
9894.000000;0.496066
9893.000000;0.495231
9892.000000;0.494668
9891.000000;0.494162
9890.000000;0.493477
9889.000000;0.492469
9888.000000;0.491205
9887.000000;0.489957
9886.000000;0.488952
9885.000000;0.488107
9884.000000;0.487139
9883.000000;0.485985
9882.000000;0.484917
9881.000000;0.484134
9880.000000;0.483432
9879.000000;0.482455
9878.000000;0.481161
9877.000000;0.479828
9876.000000;0.478688
9875.000000;0.477782
9874.000000;0.477114
9873.000000;0.476678
9872.000000;0.476267
9871.000000;0.475524
9870.000000;0.474300
9869.000000;0.472834
9868.000000;0.471462
9867.000000;0.470303
9866.000000;0.469312
9865.000000;0.468446
9864.000000;0.467591
9863.000000;0.466457
9862.000000;0.464832
9861.000000;0.462928
9860.000000;0.461306
9859.000000;0.460362
9858.000000;0.459966
9857.000000;0.459623
9856.000000;0.458906
9855.000000;0.457730
9854.000000;0.456301
9853.000000;0.454886
9852.000000;0.453596
9851.000000;0.452355
9850.000000;0.451075
9849.000000;0.449840
9848.000000;0.448859
9847.000000;0.448233
9846.000000;0.447789
9845.000000;0.447170
9844.000000;0.446081
9843.000000;0.444507
9842.000000;0.442754
9841.000000;0.441243
9840.000000;0.440158
9839.000000;0.439295
9838.000000;0.438283
9837.000000;0.436969
9836.000000;0.435522
9835.000000;0.434212
9834.000000;0.433181
9833.000000;0.432438
9832.000000;0.431917
9831.000000;0.431469
9830.000000;0.430874
9829.000000;0.429958
9828.000000;0.428680
9827.000000;0.427114
9826.000000;0.425397
9825.000000;0.423745
9824.000000;0.422380
9823.000000;0.421337
9822.000000;0.420388
9821.000000;0.419267
9820.000000;0.417962
9819.000000;0.416692
9818.000000;0.415609
9817.000000;0.414621
9816.000000;0.413523
9815.000000;0.412244
9814.000000;0.410893
9813.000000;0.409608
9812.000000;0.408397
9811.000000;0.407178
9810.000000;0.405925
9809.000000;0.404741
9808.000000;0.403712
9807.000000;0.402742
9806.000000;0.401615
9805.000000;0.400231
9804.000000;0.398678
9803.000000;0.397067
9802.000000;0.395420
9801.000000;0.393809
9800.000000;0.392467
9799.000000;0.391599
9798.000000;0.391110
9797.000000;0.390611
9796.000000;0.389727
9795.000000;0.388365
9794.000000;0.386723
9793.000000;0.385131
9792.000000;0.383802
9791.000000;0.382654
9790.000000;0.381390
9789.000000;0.379852
9788.000000;0.378254
9787.000000;0.376944
9786.000000;0.375968
9785.000000;0.375007
9784.000000;0.373758
9783.000000;0.372232
9782.000000;0.370660
9781.000000;0.369245
9780.000000;0.368042
9779.000000;0.366953
9778.000000;0.365780
9777.000000;0.364381
9776.000000;0.362837
9775.000000;0.361358
9774.000000;0.360013
9773.000000;0.358639
9772.000000;0.357078
9771.000000;0.355396
9770.000000;0.353810
9769.000000;0.352473
9768.000000;0.351415
9767.000000;0.350569
9766.000000;0.349754
9765.000000;0.348739
9764.000000;0.347433
9763.000000;0.345982
9762.000000;0.344593
9761.000000;0.343332
9760.000000;0.342143
9759.000000;0.340988
9758.000000;0.339841
9757.000000;0.338614
9756.000000;0.337212
9755.000000;0.335648
9754.000000;0.333983
9753.000000;0.332221
9752.000000;0.330348
9751.000000;0.328469
9750.000000;0.326752
9749.000000;0.325249
9748.000000;0.323872
9747.000000;0.322557
9746.000000;0.321351
9745.000000;0.320307
9744.000000;0.319368
9743.000000;0.318373
9742.000000;0.317140
9741.000000;0.315584
9740.000000;0.313852
9739.000000;0.312301
9738.000000;0.311186
9737.000000;0.310347
9736.000000;0.309309
9735.000000;0.307757
9734.000000;0.305791
9733.000000;0.303693
9732.000000;0.301621
9731.000000;0.299617
9730.000000;0.297766
9729.000000;0.296154
9728.000000;0.294711
9727.000000;0.293291
9726.000000;0.291899
9725.000000;0.290709
9724.000000;0.289769
9723.000000;0.288807
9722.000000;0.287454
9721.000000;0.285636
9720.000000;0.283672
9719.000000;0.281937
9718.000000;0.280479
9717.000000;0.279032
9716.000000;0.277385
9715.000000;0.275648
9714.000000;0.274098
9713.000000;0.272809
9712.000000;0.271551
9711.000000;0.270062
9710.000000;0.268298
9709.000000;0.266397
9708.000000;0.264510
9707.000000;0.262755
9706.000000;0.261243
9705.000000;0.260014
9704.000000;0.258954
9703.000000;0.257869
9702.000000;0.256611
9701.000000;0.255085
9700.000000;0.253213
9699.000000;0.251027
9698.000000;0.248763
9697.000000;0.246712
9696.000000;0.244960
9695.000000;0.243376
9694.000000;0.241863
9693.000000;0.240471
9692.000000;0.239209
9691.000000;0.237905
9690.000000;0.236376
9689.000000;0.234677
9688.000000;0.233045
9687.000000;0.231630
9686.000000;0.230372
9685.000000;0.229083
9684.000000;0.227585
9683.000000;0.225798
9682.000000;0.223801
9681.000000;0.221774
9680.000000;0.219831
9679.000000;0.217939
9678.000000;0.216052
9677.000000;0.214269
9676.000000;0.212719
9675.000000;0.211351
9674.000000;0.209930
9673.000000;0.208263
9672.000000;0.206322
9671.000000;0.204177
9670.000000;0.201946
9669.000000;0.199837
9668.000000;0.198103
9667.000000;0.196831
9666.000000;0.195834
9665.000000;0.194789
9664.000000;0.193447
9663.000000;0.191719
9662.000000;0.189645
9661.000000;0.187373
9660.000000;0.185120
9659.000000;0.183085
9658.000000;0.181341
9657.000000;0.179797
9656.000000;0.178228
9655.000000;0.176427
9654.000000;0.174399
9653.000000;0.172402
9652.000000;0.170675
9651.000000;0.169139
9650.000000;0.167475
9649.000000;0.165521
9648.000000;0.163460
9647.000000;0.161564
9646.000000;0.159895
9645.000000;0.158335
9644.000000;0.156793
9643.000000;0.155243
9642.000000;0.153618
9641.000000;0.151796
9640.000000;0.149715
9639.000000;0.147445
9638.000000;0.145161
9637.000000;0.143064
9636.000000;0.141250
9635.000000;0.139605
9634.000000;0.137887
9633.000000;0.135990
9632.000000;0.134060
9631.000000;0.132285
9630.000000;0.130623
9629.000000;0.128858
9628.000000;0.126864
9627.000000;0.124704
9626.000000;0.122494
9625.000000;0.120312
9624.000000;0.118221
9623.000000;0.116270
9622.000000;0.114432
9621.000000;0.112611
9620.000000;0.110758
9619.000000;0.108895
9618.000000;0.107017
9617.000000;0.105054
9616.000000;0.102964
9615.000000;0.100838
9614.000000;0.098843
9613.000000;0.097049
9612.000000;0.095326
9611.000000;0.093430
9610.000000;0.091230
9609.000000;0.088865
9608.000000;0.086620
9607.000000;0.084623
9606.000000;0.082740
9605.000000;0.080801
9604.000000;0.078854
9603.000000;0.077082
9602.000000;0.075519
9601.000000;0.073985
9600.000000;0.072309
9599.000000;0.070518
9598.000000;0.068726
9597.000000;0.066913
9596.000000;0.064924
9595.000000;0.062681
9594.000000;0.060341
9593.000000;0.058147
9592.000000;0.056153
9591.000000;0.054165
9590.000000;0.051997
9589.000000;0.049716
9588.000000;0.047542
9587.000000;0.045563
9586.000000;0.043684
9585.000000;0.041818
9584.000000;0.039988
9583.000000;0.038193
9582.000000;0.036348
9581.000000;0.034395
9580.000000;0.032367
9579.000000;0.030264
9578.000000;0.028026
9577.000000;0.025688
9576.000000;0.023423
9575.000000;0.021339
9574.000000;0.019345
9573.000000;0.017343
9572.000000;0.015399
9571.000000;0.013584
9570.000000;0.011784
9569.000000;0.009856
9568.000000;0.007859
9567.000000;0.005954
9566.000000;0.004146
9565.000000;0.002303
9564.000000;0.000350
9563.000000;-0.001738
9562.000000;-0.004046
9561.000000;-0.006575
9560.000000;-0.009049
9559.000000;-0.011131
9558.000000;-0.012838
9557.000000;-0.014513
9556.000000;-0.016381
9555.000000;-0.018387
9554.000000;-0.020474
9553.000000;-0.022743
9552.000000;-0.025176
9551.000000;-0.027466
9550.000000;-0.029312
9549.000000;-0.030777
9548.000000;-0.032209
9547.000000;-0.033881
9546.000000;-0.035817
9545.000000;-0.037892
9544.000000;-0.040003
9543.000000;-0.042147
9542.000000;-0.044393
9541.000000;-0.046751
9540.000000;-0.049097
9539.000000;-0.051291
9538.000000;-0.053328
9537.000000;-0.055263
9536.000000;-0.057034
9535.000000;-0.058550
9534.000000;-0.059934
9533.000000;-0.061477
9532.000000;-0.063282
9531.000000;-0.065141
9530.000000;-0.066843
9529.000000;-0.068437
9528.000000;-0.070079
9527.000000;-0.071784
9526.000000;-0.073460
9525.000000;-0.075106
9524.000000;-0.076835
9523.000000;-0.078767
9522.000000;-0.080927
9521.000000;-0.083177
9520.000000;-0.085229
9519.000000;-0.086869
9518.000000;-0.088215
9517.000000;-0.089603
9516.000000;-0.091172
9515.000000;-0.092743
9514.000000;-0.094175
9513.000000;-0.095634
9512.000000;-0.097346
9511.000000;-0.099262
9510.000000;-0.101144
9509.000000;-0.102881
9508.000000;-0.104512
9507.000000;-0.106028
9506.000000;-0.107342
9505.000000;-0.108460
9504.000000;-0.109523
9503.000000;-0.110665
9502.000000;-0.111921
9501.000000;-0.113240
9500.000000;-0.114562
9499.000000;-0.115921
9498.000000;-0.117476
9497.000000;-0.119344
9496.000000;-0.121352
9495.000000;-0.123106
9494.000000;-0.124397
9493.000000;-0.125430
9492.000000;-0.126531
9491.000000;-0.127793
9490.000000;-0.129097
9489.000000;-0.130330
9488.000000;-0.131406
9487.000000;-0.132209
9486.000000;-0.132750
9485.000000;-0.133298
9484.000000;-0.134157
9483.000000;-0.135336
9482.000000;-0.136573
9481.000000;-0.137638
9480.000000;-0.138468
9479.000000;-0.139102
9478.000000;-0.139665
9477.000000;-0.140366
9476.000000;-0.141291
9475.000000;-0.142239
9474.000000;-0.142944
9473.000000;-0.143406
9472.000000;-0.143836
9471.000000;-0.144319
9470.000000;-0.144783
9469.000000;-0.145275
9468.000000;-0.145983
9467.000000;-0.146902
9466.000000;-0.147736
9465.000000;-0.148268
9464.000000;-0.148673
9463.000000;-0.149322
9462.000000;-0.150320
9461.000000;-0.151349
9460.000000;-0.151929
9459.000000;-0.151835
9458.000000;-0.151326
9457.000000;-0.150956
9456.000000;-0.151068
9455.000000;-0.151468
9454.000000;-0.151704
9453.000000;-0.151607
9452.000000;-0.151404
9451.000000;-0.151357
9450.000000;-0.151494
9449.000000;-0.151722
9448.000000;-0.151992
9447.000000;-0.152234
9446.000000;-0.152292
9445.000000;-0.152049
9444.000000;-0.151554
9443.000000;-0.150990
9442.000000;-0.150573
9441.000000;-0.150471
9440.000000;-0.150669
9439.000000;-0.150909
9438.000000;-0.150907
9437.000000;-0.150651
9436.000000;-0.150337
9435.000000;-0.150012
9434.000000;-0.149517
9433.000000;-0.148816
9432.000000;-0.148146
9431.000000;-0.147709
9430.000000;-0.147421
9429.000000;-0.147088
9428.000000;-0.146653
9427.000000;-0.146115
9426.000000;-0.145414
9425.000000;-0.144568
9424.000000;-0.143772
9423.000000;-0.143158
9422.000000;-0.142565
9421.000000;-0.141756
9420.000000;-0.140741
9419.000000;-0.139696
9418.000000;-0.138654
9417.000000;-0.137527
9416.000000;-0.136387
9415.000000;-0.135450
9414.000000;-0.134783
9413.000000;-0.134250
9412.000000;-0.133732
9411.000000;-0.133225
9410.000000;-0.132676
9409.000000;-0.131973
9408.000000;-0.131141
9407.000000;-0.130332
9406.000000;-0.129556
9405.000000;-0.128584
9404.000000;-0.127269
9403.000000;-0.125801
9402.000000;-0.124511
9401.000000;-0.123539
9400.000000;-0.122807
9399.000000;-0.122215
9398.000000;-0.121675
9397.000000;-0.121000
9396.000000;-0.119943
9395.000000;-0.118426
9394.000000;-0.116660
9393.000000;-0.114988
9392.000000;-0.113624
9391.000000;-0.112548
9390.000000;-0.111600
9389.000000;-0.110646
9388.000000;-0.109630
9387.000000;-0.108491
9386.000000;-0.107092
9385.000000;-0.105346
9384.000000;-0.103391
9383.000000;-0.101543
9382.000000;-0.100021
9381.000000;-0.098807
9380.000000;-0.097809
9379.000000;-0.097051
9378.000000;-0.096529
9377.000000;-0.095987
9376.000000;-0.095022
9375.000000;-0.093484
9374.000000;-0.091630
9373.000000;-0.089821
9372.000000;-0.088198
9371.000000;-0.086728
9370.000000;-0.085420
9369.000000;-0.084341
9368.000000;-0.083433
9367.000000;-0.082492
9366.000000;-0.081337
9365.000000;-0.079936
9364.000000;-0.078350
9363.000000;-0.076678
9362.000000;-0.075052
9361.000000;-0.073568
9360.000000;-0.072150
9359.000000;-0.070605
9358.000000;-0.068879
9357.000000;-0.067213
9356.000000;-0.065886
9355.000000;-0.064825
9354.000000;-0.063610
9353.000000;-0.061919
9352.000000;-0.059916
9351.000000;-0.058126
9350.000000;-0.056926
9349.000000;-0.056177
9348.000000;-0.055393
9347.000000;-0.054233
9346.000000;-0.052786
9345.000000;-0.051350
9344.000000;-0.050008
9343.000000;-0.048572
9342.000000;-0.046928
9341.000000;-0.045270
9340.000000;-0.043887
9339.000000;-0.042815
9338.000000;-0.041828
9337.000000;-0.040698
9336.000000;-0.039343
9335.000000;-0.037774
9334.000000;-0.036045
9333.000000;-0.034279
9332.000000;-0.032608
9331.000000;-0.031072
9330.000000;-0.029654
9329.000000;-0.028381
9328.000000;-0.027268
9327.000000;-0.026178
9326.000000;-0.024903
9325.000000;-0.023412
9324.000000;-0.021857
9323.000000;-0.020302
9322.000000;-0.018652
9321.000000;-0.016933
9320.000000;-0.015432
9319.000000;-0.014323
9318.000000;-0.013327
9317.000000;-0.012009
9316.000000;-0.010357
9315.000000;-0.008796
9314.000000;-0.007612
9313.000000;-0.006623
9312.000000;-0.005517
9311.000000;-0.004274
9310.000000;-0.003079
9309.000000;-0.001950
9308.000000;-0.000687
9307.000000;0.000847
9306.000000;0.002553
9305.000000;0.004237
9304.000000;0.005796
9303.000000;0.007244
9302.000000;0.008633
9301.000000;0.009965
9300.000000;0.011178
9299.000000;0.012208
9298.000000;0.013145
9297.000000;0.014254
9296.000000;0.015747
9295.000000;0.017538
9294.000000;0.019311
9293.000000;0.020849
9292.000000;0.022174
9291.000000;0.023369
9290.000000;0.024399
9289.000000;0.025252
9288.000000;0.026125
9287.000000;0.027299
9286.000000;0.028816
9285.000000;0.030404
9284.000000;0.031792
9283.000000;0.032992
9282.000000;0.034214
9281.000000;0.035557
9280.000000;0.036902
9279.000000;0.038089
9278.000000;0.039113
9277.000000;0.040093
9276.000000;0.041111
9275.000000;0.042160
9274.000000;0.043224
9273.000000;0.044324
9272.000000;0.045424
9271.000000;0.046416
9270.000000;0.047275
9269.000000;0.048207
9268.000000;0.049469
9267.000000;0.051019
9266.000000;0.052472
9265.000000;0.053508
9264.000000;0.054251
9263.000000;0.055119
9262.000000;0.056361
9261.000000;0.057846
9260.000000;0.059292
9259.000000;0.060537
9258.000000;0.061596
9257.000000;0.062585
9256.000000;0.063683
9255.000000;0.065019
9254.000000;0.066514
9253.000000;0.067905
9252.000000;0.069018
9251.000000;0.069982
9250.000000;0.071054
9249.000000;0.072279
9248.000000;0.073439
9247.000000;0.074344
9246.000000;0.075066
9245.000000;0.075843
9244.000000;0.076812
9243.000000;0.077930
9242.000000;0.079100
9241.000000;0.080285
9240.000000;0.081497
9239.000000;0.082723
9238.000000;0.083933
9237.000000;0.085116
9236.000000;0.086263
9235.000000;0.087295
9234.000000;0.088087
9233.000000;0.088615
9232.000000;0.089074
9231.000000;0.089794
9230.000000;0.090992
9229.000000;0.092589
9228.000000;0.094268
9227.000000;0.095705
9226.000000;0.096783
9225.000000;0.097627
9224.000000;0.098452
9223.000000;0.099393
9222.000000;0.100433
9221.000000;0.101456
9220.000000;0.102332
9219.000000;0.102975
9218.000000;0.103432
9217.000000;0.103925
9216.000000;0.104743
9215.000000;0.106002
9214.000000;0.107521
9213.000000;0.108973
9212.000000;0.110163
9211.000000;0.111126
9210.000000;0.111989
9209.000000;0.112804
9208.000000;0.113532
9207.000000;0.114181
9206.000000;0.114884
9205.000000;0.115818
9204.000000;0.116989
9203.000000;0.118160
9202.000000;0.119087
9201.000000;0.119824
9200.000000;0.120667
9199.000000;0.121761
9198.000000;0.122893
9197.000000;0.123764
9196.000000;0.124351
9195.000000;0.124872
9194.000000;0.125500
9193.000000;0.126275
9192.000000;0.127206
9191.000000;0.128267
9190.000000;0.129307
9189.000000;0.130142
9188.000000;0.130815
9187.000000;0.131587
9186.000000;0.132649
9185.000000;0.133898
9184.000000;0.135048
9183.000000;0.135850
9182.000000;0.136241
9181.000000;0.136414
9180.000000;0.136756
9179.000000;0.137536
9178.000000;0.138618
9177.000000;0.139603
9176.000000;0.140311
9175.000000;0.140972
9174.000000;0.141895
9173.000000;0.143103
9172.000000;0.144394
9171.000000;0.145594
9170.000000;0.146619
9169.000000;0.147408
9168.000000;0.147957
9167.000000;0.148393
9166.000000;0.148905
9165.000000;0.149610
9164.000000;0.150516
9163.000000;0.151534
9162.000000;0.152484
9161.000000;0.153221
9160.000000;0.153820
9159.000000;0.154518
9158.000000;0.155384
9157.000000;0.156180
9156.000000;0.156682
9155.000000;0.157009
9154.000000;0.157453
9153.000000;0.158107
9152.000000;0.158832
9151.000000;0.159541
9150.000000;0.160291
9149.000000;0.161103
9148.000000;0.161849
9147.000000;0.162367
9146.000000;0.162601
9145.000000;0.162653
9144.000000;0.162804
9143.000000;0.163404
9142.000000;0.164575
9141.000000;0.165978
9140.000000;0.167049
9139.000000;0.167542
9138.000000;0.167761
9137.000000;0.168213
9136.000000;0.169120
9135.000000;0.170293
9134.000000;0.171346
9133.000000;0.172006
9132.000000;0.172295
9131.000000;0.172510
9130.000000;0.173000
9129.000000;0.173889
9128.000000;0.175019
9127.000000;0.176132
9126.000000;0.177070
9125.000000;0.177817
9124.000000;0.178431
9123.000000;0.178971
9122.000000;0.179445
9121.000000;0.179811
9120.000000;0.180065
9119.000000;0.180323
9118.000000;0.180746
9117.000000;0.181350
9116.000000;0.181961
9115.000000;0.182383
9114.000000;0.182592
9113.000000;0.182776
9112.000000;0.183184
9111.000000;0.183936
9110.000000;0.184932
9109.000000;0.185941
9108.000000;0.186821
9107.000000;0.187619
9106.000000;0.188431
9105.000000;0.189238
9104.000000;0.189924
9103.000000;0.190411
9102.000000;0.190672
9101.000000;0.190679
9100.000000;0.190489
9099.000000;0.190382
9098.000000;0.190733
9097.000000;0.191672
9096.000000;0.192945
9095.000000;0.194164
9094.000000;0.195095
9093.000000;0.195670
9092.000000;0.195889
9091.000000;0.195858
9090.000000;0.195854
9089.000000;0.196156
9088.000000;0.196780
9087.000000;0.197463
9086.000000;0.197958
9085.000000;0.198287
9084.000000;0.198664
9083.000000;0.199216
9082.000000;0.199828
9081.000000;0.200274
9080.000000;0.200489
9079.000000;0.200679
9078.000000;0.201140
9077.000000;0.201975
9076.000000;0.202993
9075.000000;0.203872
9074.000000;0.204394
9073.000000;0.204558
9072.000000;0.204574
9071.000000;0.204756
9070.000000;0.205329
9069.000000;0.206203
9068.000000;0.206986
9067.000000;0.207334
9066.000000;0.207316
9065.000000;0.207360
