Criado como novo conjunto de dados;"0307_DANIEL.spp","15122.6 Secs"
cm-1;Abs
10000.000000;0.827810
9999.000000;0.826428
9998.000000;0.825284
9997.000000;0.824347
9996.000000;0.823452
9995.000000;0.822438
9994.000000;0.821237
9993.000000;0.819902
9992.000000;0.818473
9991.000000;0.817011
9990.000000;0.815649
9989.000000;0.814423
9988.000000;0.813109
9987.000000;0.811504
9986.000000;0.809864
9985.000000;0.808710
9984.000000;0.808147
9983.000000;0.807669
9982.000000;0.806811
9981.000000;0.805707
9980.000000;0.804775
9979.000000;0.804082
9978.000000;0.803282
9977.000000;0.802075
9976.000000;0.800529
9975.000000;0.799001
9974.000000;0.797855
9973.000000;0.797164
9972.000000;0.796572
9971.000000;0.795569
9970.000000;0.794019
9969.000000;0.792302
9968.000000;0.790822
9967.000000;0.789545
9966.000000;0.788162
9965.000000;0.786569
9964.000000;0.785002
9963.000000;0.783753
9962.000000;0.782870
9961.000000;0.782108
9960.000000;0.781114
9959.000000;0.779739
9958.000000;0.778201
9957.000000;0.776822
9956.000000;0.775582
9955.000000;0.774138
9954.000000;0.772383
9953.000000;0.770735
9952.000000;0.769658
9951.000000;0.769062
9950.000000;0.768413
9949.000000;0.767350
9948.000000;0.765963
9947.000000;0.764523
9946.000000;0.763192
9945.000000;0.761993
9944.000000;0.760877
9943.000000;0.759728
9942.000000;0.758460
9941.000000;0.757112
9940.000000;0.755790
9939.000000;0.754522
9938.000000;0.753258
9937.000000;0.751957
9936.000000;0.750573
9935.000000;0.749013
9934.000000;0.747295
9933.000000;0.745680
9932.000000;0.744445
9931.000000;0.743520
9930.000000;0.742556
9929.000000;0.741402
9928.000000;0.740281
9927.000000;0.739414
9926.000000;0.738677
9925.000000;0.737823
9924.000000;0.736859
9923.000000;0.735944
9922.000000;0.734991
9921.000000;0.733662
9920.000000;0.731844
9919.000000;0.729881
9918.000000;0.728216
9917.000000;0.726922
9916.000000;0.725756
9915.000000;0.724552
9914.000000;0.723369
9913.000000;0.722274
9912.000000;0.721171
9911.000000;0.719909
9910.000000;0.718452
9909.000000;0.716876
9908.000000;0.715301
9907.000000;0.713864
9906.000000;0.712652
9905.000000;0.711609
9904.000000;0.710559
9903.000000;0.709407
9902.000000;0.708205
9901.000000;0.706970
9900.000000;0.705572
9899.000000;0.703937
9898.000000;0.702260
9897.000000;0.700822
9896.000000;0.699633
9895.000000;0.698429
9894.000000;0.697024
9893.000000;0.695503
9892.000000;0.694016
9891.000000;0.692573
9890.000000;0.691125
9889.000000;0.689760
9888.000000;0.688631
9887.000000;0.687722
9886.000000;0.686774
9885.000000;0.685521
9884.000000;0.683984
9883.000000;0.682482
9882.000000;0.681316
9881.000000;0.680461
9880.000000;0.679596
9879.000000;0.678419
9878.000000;0.676857
9877.000000;0.674994
9876.000000;0.672948
9875.000000;0.670910
9874.000000;0.669143
9873.000000;0.667771
9872.000000;0.666627
9871.000000;0.665443
9870.000000;0.664155
9869.000000;0.662898
9868.000000;0.661723
9867.000000;0.660509
9866.000000;0.659135
9865.000000;0.657620
9864.000000;0.656063
9863.000000;0.654580
9862.000000;0.653292
9861.000000;0.652214
9860.000000;0.651115
9859.000000;0.649667
9858.000000;0.647837
9857.000000;0.645986
9856.000000;0.644468
9855.000000;0.643219
9854.000000;0.641866
9853.000000;0.640183
9852.000000;0.638312
9851.000000;0.636536
9850.000000;0.634952
9849.000000;0.633424
9848.000000;0.631804
9847.000000;0.630115
9846.000000;0.628517
9845.000000;0.627129
9844.000000;0.625935
9843.000000;0.624836
9842.000000;0.623749
9841.000000;0.622642
9840.000000;0.621516
9839.000000;0.620375
9838.000000;0.619160
9837.000000;0.617718
9836.000000;0.615946
9835.000000;0.613984
9834.000000;0.612153
9833.000000;0.610630
9832.000000;0.609282
9831.000000;0.607912
9830.000000;0.606537
9829.000000;0.605277
9828.000000;0.604062
9827.000000;0.602664
9826.000000;0.600997
9825.000000;0.599223
9824.000000;0.597528
9823.000000;0.595941
9822.000000;0.594398
9821.000000;0.592855
9820.000000;0.591302
9819.000000;0.589750
9818.000000;0.588233
9817.000000;0.586779
9816.000000;0.585349
9815.000000;0.583888
9814.000000;0.582413
9813.000000;0.580961
9812.000000;0.579482
9811.000000;0.577876
9810.000000;0.576130
9809.000000;0.574326
9808.000000;0.572529
9807.000000;0.570791
9806.000000;0.569225
9805.000000;0.567910
9804.000000;0.566685
9803.000000;0.565218
9802.000000;0.563365
9801.000000;0.561341
9800.000000;0.559470
9799.000000;0.557883
9798.000000;0.556500
9797.000000;0.555199
9796.000000;0.553880
9795.000000;0.552453
9794.000000;0.550895
9793.000000;0.549288
9792.000000;0.547742
9791.000000;0.546298
9790.000000;0.544950
9789.000000;0.543681
9788.000000;0.542406
9787.000000;0.540943
9786.000000;0.539162
9785.000000;0.537169
9784.000000;0.535268
9783.000000;0.533688
9782.000000;0.532370
9781.000000;0.531015
9780.000000;0.529338
9779.000000;0.527286
9778.000000;0.525058
9777.000000;0.522958
9776.000000;0.521196
9775.000000;0.519761
9774.000000;0.518450
9773.000000;0.517025
9772.000000;0.515418
9771.000000;0.513765
9770.000000;0.512198
9769.000000;0.510631
9768.000000;0.508867
9767.000000;0.506912
9766.000000;0.505046
9765.000000;0.503470
9764.000000;0.502004
9763.000000;0.500308
9762.000000;0.498377
9761.000000;0.496608
9760.000000;0.495296
9759.000000;0.494211
9758.000000;0.492810
9757.000000;0.490836
9756.000000;0.488582
9755.000000;0.486529
9754.000000;0.484818
9753.000000;0.483188
9752.000000;0.481364
9751.000000;0.479358
9750.000000;0.477346
9749.000000;0.475435
9748.000000;0.473675
9747.000000;0.472175
9746.000000;0.470961
9745.000000;0.469744
9744.000000;0.468081
9743.000000;0.465879
9742.000000;0.463535
9741.000000;0.461504
9740.000000;0.459859
9739.000000;0.458371
9738.000000;0.456816
9737.000000;0.455073
9736.000000;0.453099
9735.000000;0.451021
9734.000000;0.449130
9733.000000;0.447600
9732.000000;0.446256
9731.000000;0.444806
9730.000000;0.443203
9729.000000;0.441609
9728.000000;0.440035
9727.000000;0.438249
9726.000000;0.436060
9725.000000;0.433560
9724.000000;0.431061
9723.000000;0.428887
9722.000000;0.427198
9721.000000;0.425868
9720.000000;0.424570
9719.000000;0.423070
9718.000000;0.421396
9717.000000;0.419650
9716.000000;0.417779
9715.000000;0.415703
9714.000000;0.413569
9713.000000;0.411653
9712.000000;0.410027
9711.000000;0.408505
9710.000000;0.406904
9709.000000;0.405166
9708.000000;0.403227
9707.000000;0.401009
9706.000000;0.398594
9705.000000;0.396249
9704.000000;0.394179
9703.000000;0.392371
9702.000000;0.390681
9701.000000;0.388958
9700.000000;0.387073
9699.000000;0.385003
9698.000000;0.382917
9697.000000;0.381024
9696.000000;0.379312
9695.000000;0.377570
9694.000000;0.375683
9693.000000;0.373734
9692.000000;0.371775
9691.000000;0.369709
9690.000000;0.367503
9689.000000;0.365335
9688.000000;0.363365
9687.000000;0.361477
9686.000000;0.359416
9685.000000;0.357123
9684.000000;0.354820
9683.000000;0.352774
9682.000000;0.351059
9681.000000;0.349539
9680.000000;0.347993
9679.000000;0.346267
9678.000000;0.344380
9677.000000;0.342484
9676.000000;0.340704
9675.000000;0.338993
9674.000000;0.337139
9673.000000;0.334931
9672.000000;0.332338
9671.000000;0.329561
9670.000000;0.326894
9669.000000;0.324525
9668.000000;0.322494
9667.000000;0.320760
9666.000000;0.319211
9665.000000;0.317588
9664.000000;0.315604
9663.000000;0.313271
9662.000000;0.310946
9661.000000;0.308907
9660.000000;0.307001
9659.000000;0.304882
9658.000000;0.302513
9657.000000;0.300172
9656.000000;0.298031
9655.000000;0.295971
9654.000000;0.293855
9653.000000;0.291739
9652.000000;0.289735
9651.000000;0.287816
9650.000000;0.285867
9649.000000;0.283813
9648.000000;0.281649
9647.000000;0.279434
9646.000000;0.277267
9645.000000;0.275191
9644.000000;0.273104
9643.000000;0.270892
9642.000000;0.268612
9641.000000;0.266417
9640.000000;0.264311
9639.000000;0.262179
9638.000000;0.260027
9637.000000;0.257959
9636.000000;0.255914
9635.000000;0.253677
9634.000000;0.251236
9633.000000;0.248871
9632.000000;0.246740
9631.000000;0.244616
9630.000000;0.242244
9629.000000;0.239749
9628.000000;0.237465
9627.000000;0.235466
9626.000000;0.233538
9625.000000;0.231554
9624.000000;0.229615
9623.000000;0.227784
9622.000000;0.225885
9621.000000;0.223670
9620.000000;0.221083
9619.000000;0.218313
9618.000000;0.215644
9617.000000;0.213289
9616.000000;0.211284
9615.000000;0.209466
9614.000000;0.207581
9613.000000;0.205454
9612.000000;0.203087
9611.000000;0.200620
9610.000000;0.198196
9609.000000;0.195865
9608.000000;0.193582
9607.000000;0.191327
9606.000000;0.189190
9605.000000;0.187270
9604.000000;0.185478
9603.000000;0.183517
9602.000000;0.181156
9601.000000;0.178483
9600.000000;0.175833
9599.000000;0.173454
9598.000000;0.171282
9597.000000;0.169065
9596.000000;0.166662
9595.000000;0.164161
9594.000000;0.161740
9593.000000;0.159444
9592.000000;0.157178
9591.000000;0.154867
9590.000000;0.152545
9589.000000;0.150274
9588.000000;0.148054
9587.000000;0.145864
9586.000000;0.143709
9585.000000;0.141556
9584.000000;0.139321
9583.000000;0.136972
9582.000000;0.134574
9581.000000;0.132154
9580.000000;0.129630
9579.000000;0.126995
9578.000000;0.124484
9577.000000;0.122354
9576.000000;0.120539
9575.000000;0.118670
9574.000000;0.116438
9573.000000;0.113813
9572.000000;0.110962
9571.000000;0.108135
9570.000000;0.105612
9569.000000;0.103529
9568.000000;0.101677
9567.000000;0.099653
9566.000000;0.097280
9565.000000;0.094763
9564.000000;0.092375
9563.000000;0.090142
9562.000000;0.087898
9561.000000;0.085501
9560.000000;0.082914
9559.000000;0.080230
9558.000000;0.077715
9557.000000;0.075649
9556.000000;0.074002
9555.000000;0.072375
9554.000000;0.070414
9553.000000;0.068159
9552.000000;0.065833
9551.000000;0.063452
9550.000000;0.060887
9549.000000;0.058229
9548.000000;0.055804
9547.000000;0.053762
9546.000000;0.051885
9545.000000;0.049889
9544.000000;0.047780
9543.000000;0.045746
9542.000000;0.043804
9541.000000;0.041727
9540.000000;0.039337
9539.000000;0.036771
9538.000000;0.034387
9537.000000;0.032409
9536.000000;0.030698
9535.000000;0.028867
9534.000000;0.026625
9533.000000;0.024016
9532.000000;0.021336
9531.000000;0.018845
9530.000000;0.016598
9529.000000;0.014531
9528.000000;0.012640
9527.000000;0.010981
9526.000000;0.009509
9525.000000;0.007976
9524.000000;0.006096
9523.000000;0.003807
9522.000000;0.001329
9521.000000;-0.001060
9520.000000;-0.003246
9519.000000;-0.005299
9518.000000;-0.007326
9517.000000;-0.009352
9516.000000;-0.011282
9515.000000;-0.012978
9514.000000;-0.014418
9513.000000;-0.015808
9512.000000;-0.017445
9511.000000;-0.019414
9510.000000;-0.021504
9509.000000;-0.023477
9508.000000;-0.025313
9507.000000;-0.027109
9506.000000;-0.028859
9505.000000;-0.030521
9504.000000;-0.032209
9503.000000;-0.034113
9502.000000;-0.036187
9501.000000;-0.038125
9500.000000;-0.039718
9499.000000;-0.041125
9498.000000;-0.042646
9497.000000;-0.044321
9496.000000;-0.045886
9495.000000;-0.047134
9494.000000;-0.048186
9493.000000;-0.049349
9492.000000;-0.050768
9491.000000;-0.052287
9490.000000;-0.053709
9489.000000;-0.055053
9488.000000;-0.056477
9487.000000;-0.057975
9486.000000;-0.059332
9485.000000;-0.060431
9484.000000;-0.061461
9483.000000;-0.062677
9482.000000;-0.064055
9481.000000;-0.065329
9480.000000;-0.066334
9479.000000;-0.067188
9478.000000;-0.068131
9477.000000;-0.069300
9476.000000;-0.070633
9475.000000;-0.071926
9474.000000;-0.072993
9473.000000;-0.073858
9472.000000;-0.074757
9471.000000;-0.075873
9470.000000;-0.077100
9469.000000;-0.078195
9468.000000;-0.079064
9467.000000;-0.079796
9466.000000;-0.080445
9465.000000;-0.080971
9464.000000;-0.081417
9463.000000;-0.081947
9462.000000;-0.082658
9461.000000;-0.083448
9460.000000;-0.084146
9459.000000;-0.084667
9458.000000;-0.085010
9457.000000;-0.085217
9456.000000;-0.085410
9455.000000;-0.085760
9454.000000;-0.086331
9453.000000;-0.086955
9452.000000;-0.087371
9451.000000;-0.087492
9450.000000;-0.087511
9449.000000;-0.087716
9448.000000;-0.088184
9447.000000;-0.088654
9446.000000;-0.088773
9445.000000;-0.088481
9444.000000;-0.088085
9443.000000;-0.087915
9442.000000;-0.088000
9441.000000;-0.088148
9440.000000;-0.088248
9439.000000;-0.088341
9438.000000;-0.088467
9437.000000;-0.088589
9436.000000;-0.088671
9435.000000;-0.088693
9434.000000;-0.088576
9433.000000;-0.088254
9432.000000;-0.087824
9431.000000;-0.087518
9430.000000;-0.087452
9429.000000;-0.087499
9428.000000;-0.087440
9427.000000;-0.087151
9426.000000;-0.086660
9425.000000;-0.086090
9424.000000;-0.085577
9423.000000;-0.085168
9422.000000;-0.084773
9421.000000;-0.084263
9420.000000;-0.083616
9419.000000;-0.082922
9418.000000;-0.082281
9417.000000;-0.081752
9416.000000;-0.081364
9415.000000;-0.081077
9414.000000;-0.080763
9413.000000;-0.080306
9412.000000;-0.079707
9411.000000;-0.078994
9410.000000;-0.078096
9409.000000;-0.076971
9408.000000;-0.075810
9407.000000;-0.074929
9406.000000;-0.074402
9405.000000;-0.073962
9404.000000;-0.073325
9403.000000;-0.072492
9402.000000;-0.071631
9401.000000;-0.070795
9400.000000;-0.069887
9399.000000;-0.068867
9398.000000;-0.067883
9397.000000;-0.067144
9396.000000;-0.066662
9395.000000;-0.066171
9394.000000;-0.065330
9393.000000;-0.064046
9392.000000;-0.062558
9391.000000;-0.061193
9390.000000;-0.060102
9389.000000;-0.059266
9388.000000;-0.058622
9387.000000;-0.058045
9386.000000;-0.057298
9385.000000;-0.056197
9384.000000;-0.054835
9383.000000;-0.053496
9382.000000;-0.052334
9381.000000;-0.051263
9380.000000;-0.050173
9379.000000;-0.049111
9378.000000;-0.048180
9377.000000;-0.047363
9376.000000;-0.046518
9375.000000;-0.045509
9374.000000;-0.044310
9373.000000;-0.043021
9372.000000;-0.041795
9371.000000;-0.040689
9370.000000;-0.039618
9369.000000;-0.038504
9368.000000;-0.037420
9367.000000;-0.036473
9366.000000;-0.035596
9365.000000;-0.034570
9364.000000;-0.033271
9363.000000;-0.031791
9362.000000;-0.030294
9361.000000;-0.028866
9360.000000;-0.027511
9359.000000;-0.026199
9358.000000;-0.024887
9357.000000;-0.023601
9356.000000;-0.022466
9355.000000;-0.021540
9354.000000;-0.020639
9353.000000;-0.019476
9352.000000;-0.018036
9351.000000;-0.016665
9350.000000;-0.015686
9349.000000;-0.015033
9348.000000;-0.014357
9347.000000;-0.013407
9346.000000;-0.012199
9345.000000;-0.010863
9344.000000;-0.009452
9343.000000;-0.007938
9342.000000;-0.006340
9341.000000;-0.004790
9340.000000;-0.003439
9339.000000;-0.002312
9338.000000;-0.001281
9337.000000;-0.000203
9336.000000;0.000944
9335.000000;0.002097
9334.000000;0.003225
9333.000000;0.004339
9332.000000;0.005454
9331.000000;0.006590
9330.000000;0.007788
9329.000000;0.009041
9328.000000;0.010244
9327.000000;0.011304
9326.000000;0.012266
9325.000000;0.013254
9324.000000;0.014344
9323.000000;0.015560
9322.000000;0.016930
9321.000000;0.018399
9320.000000;0.019744
9319.000000;0.020748
9318.000000;0.021484
9317.000000;0.022282
9316.000000;0.023379
9315.000000;0.024728
9314.000000;0.026152
9313.000000;0.027533
9312.000000;0.028806
9311.000000;0.029897
9310.000000;0.030810
9309.000000;0.031692
9308.000000;0.032723
9307.000000;0.033967
9306.000000;0.035350
9305.000000;0.036727
9304.000000;0.037956
9303.000000;0.038967
9302.000000;0.039824
9301.000000;0.040673
9300.000000;0.041630
9299.000000;0.042756
9298.000000;0.044110
9297.000000;0.045692
9296.000000;0.047326
9295.000000;0.048728
9294.000000;0.049792
9293.000000;0.050706
9292.000000;0.051714
9291.000000;0.052831
9290.000000;0.053887
9289.000000;0.054806
9288.000000;0.055718
9287.000000;0.056767
9286.000000;0.057909
9285.000000;0.058954
9284.000000;0.059813
9283.000000;0.060632
9282.000000;0.061662
9281.000000;0.062979
9280.000000;0.064385
9279.000000;0.065596
9278.000000;0.066501
9277.000000;0.067244
9276.000000;0.068077
9275.000000;0.069160
9274.000000;0.070465
9273.000000;0.071795
9272.000000;0.072936
9271.000000;0.073834
9270.000000;0.074631
9269.000000;0.075526
9268.000000;0.076590
9267.000000;0.077728
9266.000000;0.078778
9265.000000;0.079639
9264.000000;0.080367
9263.000000;0.081158
9262.000000;0.082175
9261.000000;0.083347
9260.000000;0.084437
9259.000000;0.085342
9258.000000;0.086207
9257.000000;0.087205
9256.000000;0.088325
9255.000000;0.089469
9254.000000;0.090611
9253.000000;0.091727
9252.000000;0.092695
9251.000000;0.093463
9250.000000;0.094209
9249.000000;0.095133
9248.000000;0.096123
9247.000000;0.096875
9246.000000;0.097326
9245.000000;0.097769
9244.000000;0.098498
9243.000000;0.099529
9242.000000;0.100715
9241.000000;0.101936
9240.000000;0.103085
9239.000000;0.104021
9238.000000;0.104695
9237.000000;0.105241
9236.000000;0.105870
9235.000000;0.106698
9234.000000;0.107709
9233.000000;0.108795
9232.000000;0.109806
9231.000000;0.110649
9230.000000;0.111391
9229.000000;0.112191
9228.000000;0.113100
9227.000000;0.114028
9226.000000;0.114894
9225.000000;0.115715
9224.000000;0.116506
9223.000000;0.117251
9222.000000;0.118010
9221.000000;0.118929
9220.000000;0.120039
9219.000000;0.121155
9218.000000;0.122061
9217.000000;0.122742
9216.000000;0.123313
9215.000000;0.123814
9214.000000;0.124188
9213.000000;0.124458
9212.000000;0.124797
9211.000000;0.125410
9210.000000;0.126377
9209.000000;0.127605
9208.000000;0.128901
9207.000000;0.130097
9206.000000;0.131129
9205.000000;0.132011
9204.000000;0.132756
9203.000000;0.133365
9202.000000;0.133899
9201.000000;0.134475
9200.000000;0.135154
9199.000000;0.135875
9198.000000;0.136538
9197.000000;0.137128
9196.000000;0.137721
9195.000000;0.138399
9194.000000;0.139156
9193.000000;0.139882
9192.000000;0.140446
9191.000000;0.140821
9190.000000;0.141146
9189.000000;0.141626
9188.000000;0.142364
9187.000000;0.143319
9186.000000;0.144385
9185.000000;0.145456
9184.000000;0.146421
9183.000000;0.147182
9182.000000;0.147722
9181.000000;0.148134
9180.000000;0.148549
9179.000000;0.149058
9178.000000;0.149673
9177.000000;0.150338
9176.000000;0.150973
9175.000000;0.151570
9174.000000;0.152211
9173.000000;0.152955
9172.000000;0.153740
9171.000000;0.154447
9170.000000;0.155056
9169.000000;0.155667
9168.000000;0.156349
9167.000000;0.157051
9166.000000;0.157662
9165.000000;0.158120
9164.000000;0.158469
9163.000000;0.158855
9162.000000;0.159442
9161.000000;0.160241
9160.000000;0.161061
9159.000000;0.161676
9158.000000;0.162064
9157.000000;0.162397
9156.000000;0.162826
9155.000000;0.163375
9154.000000;0.164013
9153.000000;0.164693
9152.000000;0.165317
9151.000000;0.165791
9150.000000;0.166192
9149.000000;0.166748
9148.000000;0.167588
9147.000000;0.168571
9146.000000;0.169442
9145.000000;0.170077
9144.000000;0.170532
9143.000000;0.170899
9142.000000;0.171237
9141.000000;0.171589
9140.000000;0.171994
9139.000000;0.172449
9138.000000;0.172918
9137.000000;0.173387
9136.000000;0.173891
9135.000000;0.174472
9134.000000;0.175121
9133.000000;0.175777
9132.000000;0.176364
9131.000000;0.176849
9130.000000;0.177256
9129.000000;0.177650
9128.000000;0.178116
9127.000000;0.178725
9126.000000;0.179459
9125.000000;0.180157
9124.000000;0.180629
9123.000000;0.180875
9122.000000;0.181128
9121.000000;0.181599
9120.000000;0.182233
9119.000000;0.182800
9118.000000;0.183182
9117.000000;0.183455
9116.000000;0.183725
9115.000000;0.184030
9114.000000;0.184414
9113.000000;0.184964
9112.000000;0.185679
9111.000000;0.186393
9110.000000;0.186909
9109.000000;0.187191
9108.000000;0.187379
9107.000000;0.187622
9106.000000;0.187962
9105.000000;0.188348
9104.000000;0.188735
9103.000000;0.189131
9102.000000;0.189559
9101.000000;0.190001
9100.000000;0.190442
9099.000000;0.190939
9098.000000;0.191578
9097.000000;0.192312
9096.000000;0.192945
9095.000000;0.193345
9094.000000;0.193610
9093.000000;0.193928
9092.000000;0.194334
9091.000000;0.194695
9090.000000;0.194920
9089.000000;0.195041
9088.000000;0.195132
9087.000000;0.195254
9086.000000;0.195485
9085.000000;0.195882
9084.000000;0.196375
9083.000000;0.196803
9082.000000;0.197078
9081.000000;0.197253
9080.000000;0.197409
9079.000000;0.197585
9078.000000;0.197820
9077.000000;0.198188
9076.000000;0.198738
9075.000000;0.199446
9074.000000;0.200229
9073.000000;0.200958
9072.000000;0.201486
9071.000000;0.201751
9070.000000;0.201887
9069.000000;0.202115
9068.000000;0.202507
9067.000000;0.202937
9066.000000;0.203270
9065.000000;0.203516
9064.000000;0.203748
9063.000000;0.203985
9062.000000;0.204207
