Criado como novo conjunto de dados;"0307_DANIEL.spp","40683.9 Secs"
cm-1;Abs
10000.000000;1.053853
9999.000000;1.052583
9998.000000;1.050917
9997.000000;1.049055
9996.000000;1.047167
9995.000000;1.045283
9994.000000;1.043620
9993.000000;1.042415
9992.000000;1.041810
9991.000000;1.041611
9990.000000;1.041366
9989.000000;1.040618
9988.000000;1.039192
9987.000000;1.037256
9986.000000;1.035265
9985.000000;1.033811
9984.000000;1.033276
9983.000000;1.033431
9982.000000;1.033513
9981.000000;1.032900
9980.000000;1.031562
9979.000000;1.029734
9978.000000;1.027448
9977.000000;1.024769
9976.000000;1.022228
9975.000000;1.020483
9974.000000;1.019556
9973.000000;1.018818
9972.000000;1.017798
9971.000000;1.016622
9970.000000;1.015584
9969.000000;1.014682
9968.000000;1.013784
9967.000000;1.012875
9966.000000;1.011897
9965.000000;1.010598
9964.000000;1.008809
9963.000000;1.006716
9962.000000;1.004692
9961.000000;1.002997
9960.000000;1.001740
9959.000000;1.000924
9958.000000;1.000368
9957.000000;0.999762
9956.000000;0.998950
9955.000000;0.998056
9954.000000;0.997224
9953.000000;0.996394
9952.000000;0.995434
9951.000000;0.994308
9950.000000;0.993013
9949.000000;0.991519
9948.000000;0.989939
9947.000000;0.988562
9946.000000;0.987557
9945.000000;0.986740
9944.000000;0.985751
9943.000000;0.984350
9942.000000;0.982485
9941.000000;0.980276
9940.000000;0.978086
9939.000000;0.976396
9938.000000;0.975390
9937.000000;0.974732
9936.000000;0.973924
9935.000000;0.972819
9934.000000;0.971624
9933.000000;0.970505
9932.000000;0.969390
9931.000000;0.968117
9930.000000;0.966636
9929.000000;0.965058
9928.000000;0.963566
9927.000000;0.962252
9926.000000;0.961000
9925.000000;0.959581
9924.000000;0.957932
9923.000000;0.956252
9922.000000;0.954782
9921.000000;0.953586
9920.000000;0.952594
9919.000000;0.951728
9918.000000;0.950880
9917.000000;0.949871
9916.000000;0.948596
9915.000000;0.947153
9914.000000;0.945696
9913.000000;0.944208
9912.000000;0.942566
9911.000000;0.940811
9910.000000;0.939216
9909.000000;0.938017
9908.000000;0.937150
9907.000000;0.936354
9906.000000;0.935487
9905.000000;0.934628
9904.000000;0.933812
9903.000000;0.932799
9902.000000;0.931343
9901.000000;0.929624
9900.000000;0.928122
9899.000000;0.926935
9898.000000;0.925504
9897.000000;0.923314
9896.000000;0.920722
9895.000000;0.918715
9894.000000;0.917837
9893.000000;0.917629
9892.000000;0.917148
9891.000000;0.915842
9890.000000;0.913909
9889.000000;0.912002
9888.000000;0.910644
9887.000000;0.909782
9886.000000;0.908818
9885.000000;0.907236
9884.000000;0.905191
9883.000000;0.903350
9882.000000;0.902166
9881.000000;0.901511
9880.000000;0.900960
9879.000000;0.900163
9878.000000;0.898908
9877.000000;0.897115
9876.000000;0.894946
9875.000000;0.892741
9874.000000;0.890730
9873.000000;0.888923
9872.000000;0.887318
9871.000000;0.886017
9870.000000;0.885047
9869.000000;0.884261
9868.000000;0.883503
9867.000000;0.882705
9866.000000;0.881738
9865.000000;0.880381
9864.000000;0.878572
9863.000000;0.876547
9862.000000;0.874592
9861.000000;0.872760
9860.000000;0.870949
9859.000000;0.869136
9858.000000;0.867452
9857.000000;0.866104
9856.000000;0.865216
9855.000000;0.864599
9854.000000;0.863663
9853.000000;0.861825
9852.000000;0.859153
9851.000000;0.856433
9850.000000;0.854472
9849.000000;0.853443
9848.000000;0.852931
9847.000000;0.852406
9846.000000;0.851540
9845.000000;0.850264
9844.000000;0.848688
9843.000000;0.846905
9842.000000;0.844848
9841.000000;0.842493
9840.000000;0.840189
9839.000000;0.838487
9838.000000;0.837518
9837.000000;0.836783
9836.000000;0.835716
9835.000000;0.834218
9834.000000;0.832489
9833.000000;0.830660
9832.000000;0.828857
9831.000000;0.827360
9830.000000;0.826296
9829.000000;0.825312
9828.000000;0.823951
9827.000000;0.822267
9826.000000;0.820733
9825.000000;0.819526
9824.000000;0.818275
9823.000000;0.816545
9822.000000;0.814313
9821.000000;0.811898
9820.000000;0.809668
9819.000000;0.807913
9818.000000;0.806750
9817.000000;0.806014
9816.000000;0.805380
9815.000000;0.804650
9814.000000;0.803762
9813.000000;0.802501
9812.000000;0.800519
9811.000000;0.797842
9810.000000;0.795140
9809.000000;0.793224
9808.000000;0.792291
9807.000000;0.791855
9806.000000;0.791349
9805.000000;0.790579
9804.000000;0.789590
9803.000000;0.788339
9802.000000;0.786678
9801.000000;0.784549
9800.000000;0.782058
9799.000000;0.779408
9798.000000;0.776876
9797.000000;0.774790
9796.000000;0.773331
9795.000000;0.772315
9794.000000;0.771268
9793.000000;0.769825
9792.000000;0.768016
9791.000000;0.766144
9790.000000;0.764470
9789.000000;0.763035
9788.000000;0.761679
9787.000000;0.760127
9786.000000;0.758161
9785.000000;0.755847
9784.000000;0.753564
9783.000000;0.751721
9782.000000;0.750417
9781.000000;0.749407
9780.000000;0.748334
9779.000000;0.746954
9778.000000;0.745265
9777.000000;0.743540
9776.000000;0.742167
9775.000000;0.741232
9774.000000;0.740281
9773.000000;0.738682
9772.000000;0.736284
9771.000000;0.733593
9770.000000;0.731226
9769.000000;0.729347
9768.000000;0.727692
9767.000000;0.726010
9766.000000;0.724325
9765.000000;0.722789
9764.000000;0.721432
9763.000000;0.720148
9762.000000;0.718886
9761.000000;0.717696
9760.000000;0.716473
9759.000000;0.714766
9758.000000;0.712147
9757.000000;0.708845
9756.000000;0.705749
9755.000000;0.703532
9754.000000;0.701970
9753.000000;0.700374
9752.000000;0.698531
9751.000000;0.696845
9750.000000;0.695577
9749.000000;0.694399
9748.000000;0.692873
9747.000000;0.691047
9746.000000;0.689284
9745.000000;0.687727
9744.000000;0.686203
9743.000000;0.684582
9742.000000;0.682950
9741.000000;0.681398
9740.000000;0.679816
9739.000000;0.677983
9738.000000;0.675811
9737.000000;0.673501
9736.000000;0.671449
9735.000000;0.669929
9734.000000;0.668810
9733.000000;0.667605
9732.000000;0.665861
9731.000000;0.663489
9730.000000;0.660758
9729.000000;0.658039
9728.000000;0.655580
9727.000000;0.653414
9726.000000;0.651399
9725.000000;0.649360
9724.000000;0.647239
9723.000000;0.645118
9722.000000;0.643123
9721.000000;0.641353
9720.000000;0.639830
9719.000000;0.638434
9718.000000;0.636951
9717.000000;0.635310
9716.000000;0.633718
9715.000000;0.632388
9714.000000;0.631175
9713.000000;0.629672
9712.000000;0.627703
9711.000000;0.625532
9710.000000;0.623516
9709.000000;0.621756
9708.000000;0.620169
9707.000000;0.618672
9706.000000;0.617098
9705.000000;0.615118
9704.000000;0.612535
9703.000000;0.609639
9702.000000;0.607038
9701.000000;0.605060
9700.000000;0.603441
9699.000000;0.601662
9698.000000;0.599515
9697.000000;0.597245
9696.000000;0.595190
9695.000000;0.593394
9694.000000;0.591635
9693.000000;0.589752
9692.000000;0.587815
9691.000000;0.585953
9690.000000;0.584157
9689.000000;0.582386
9688.000000;0.580731
9687.000000;0.579262
9686.000000;0.577734
9685.000000;0.575684
9684.000000;0.572949
9683.000000;0.569916
9682.000000;0.567155
9681.000000;0.564910
9680.000000;0.563038
9679.000000;0.561296
9678.000000;0.559486
9677.000000;0.557441
9676.000000;0.555090
9675.000000;0.552585
9674.000000;0.550182
9673.000000;0.547950
9672.000000;0.545715
9671.000000;0.543390
9670.000000;0.541208
9669.000000;0.539504
9668.000000;0.538295
9667.000000;0.537218
9666.000000;0.535884
9665.000000;0.534159
9664.000000;0.532065
9663.000000;0.529569
9662.000000;0.526676
9661.000000;0.523662
9660.000000;0.520973
9659.000000;0.518807
9658.000000;0.516936
9657.000000;0.515028
9656.000000;0.513040
9655.000000;0.511173
9654.000000;0.509521
9653.000000;0.507927
9652.000000;0.506163
9651.000000;0.504122
9650.000000;0.501834
9649.000000;0.499412
9648.000000;0.497024
9647.000000;0.494823
9646.000000;0.492831
9645.000000;0.490925
9644.000000;0.488939
9643.000000;0.486762
9642.000000;0.484363
9641.000000;0.481809
9640.000000;0.479279
9639.000000;0.476989
9638.000000;0.475006
9637.000000;0.473158
9636.000000;0.471149
9635.000000;0.468822
9634.000000;0.466320
9633.000000;0.463939
9632.000000;0.461844
9631.000000;0.459935
9630.000000;0.458011
9629.000000;0.455966
9628.000000;0.453763
9627.000000;0.451322
9626.000000;0.448608
9625.000000;0.445805
9624.000000;0.443209
9623.000000;0.440917
9622.000000;0.438758
9621.000000;0.436554
9620.000000;0.434285
9619.000000;0.431981
9618.000000;0.429658
9617.000000;0.427422
9616.000000;0.425416
9615.000000;0.423542
9614.000000;0.421442
9613.000000;0.418941
9612.000000;0.416339
9611.000000;0.414072
9610.000000;0.412256
9609.000000;0.410689
9608.000000;0.409106
9607.000000;0.407237
9606.000000;0.404794
9605.000000;0.401754
9604.000000;0.398559
9603.000000;0.395768
9602.000000;0.393510
9601.000000;0.391502
9600.000000;0.389510
9599.000000;0.387524
9598.000000;0.385520
9597.000000;0.383357
9596.000000;0.380998
9595.000000;0.378597
9594.000000;0.376290
9593.000000;0.374081
9592.000000;0.371975
9591.000000;0.370038
9590.000000;0.368225
9589.000000;0.366303
9588.000000;0.364065
9587.000000;0.361497
9586.000000;0.358713
9585.000000;0.355817
9584.000000;0.352913
9583.000000;0.350109
9582.000000;0.347441
9581.000000;0.344857
9580.000000;0.342305
9579.000000;0.339783
9578.000000;0.337295
9577.000000;0.334841
9576.000000;0.332433
9575.000000;0.330059
9574.000000;0.327645
9573.000000;0.325138
9572.000000;0.322589
9571.000000;0.320086
9570.000000;0.317664
9569.000000;0.315358
9568.000000;0.313247
9567.000000;0.311308
9566.000000;0.309350
9565.000000;0.307235
9564.000000;0.305076
9563.000000;0.303024
9562.000000;0.300963
9561.000000;0.298646
9560.000000;0.296081
9559.000000;0.293548
9558.000000;0.291240
9557.000000;0.289113
9556.000000;0.287051
9555.000000;0.284964
9554.000000;0.282708
9553.000000;0.280165
9552.000000;0.277453
9551.000000;0.274863
9550.000000;0.272526
9549.000000;0.270326
9548.000000;0.268166
9547.000000;0.266116
9546.000000;0.264230
9545.000000;0.262398
9544.000000;0.260443
9543.000000;0.258261
9542.000000;0.255839
9541.000000;0.253283
9540.000000;0.250816
9539.000000;0.248563
9538.000000;0.246335
9537.000000;0.243857
9536.000000;0.241230
9535.000000;0.238910
9534.000000;0.237133
9533.000000;0.235579
9532.000000;0.233771
9531.000000;0.231621
9530.000000;0.229418
9529.000000;0.227387
9528.000000;0.225469
9527.000000;0.223492
9526.000000;0.221415
9525.000000;0.219348
9524.000000;0.217375
9523.000000;0.215383
9522.000000;0.213170
9521.000000;0.210753
9520.000000;0.208457
9519.000000;0.206556
9518.000000;0.204925
9517.000000;0.203207
9516.000000;0.201247
9515.000000;0.199172
9514.000000;0.197099
9513.000000;0.195029
9512.000000;0.192989
9511.000000;0.191000
9510.000000;0.188919
9509.000000;0.186583
9508.000000;0.184195
9507.000000;0.182236
9506.000000;0.180911
9505.000000;0.179914
9504.000000;0.178841
9503.000000;0.177573
9502.000000;0.176121
9501.000000;0.174404
9500.000000;0.172407
9499.000000;0.170361
9498.000000;0.168537
9497.000000;0.166985
9496.000000;0.165601
9495.000000;0.164270
9494.000000;0.162803
9493.000000;0.160985
9492.000000;0.158922
9491.000000;0.157125
9490.000000;0.155975
9489.000000;0.155219
9488.000000;0.154265
9487.000000;0.152868
9486.000000;0.151268
9485.000000;0.149738
9484.000000;0.148320
9483.000000;0.147017
9482.000000;0.145930
9481.000000;0.145094
9480.000000;0.144364
9479.000000;0.143562
9478.000000;0.142625
9477.000000;0.141544
9476.000000;0.140288
9475.000000;0.138894
9474.000000;0.137527
9473.000000;0.136341
9472.000000;0.135316
9471.000000;0.134315
9470.000000;0.133295
9469.000000;0.132378
9468.000000;0.131666
9467.000000;0.131054
9466.000000;0.130305
9465.000000;0.129331
9464.000000;0.128310
9463.000000;0.127467
9462.000000;0.126806
9461.000000;0.126175
9460.000000;0.125503
9459.000000;0.124870
9458.000000;0.124342
9457.000000;0.123887
9456.000000;0.123451
9455.000000;0.122985
9454.000000;0.122419
9453.000000;0.121765
9452.000000;0.121247
9451.000000;0.121124
9450.000000;0.121338
9449.000000;0.121507
9448.000000;0.121386
9447.000000;0.121123
9446.000000;0.120977
9445.000000;0.120953
9444.000000;0.120903
9443.000000;0.120789
9442.000000;0.120673
9441.000000;0.120548
9440.000000;0.120394
9439.000000;0.120303
9438.000000;0.120377
9437.000000;0.120539
9436.000000;0.120622
9435.000000;0.120602
9434.000000;0.120586
9433.000000;0.120615
9432.000000;0.120647
9431.000000;0.120707
9430.000000;0.120890
9429.000000;0.121175
9428.000000;0.121389
9427.000000;0.121403
9426.000000;0.121310
9425.000000;0.121349
9424.000000;0.121723
9423.000000;0.122475
9422.000000;0.123458
9421.000000;0.124385
9420.000000;0.124974
9419.000000;0.125125
9418.000000;0.125008
9417.000000;0.124982
9416.000000;0.125350
9415.000000;0.126086
9414.000000;0.126841
9413.000000;0.127326
9412.000000;0.127691
9411.000000;0.128349
9410.000000;0.129425
9409.000000;0.130591
9408.000000;0.131530
9407.000000;0.132334
9406.000000;0.133269
9405.000000;0.134340
9404.000000;0.135327
9403.000000;0.136121
9402.000000;0.136779
9401.000000;0.137328
9400.000000;0.137775
9399.000000;0.138250
9398.000000;0.138900
9397.000000;0.139667
9396.000000;0.140410
9395.000000;0.141200
9394.000000;0.142217
9393.000000;0.143348
9392.000000;0.144221
9391.000000;0.144761
9390.000000;0.145380
9389.000000;0.146410
9388.000000;0.147597
9387.000000;0.148460
9386.000000;0.149009
9385.000000;0.149783
9384.000000;0.151176
9383.000000;0.152978
9382.000000;0.154667
9381.000000;0.155943
9380.000000;0.156902
9379.000000;0.157804
9378.000000;0.158835
9377.000000;0.160040
9376.000000;0.161351
9375.000000;0.162648
9374.000000;0.163849
9373.000000;0.164991
9372.000000;0.166191
9371.000000;0.167494
9370.000000;0.168771
9369.000000;0.169812
9368.000000;0.170556
9367.000000;0.171180
9366.000000;0.171940
9365.000000;0.172934
9364.000000;0.174071
9363.000000;0.175245
9362.000000;0.176456
9361.000000;0.177726
9360.000000;0.178982
9359.000000;0.180114
9358.000000;0.181122
9357.000000;0.182114
9356.000000;0.183151
9355.000000;0.184179
9354.000000;0.185149
9353.000000;0.186150
9352.000000;0.187323
9351.000000;0.188681
9350.000000;0.190090
9349.000000;0.191442
9348.000000;0.192769
9347.000000;0.194157
9346.000000;0.195603
9345.000000;0.197007
9344.000000;0.198265
9343.000000;0.199351
9342.000000;0.200319
9341.000000;0.201290
9340.000000;0.202379
9339.000000;0.203568
9338.000000;0.204683
9337.000000;0.205593
9336.000000;0.206430
9335.000000;0.207525
9334.000000;0.209042
9333.000000;0.210740
9332.000000;0.212148
9331.000000;0.213000
9330.000000;0.213477
9329.000000;0.214025
9328.000000;0.214963
9327.000000;0.216256
9326.000000;0.217644
9325.000000;0.218956
9324.000000;0.220274
9323.000000;0.221757
9322.000000;0.223365
9321.000000;0.224822
9320.000000;0.225869
9319.000000;0.226533
9318.000000;0.227118
9317.000000;0.227946
9316.000000;0.229084
9315.000000;0.230327
9314.000000;0.231436
9313.000000;0.232403
9312.000000;0.233411
9311.000000;0.234575
9310.000000;0.235802
9309.000000;0.236958
9308.000000;0.238064
9307.000000;0.239237
9306.000000;0.240502
9305.000000;0.241785
9304.000000;0.243056
9303.000000;0.244337
9302.000000;0.245585
9301.000000;0.246672
9300.000000;0.247524
9299.000000;0.248221
9298.000000;0.248959
9297.000000;0.249964
9296.000000;0.251377
9295.000000;0.253121
9294.000000;0.254879
9293.000000;0.256344
9292.000000;0.257491
9291.000000;0.258508
9290.000000;0.259482
9289.000000;0.260298
9288.000000;0.260876
9287.000000;0.261345
9286.000000;0.261924
9285.000000;0.262746
9284.000000;0.263847
9283.000000;0.265199
9282.000000;0.266645
9281.000000;0.267908
9280.000000;0.268821
9279.000000;0.269508
9278.000000;0.270265
9277.000000;0.271301
9276.000000;0.272634
9275.000000;0.274152
9274.000000;0.275681
9273.000000;0.277048
9272.000000;0.278180
9271.000000;0.279154
9270.000000;0.280068
9269.000000;0.280917
9268.000000;0.281632
9267.000000;0.282228
9266.000000;0.282829
9265.000000;0.283547
9264.000000;0.284397
9263.000000;0.285340
9262.000000;0.286368
9261.000000;0.287498
9260.000000;0.288678
9259.000000;0.289717
9258.000000;0.290406
9257.000000;0.290786
9256.000000;0.291216
9255.000000;0.292058
9254.000000;0.293270
9253.000000;0.294466
9252.000000;0.295383
9251.000000;0.296168
9250.000000;0.297133
9249.000000;0.298370
9248.000000;0.299705
9247.000000;0.300929
9246.000000;0.301924
9245.000000;0.302671
9244.000000;0.303271
9243.000000;0.303959
9242.000000;0.304926
9241.000000;0.306095
9240.000000;0.307172
9239.000000;0.307980
9238.000000;0.308640
9237.000000;0.309379
9236.000000;0.310220
9235.000000;0.310968
9234.000000;0.311492
9233.000000;0.311959
9232.000000;0.312706
9231.000000;0.313889
9230.000000;0.315294
9229.000000;0.316543
9228.000000;0.317450
9227.000000;0.318135
9226.000000;0.318796
9225.000000;0.319488
9224.000000;0.320140
9223.000000;0.320709
9222.000000;0.321231
9221.000000;0.321751
9220.000000;0.322262
9219.000000;0.322729
9218.000000;0.323177
9217.000000;0.323751
9216.000000;0.324638
9215.000000;0.325869
9214.000000;0.327203
9213.000000;0.328294
9212.000000;0.328996
9211.000000;0.329451
9210.000000;0.329883
9209.000000;0.330393
9208.000000;0.330997
9207.000000;0.331734
9206.000000;0.332629
9205.000000;0.333607
9204.000000;0.334564
9203.000000;0.335474
9202.000000;0.336351
9201.000000;0.337122
9200.000000;0.337661
9199.000000;0.337994
9198.000000;0.338349
9197.000000;0.338951
9196.000000;0.339792
9195.000000;0.340667
9194.000000;0.341407
9193.000000;0.342014
9192.000000;0.342584
9191.000000;0.343170
9190.000000;0.343768
9189.000000;0.344391
9188.000000;0.345095
9187.000000;0.345903
9186.000000;0.346766
9185.000000;0.347608
9184.000000;0.348370
9183.000000;0.348991
9182.000000;0.349424
9181.000000;0.349758
9180.000000;0.350242
9179.000000;0.351045
9178.000000;0.351990
9177.000000;0.352664
9176.000000;0.352882
9175.000000;0.352933
9174.000000;0.353281
9173.000000;0.354069
9172.000000;0.355014
9171.000000;0.355769
9170.000000;0.356279
9169.000000;0.356763
9168.000000;0.357418
9167.000000;0.358223
9166.000000;0.359014
9165.000000;0.359671
9164.000000;0.360232
9163.000000;0.360839
9162.000000;0.361604
9161.000000;0.362485
9160.000000;0.363277
9159.000000;0.363746
9158.000000;0.363852
9157.000000;0.363850
9156.000000;0.364108
9155.000000;0.364787
9154.000000;0.365720
9153.000000;0.366609
9152.000000;0.367275
9151.000000;0.367726
9150.000000;0.368067
9149.000000;0.368417
9148.000000;0.368866
9147.000000;0.369408
9146.000000;0.369963
9145.000000;0.370489
9144.000000;0.371046
9143.000000;0.371668
9142.000000;0.372249
9141.000000;0.372661
9140.000000;0.372956
9139.000000;0.373323
9138.000000;0.373854
9137.000000;0.374436
9136.000000;0.374892
9135.000000;0.375128
9134.000000;0.375168
9133.000000;0.375148
9132.000000;0.375309
9131.000000;0.375858
9130.000000;0.376773
9129.000000;0.377788
9128.000000;0.378632
9127.000000;0.379247
9126.000000;0.379738
9125.000000;0.380205
9124.000000;0.380671
9123.000000;0.381130
9122.000000;0.381567
9121.000000;0.381962
9120.000000;0.382298
9119.000000;0.382571
9118.000000;0.382793
9117.000000;0.383008
9116.000000;0.383327
9115.000000;0.383864
9114.000000;0.384596
9113.000000;0.385332
9112.000000;0.385870
9111.000000;0.386158
9110.000000;0.386273
9109.000000;0.386303
9108.000000;0.386325
9107.000000;0.386466
9106.000000;0.386881
9105.000000;0.387589
9104.000000;0.388393
9103.000000;0.389034
9102.000000;0.389442
9101.000000;0.389779
9100.000000;0.390213
9099.000000;0.390710
9098.000000;0.391132
9097.000000;0.391466
9096.000000;0.391841
9095.000000;0.392312
9094.000000;0.392756
9093.000000;0.393063
9092.000000;0.393319
9091.000000;0.393710
9090.000000;0.394285
9089.000000;0.394906
9088.000000;0.395396
9087.000000;0.395681
9086.000000;0.395820
9085.000000;0.395974
9084.000000;0.396285
9083.000000;0.396712
9082.000000;0.397037
9081.000000;0.397136
9080.000000;0.397177
9079.000000;0.397442
9078.000000;0.398002
9077.000000;0.398678
9076.000000;0.399295
9075.000000;0.399807
9074.000000;0.400169
9073.000000;0.400288
9072.000000;0.400179
9071.000000;0.400053
9070.000000;0.400137
9069.000000;0.400447
9068.000000;0.400823
9067.000000;0.401138
9066.000000;0.401411
9065.000000;0.401722
9064.000000;0.402082
9063.000000;0.402397
9062.000000;0.402577
9061.000000;0.402682
9060.000000;0.402921
9059.000000;0.403438
9058.000000;0.404117
9057.000000;0.404657
9056.000000;0.404869
9055.000000;0.404863
9054.000000;0.404933
9053.000000;0.405285
