Criado como novo conjunto de dados;"0307_DANIEL.spp","49684.9 Secs"
cm-1;Abs
10000.000000;0.557485
9999.000000;0.556160
9998.000000;0.554581
9997.000000;0.553054
9996.000000;0.551929
9995.000000;0.551272
9994.000000;0.550888
9993.000000;0.550385
9992.000000;0.549522
9991.000000;0.548350
9990.000000;0.547075
9989.000000;0.545771
9988.000000;0.544384
9987.000000;0.542957
9986.000000;0.541698
9985.000000;0.540742
9984.000000;0.539962
9983.000000;0.539105
9982.000000;0.538053
9981.000000;0.536894
9980.000000;0.535767
9979.000000;0.534702
9978.000000;0.533593
9977.000000;0.532347
9976.000000;0.531030
9975.000000;0.529848
9974.000000;0.528936
9973.000000;0.528183
9972.000000;0.527329
9971.000000;0.526221
9970.000000;0.524911
9969.000000;0.523526
9968.000000;0.522122
9967.000000;0.520698
9966.000000;0.519282
9965.000000;0.517934
9964.000000;0.516702
9963.000000;0.515579
9962.000000;0.514492
9961.000000;0.513343
9960.000000;0.512104
9959.000000;0.510853
9958.000000;0.509691
9957.000000;0.508603
9956.000000;0.507488
9955.000000;0.506320
9954.000000;0.505203
9953.000000;0.504216
9952.000000;0.503286
9951.000000;0.502262
9950.000000;0.501084
9949.000000;0.499816
9948.000000;0.498547
9947.000000;0.497313
9946.000000;0.496100
9945.000000;0.494883
9944.000000;0.493655
9943.000000;0.492443
9942.000000;0.491290
9941.000000;0.490192
9940.000000;0.489079
9939.000000;0.487893
9938.000000;0.486671
9937.000000;0.485500
9936.000000;0.484398
9935.000000;0.483276
9934.000000;0.482027
9933.000000;0.480622
9932.000000;0.479128
9931.000000;0.477662
9930.000000;0.476344
9929.000000;0.475260
9928.000000;0.474397
9927.000000;0.473598
9926.000000;0.472625
9925.000000;0.471309
9924.000000;0.469688
9923.000000;0.467983
9922.000000;0.466439
9921.000000;0.465186
9920.000000;0.464226
9919.000000;0.463481
9918.000000;0.462786
9917.000000;0.461887
9916.000000;0.460580
9915.000000;0.458919
9914.000000;0.457246
9913.000000;0.455900
9912.000000;0.454903
9911.000000;0.453961
9910.000000;0.452765
9909.000000;0.451268
9908.000000;0.449671
9907.000000;0.448201
9906.000000;0.446928
9905.000000;0.445755
9904.000000;0.444537
9903.000000;0.443239
9902.000000;0.441969
9901.000000;0.440838
9900.000000;0.439798
9899.000000;0.438675
9898.000000;0.437395
9897.000000;0.436077
9896.000000;0.434861
9895.000000;0.433696
9894.000000;0.432414
9893.000000;0.430976
9892.000000;0.429528
9891.000000;0.428194
9890.000000;0.426913
9889.000000;0.425539
9888.000000;0.424041
9887.000000;0.422530
9886.000000;0.421139
9885.000000;0.419905
9884.000000;0.418763
9883.000000;0.417590
9882.000000;0.416307
9881.000000;0.414965
9880.000000;0.413709
9879.000000;0.412606
9878.000000;0.411546
9877.000000;0.410339
9876.000000;0.408919
9875.000000;0.407394
9874.000000;0.405907
9873.000000;0.404514
9872.000000;0.403178
9871.000000;0.401845
9870.000000;0.400497
9869.000000;0.399160
9868.000000;0.397876
9867.000000;0.396615
9866.000000;0.395259
9865.000000;0.393706
9864.000000;0.392013
9863.000000;0.390384
9862.000000;0.388997
9861.000000;0.387850
9860.000000;0.386791
9859.000000;0.385658
9858.000000;0.384373
9857.000000;0.382967
9856.000000;0.381522
9855.000000;0.380099
9854.000000;0.378682
9853.000000;0.377213
9852.000000;0.375676
9851.000000;0.374122
9850.000000;0.372610
9849.000000;0.371151
9848.000000;0.369729
9847.000000;0.368356
9846.000000;0.367072
9845.000000;0.365885
9844.000000;0.364734
9843.000000;0.363509
9842.000000;0.362132
9841.000000;0.360622
9840.000000;0.359085
9839.000000;0.357631
9838.000000;0.356279
9837.000000;0.354955
9836.000000;0.353552
9835.000000;0.352016
9834.000000;0.350391
9833.000000;0.348801
9832.000000;0.347353
9831.000000;0.346024
9830.000000;0.344695
9829.000000;0.343303
9828.000000;0.341933
9827.000000;0.340675
9826.000000;0.339439
9825.000000;0.338012
9824.000000;0.336302
9823.000000;0.334463
9822.000000;0.332735
9821.000000;0.331227
9820.000000;0.329888
9819.000000;0.328612
9818.000000;0.327308
9817.000000;0.325904
9816.000000;0.324380
9815.000000;0.322793
9814.000000;0.321252
9813.000000;0.319841
9812.000000;0.318556
9811.000000;0.317292
9810.000000;0.315893
9809.000000;0.314279
9808.000000;0.312543
9807.000000;0.310892
9806.000000;0.309429
9805.000000;0.308055
9804.000000;0.306589
9803.000000;0.304948
9802.000000;0.303178
9801.000000;0.301354
9800.000000;0.299561
9799.000000;0.297908
9798.000000;0.296462
9797.000000;0.295155
9796.000000;0.293836
9795.000000;0.292440
9794.000000;0.291025
9793.000000;0.289618
9792.000000;0.288149
9791.000000;0.286580
9790.000000;0.285026
9789.000000;0.283628
9788.000000;0.282363
9787.000000;0.281080
9786.000000;0.279704
9785.000000;0.278292
9784.000000;0.276872
9783.000000;0.275337
9782.000000;0.273573
9781.000000;0.271609
9780.000000;0.269577
9779.000000;0.267582
9778.000000;0.265668
9777.000000;0.263878
9776.000000;0.262240
9775.000000;0.260716
9774.000000;0.259214
9773.000000;0.257680
9772.000000;0.256131
9771.000000;0.254584
9770.000000;0.253003
9769.000000;0.251350
9768.000000;0.249635
9767.000000;0.247927
9766.000000;0.246304
9765.000000;0.244821
9764.000000;0.243456
9763.000000;0.242090
9762.000000;0.240579
9761.000000;0.238867
9760.000000;0.237004
9759.000000;0.235044
9758.000000;0.233023
9757.000000;0.231031
9756.000000;0.229238
9755.000000;0.227732
9754.000000;0.226383
9753.000000;0.224927
9752.000000;0.223214
9751.000000;0.221319
9750.000000;0.219452
9749.000000;0.217791
9748.000000;0.216387
9747.000000;0.215140
9746.000000;0.213842
9745.000000;0.212310
9744.000000;0.210493
9743.000000;0.208478
9742.000000;0.206401
9741.000000;0.204404
9740.000000;0.202614
9739.000000;0.201059
9738.000000;0.199582
9737.000000;0.197950
9736.000000;0.196096
9735.000000;0.194203
9734.000000;0.192470
9733.000000;0.190856
9732.000000;0.189139
9731.000000;0.187183
9730.000000;0.185090
9729.000000;0.183078
9728.000000;0.181303
9727.000000;0.179806
9726.000000;0.178525
9725.000000;0.177296
9724.000000;0.175874
9723.000000;0.174063
9722.000000;0.171864
9721.000000;0.169488
9720.000000;0.167224
9719.000000;0.165258
9718.000000;0.163591
9717.000000;0.162072
9716.000000;0.160512
9715.000000;0.158827
9714.000000;0.157078
9713.000000;0.155344
9712.000000;0.153582
9711.000000;0.151665
9710.000000;0.149579
9709.000000;0.147495
9708.000000;0.145600
9707.000000;0.143899
9706.000000;0.142233
9705.000000;0.140458
9704.000000;0.138524
9703.000000;0.136434
9702.000000;0.134250
9701.000000;0.132138
9700.000000;0.130277
9699.000000;0.128675
9698.000000;0.127146
9697.000000;0.125507
9696.000000;0.123734
9695.000000;0.121891
9694.000000;0.119999
9693.000000;0.118056
9692.000000;0.116091
9691.000000;0.114138
9690.000000;0.112176
9689.000000;0.110202
9688.000000;0.108291
9687.000000;0.106508
9686.000000;0.104796
9685.000000;0.103040
9684.000000;0.101216
9683.000000;0.099385
9682.000000;0.097542
9681.000000;0.095575
9680.000000;0.093404
9679.000000;0.091100
9678.000000;0.088846
9677.000000;0.086813
9676.000000;0.085032
9675.000000;0.083351
9674.000000;0.081532
9673.000000;0.079469
9672.000000;0.077295
9671.000000;0.075215
9670.000000;0.073259
9669.000000;0.071295
9668.000000;0.069236
9667.000000;0.067125
9666.000000;0.065007
9665.000000;0.062865
9664.000000;0.060736
9663.000000;0.058753
9662.000000;0.056968
9661.000000;0.055225
9660.000000;0.053313
9659.000000;0.051201
9658.000000;0.049039
9657.000000;0.046948
9656.000000;0.044903
9655.000000;0.042822
9654.000000;0.040687
9653.000000;0.038566
9652.000000;0.036537
9651.000000;0.034611
9650.000000;0.032709
9649.000000;0.030732
9648.000000;0.028659
9647.000000;0.026558
9646.000000;0.024488
9645.000000;0.022443
9644.000000;0.020400
9643.000000;0.018359
9642.000000;0.016289
9641.000000;0.014102
9640.000000;0.011756
9639.000000;0.009366
9638.000000;0.007094
9637.000000;0.004955
9636.000000;0.002810
9635.000000;0.000566
9634.000000;-0.001713
9633.000000;-0.003905
9632.000000;-0.005982
9631.000000;-0.007991
9630.000000;-0.009946
9629.000000;-0.011809
9628.000000;-0.013604
9627.000000;-0.015476
9626.000000;-0.017599
9625.000000;-0.019999
9624.000000;-0.022478
9623.000000;-0.024757
9622.000000;-0.026722
9621.000000;-0.028535
9620.000000;-0.030488
9619.000000;-0.032742
9618.000000;-0.035238
9617.000000;-0.037815
9616.000000;-0.040350
9615.000000;-0.042754
9614.000000;-0.044935
9613.000000;-0.046874
9612.000000;-0.048728
9611.000000;-0.050748
9610.000000;-0.053037
9609.000000;-0.055444
9608.000000;-0.057742
9607.000000;-0.059870
9606.000000;-0.061939
9605.000000;-0.064039
9604.000000;-0.066155
9603.000000;-0.068296
9602.000000;-0.070575
9601.000000;-0.073068
9600.000000;-0.075652
9599.000000;-0.078086
9598.000000;-0.080258
9597.000000;-0.082268
9596.000000;-0.084277
9595.000000;-0.086355
9594.000000;-0.088510
9593.000000;-0.090780
9592.000000;-0.093193
9591.000000;-0.095674
9590.000000;-0.098080
9589.000000;-0.100344
9588.000000;-0.102528
9587.000000;-0.104724
9586.000000;-0.106961
9585.000000;-0.109217
9584.000000;-0.111484
9583.000000;-0.113759
9582.000000;-0.116015
9581.000000;-0.118218
9580.000000;-0.120361
9579.000000;-0.122454
9578.000000;-0.124506
9577.000000;-0.126581
9576.000000;-0.128817
9575.000000;-0.131301
9574.000000;-0.133922
9573.000000;-0.136438
9572.000000;-0.138732
9571.000000;-0.140927
9570.000000;-0.143184
9569.000000;-0.145487
9568.000000;-0.147720
9567.000000;-0.149879
9566.000000;-0.152057
9565.000000;-0.154256
9564.000000;-0.156376
9563.000000;-0.158420
9562.000000;-0.160573
9561.000000;-0.162978
9560.000000;-0.165542
9559.000000;-0.168053
9558.000000;-0.170421
9557.000000;-0.172696
9556.000000;-0.174923
9555.000000;-0.177108
9554.000000;-0.179288
9553.000000;-0.181503
9552.000000;-0.183699
9551.000000;-0.185777
9550.000000;-0.187750
9549.000000;-0.189756
9548.000000;-0.191872
9547.000000;-0.194033
9546.000000;-0.196186
9545.000000;-0.198397
9544.000000;-0.200721
9543.000000;-0.203028
9542.000000;-0.205116
9541.000000;-0.206971
9540.000000;-0.208813
9539.000000;-0.210862
9538.000000;-0.213137
9537.000000;-0.215512
9536.000000;-0.217899
9535.000000;-0.220298
9534.000000;-0.222713
9533.000000;-0.225073
9532.000000;-0.227267
9531.000000;-0.229239
9530.000000;-0.231039
9529.000000;-0.232795
9528.000000;-0.234617
9527.000000;-0.236513
9526.000000;-0.238410
9525.000000;-0.240249
9524.000000;-0.242078
9523.000000;-0.244014
9522.000000;-0.246120
9521.000000;-0.248318
9520.000000;-0.250444
9519.000000;-0.252399
9518.000000;-0.254226
9517.000000;-0.256034
9516.000000;-0.257859
9515.000000;-0.259626
9514.000000;-0.261258
9513.000000;-0.262814
9512.000000;-0.264463
9511.000000;-0.266313
9510.000000;-0.268290
9509.000000;-0.270219
9508.000000;-0.272014
9507.000000;-0.273723
9506.000000;-0.275414
9505.000000;-0.277086
9504.000000;-0.278723
9503.000000;-0.280355
9502.000000;-0.282018
9501.000000;-0.283681
9500.000000;-0.285301
9499.000000;-0.286899
9498.000000;-0.288518
9497.000000;-0.290117
9496.000000;-0.291605
9495.000000;-0.292986
9494.000000;-0.294375
9493.000000;-0.295844
9492.000000;-0.297334
9491.000000;-0.298782
9490.000000;-0.300234
9489.000000;-0.301736
9488.000000;-0.303176
9487.000000;-0.304356
9486.000000;-0.305227
9485.000000;-0.305989
9484.000000;-0.306919
9483.000000;-0.308164
9482.000000;-0.309664
9481.000000;-0.311217
9480.000000;-0.312589
9479.000000;-0.313649
9478.000000;-0.314433
9477.000000;-0.315087
9476.000000;-0.315739
9475.000000;-0.316461
9474.000000;-0.317309
9473.000000;-0.318311
9472.000000;-0.319385
9471.000000;-0.320367
9470.000000;-0.321174
9469.000000;-0.321909
9468.000000;-0.322746
9467.000000;-0.323755
9466.000000;-0.324840
9465.000000;-0.325817
9464.000000;-0.326524
9463.000000;-0.326914
9462.000000;-0.327119
9461.000000;-0.327379
9460.000000;-0.327844
9459.000000;-0.328453
9458.000000;-0.329038
9457.000000;-0.329541
9456.000000;-0.330047
9455.000000;-0.330612
9454.000000;-0.331136
9453.000000;-0.331444
9452.000000;-0.331495
9451.000000;-0.331464
9450.000000;-0.331611
9449.000000;-0.332026
9448.000000;-0.332505
9447.000000;-0.332736
9446.000000;-0.332625
9445.000000;-0.332383
9444.000000;-0.332261
9443.000000;-0.332284
9442.000000;-0.332334
9441.000000;-0.332390
9440.000000;-0.332537
9439.000000;-0.332754
9438.000000;-0.332864
9437.000000;-0.332749
9436.000000;-0.332495
9435.000000;-0.332229
9434.000000;-0.331934
9433.000000;-0.331519
9432.000000;-0.331009
9431.000000;-0.330560
9430.000000;-0.330292
9429.000000;-0.330180
9428.000000;-0.330095
9427.000000;-0.329898
9426.000000;-0.329517
9425.000000;-0.329002
9424.000000;-0.328484
9423.000000;-0.328039
9422.000000;-0.327610
9421.000000;-0.327095
9420.000000;-0.326465
9419.000000;-0.325744
9418.000000;-0.324946
9417.000000;-0.324122
9416.000000;-0.323430
9415.000000;-0.323019
9414.000000;-0.322802
9413.000000;-0.322471
9412.000000;-0.321791
9411.000000;-0.320831
9410.000000;-0.319861
9409.000000;-0.319090
9408.000000;-0.318532
9407.000000;-0.318052
9406.000000;-0.317479
9405.000000;-0.316698
9404.000000;-0.315738
9403.000000;-0.314751
9402.000000;-0.313871
9401.000000;-0.313068
9400.000000;-0.312189
9399.000000;-0.311160
9398.000000;-0.310092
9397.000000;-0.309175
9396.000000;-0.308468
9395.000000;-0.307833
9394.000000;-0.307062
9393.000000;-0.306052
9392.000000;-0.304868
9391.000000;-0.303660
9390.000000;-0.302542
9389.000000;-0.301549
9388.000000;-0.300639
9387.000000;-0.299715
9386.000000;-0.298669
9385.000000;-0.297459
9384.000000;-0.296167
9383.000000;-0.294947
9382.000000;-0.293885
9381.000000;-0.292912
9380.000000;-0.291872
9379.000000;-0.290670
9378.000000;-0.289356
9377.000000;-0.288060
9376.000000;-0.286865
9375.000000;-0.285746
9374.000000;-0.284614
9373.000000;-0.283425
9372.000000;-0.282207
9371.000000;-0.281012
9370.000000;-0.279867
9369.000000;-0.278773
9368.000000;-0.277718
9367.000000;-0.276661
9366.000000;-0.275546
9365.000000;-0.274355
9364.000000;-0.273142
9363.000000;-0.271958
9362.000000;-0.270769
9361.000000;-0.269485
9360.000000;-0.268094
9359.000000;-0.266707
9358.000000;-0.265451
9357.000000;-0.264344
9356.000000;-0.263269
9355.000000;-0.262082
9354.000000;-0.260724
9353.000000;-0.259270
9352.000000;-0.257886
9351.000000;-0.256692
9350.000000;-0.255673
9349.000000;-0.254697
9348.000000;-0.253652
9347.000000;-0.252514
9346.000000;-0.251318
9345.000000;-0.250072
9344.000000;-0.248748
9343.000000;-0.247327
9342.000000;-0.245830
9341.000000;-0.244323
9340.000000;-0.242902
9339.000000;-0.241638
9338.000000;-0.240517
9337.000000;-0.239456
9336.000000;-0.238393
9335.000000;-0.237337
9334.000000;-0.236280
9333.000000;-0.235139
9332.000000;-0.233834
9331.000000;-0.232452
9330.000000;-0.231206
9329.000000;-0.230202
9328.000000;-0.229303
9327.000000;-0.228264
9326.000000;-0.226991
9325.000000;-0.225609
9324.000000;-0.224272
9323.000000;-0.222987
9322.000000;-0.221654
9321.000000;-0.220241
9320.000000;-0.218861
9319.000000;-0.217646
9318.000000;-0.216579
9317.000000;-0.215508
9316.000000;-0.214330
9315.000000;-0.213096
9314.000000;-0.211924
9313.000000;-0.210838
9312.000000;-0.209750
9311.000000;-0.208586
9310.000000;-0.207361
9309.000000;-0.206125
9308.000000;-0.204891
9307.000000;-0.203653
9306.000000;-0.202405
9305.000000;-0.201130
9304.000000;-0.199802
9303.000000;-0.198451
9302.000000;-0.197193
9301.000000;-0.196127
9300.000000;-0.195209
9299.000000;-0.194279
9298.000000;-0.193195
9297.000000;-0.191913
9296.000000;-0.190480
9295.000000;-0.189009
9294.000000;-0.187640
9293.000000;-0.186444
9292.000000;-0.185344
9291.000000;-0.184203
9290.000000;-0.183021
9289.000000;-0.181948
9288.000000;-0.181089
9287.000000;-0.180328
9286.000000;-0.179445
9285.000000;-0.178328
9284.000000;-0.177030
9283.000000;-0.175657
9282.000000;-0.174294
9281.000000;-0.173023
9280.000000;-0.171903
9279.000000;-0.170901
9278.000000;-0.169913
9277.000000;-0.168893
9276.000000;-0.167901
9275.000000;-0.166988
9274.000000;-0.166083
9273.000000;-0.165065
9272.000000;-0.163925
9271.000000;-0.162776
9270.000000;-0.161719
9269.000000;-0.160757
9268.000000;-0.159831
9267.000000;-0.158890
9266.000000;-0.157890
9265.000000;-0.156800
9264.000000;-0.155658
9263.000000;-0.154580
9262.000000;-0.153648
9261.000000;-0.152790
9260.000000;-0.151846
9259.000000;-0.150774
9258.000000;-0.149704
9257.000000;-0.148764
9256.000000;-0.147913
9255.000000;-0.147020
9254.000000;-0.146060
9253.000000;-0.145123
9252.000000;-0.144209
9251.000000;-0.143163
9250.000000;-0.141867
9249.000000;-0.140442
9248.000000;-0.139165
9247.000000;-0.138195
9246.000000;-0.137456
9245.000000;-0.136770
9244.000000;-0.136027
9243.000000;-0.135207
9242.000000;-0.134315
9241.000000;-0.133343
9240.000000;-0.132288
9239.000000;-0.131172
9238.000000;-0.130053
9237.000000;-0.129022
9236.000000;-0.128146
9235.000000;-0.127407
9234.000000;-0.126706
9233.000000;-0.125949
9232.000000;-0.125112
9231.000000;-0.124226
9230.000000;-0.123329
9229.000000;-0.122450
9228.000000;-0.121616
9227.000000;-0.120846
9226.000000;-0.120120
9225.000000;-0.119393
9224.000000;-0.118604
9223.000000;-0.117697
9222.000000;-0.116659
9221.000000;-0.115572
9220.000000;-0.114591
9219.000000;-0.113818
9218.000000;-0.113186
9217.000000;-0.112520
9216.000000;-0.111707
9215.000000;-0.110773
9214.000000;-0.109813
9213.000000;-0.108887
9212.000000;-0.108020
9211.000000;-0.107239
9210.000000;-0.106544
9209.000000;-0.105867
9208.000000;-0.105102
9207.000000;-0.104208
9206.000000;-0.103254
9205.000000;-0.102349
9204.000000;-0.101521
9203.000000;-0.100712
9202.000000;-0.099875
9201.000000;-0.099062
9200.000000;-0.098341
9199.000000;-0.097667
9198.000000;-0.096867
9197.000000;-0.095839
9196.000000;-0.094710
9195.000000;-0.093734
9194.000000;-0.093034
9193.000000;-0.092494
9192.000000;-0.091947
9191.000000;-0.091376
9190.000000;-0.090875
9189.000000;-0.090461
9188.000000;-0.090014
9187.000000;-0.089399
9186.000000;-0.088595
9185.000000;-0.087681
9184.000000;-0.086750
9183.000000;-0.085868
9182.000000;-0.085061
9181.000000;-0.084309
9180.000000;-0.083567
9179.000000;-0.082817
9178.000000;-0.082100
9177.000000;-0.081468
9176.000000;-0.080926
9175.000000;-0.080418
9174.000000;-0.079875
9173.000000;-0.079252
9172.000000;-0.078547
9171.000000;-0.077794
9170.000000;-0.077043
9169.000000;-0.076320
9168.000000;-0.075614
9167.000000;-0.074907
9166.000000;-0.074220
9165.000000;-0.073598
9164.000000;-0.073056
9163.000000;-0.072542
9162.000000;-0.071972
9161.000000;-0.071301
9160.000000;-0.070558
9159.000000;-0.069805
9158.000000;-0.069082
9157.000000;-0.068379
9156.000000;-0.067675
9155.000000;-0.066985
9154.000000;-0.066371
9153.000000;-0.065876
9152.000000;-0.065461
9151.000000;-0.064998
9150.000000;-0.064372
9149.000000;-0.063597
9148.000000;-0.062836
9147.000000;-0.062251
9146.000000;-0.061839
9145.000000;-0.061427
9144.000000;-0.060853
9143.000000;-0.060129
9142.000000;-0.059406
9141.000000;-0.058805
9140.000000;-0.058337
9139.000000;-0.057952
9138.000000;-0.057611
9137.000000;-0.057262
9136.000000;-0.056831
9135.000000;-0.056269
9134.000000;-0.055617
9133.000000;-0.054964
9132.000000;-0.054357
9131.000000;-0.053768
9130.000000;-0.053140
9129.000000;-0.052446
9128.000000;-0.051709
9127.000000;-0.050994
9126.000000;-0.050404
9125.000000;-0.050024
9124.000000;-0.049836
9123.000000;-0.049672
9122.000000;-0.049304
9121.000000;-0.048644
9120.000000;-0.047855
9119.000000;-0.047219
9118.000000;-0.046862
9117.000000;-0.046629
9116.000000;-0.046278
9115.000000;-0.045765
9114.000000;-0.045255
9113.000000;-0.044862
9112.000000;-0.044481
9111.000000;-0.043936
9110.000000;-0.043228
9109.000000;-0.042550
9108.000000;-0.042075
9107.000000;-0.041790
9106.000000;-0.041538
9105.000000;-0.041165
9104.000000;-0.040611
9103.000000;-0.039931
9102.000000;-0.039255
9101.000000;-0.038709
9100.000000;-0.038326
9099.000000;-0.038026
9098.000000;-0.037688
9097.000000;-0.037249
9096.000000;-0.036740
9095.000000;-0.036249
9094.000000;-0.035836
9093.000000;-0.035481
9092.000000;-0.035115
9091.000000;-0.034698
9090.000000;-0.034263
9089.000000;-0.033854
9088.000000;-0.033458
9087.000000;-0.033027
9086.000000;-0.032567
9085.000000;-0.032151
9084.000000;-0.031830
9083.000000;-0.031565
9082.000000;-0.031265
9081.000000;-0.030888
9080.000000;-0.030457
9079.000000;-0.030015
