Criado como novo conjunto de dados;"0307_DANIEL.spp","48964.4 Secs"
cm-1;Abs
10000.000000;0.665870
9999.000000;0.664977
9998.000000;0.664086
9997.000000;0.663198
9996.000000;0.662310
9995.000000;0.661425
9994.000000;0.660540
9993.000000;0.659661
9992.000000;0.658771
9991.000000;0.658201
9990.000000;0.657686
9989.000000;0.656897
9988.000000;0.655761
9987.000000;0.654410
9986.000000;0.652964
9985.000000;0.651446
9984.000000;0.649939
9983.000000;0.648667
9982.000000;0.647802
9981.000000;0.647217
9980.000000;0.646529
9979.000000;0.645431
9978.000000;0.643987
9977.000000;0.642547
9976.000000;0.641375
9975.000000;0.640390
9974.000000;0.639309
9973.000000;0.638009
9972.000000;0.636665
9971.000000;0.635510
9970.000000;0.634565
9969.000000;0.633653
9968.000000;0.632612
9967.000000;0.631404
9966.000000;0.630069
9965.000000;0.628685
9964.000000;0.627367
9963.000000;0.626194
9962.000000;0.625098
9961.000000;0.623949
9960.000000;0.622739
9959.000000;0.621591
9958.000000;0.620535
9957.000000;0.619424
9956.000000;0.618135
9955.000000;0.616748
9954.000000;0.615401
9953.000000;0.614067
9952.000000;0.612615
9951.000000;0.611047
9950.000000;0.609539
9949.000000;0.608249
9948.000000;0.607223
9947.000000;0.606465
9946.000000;0.605928
9945.000000;0.605407
9944.000000;0.604603
9943.000000;0.603374
9942.000000;0.601861
9941.000000;0.600278
9940.000000;0.598718
9939.000000;0.597202
9938.000000;0.595821
9937.000000;0.594686
9936.000000;0.593782
9935.000000;0.592961
9934.000000;0.592052
9933.000000;0.590935
9932.000000;0.589591
9931.000000;0.588160
9930.000000;0.586915
9929.000000;0.586036
9928.000000;0.585419
9927.000000;0.584764
9926.000000;0.583842
9925.000000;0.582614
9924.000000;0.581148
9923.000000;0.579541
9922.000000;0.577925
9921.000000;0.576447
9920.000000;0.575198
9919.000000;0.574176
9918.000000;0.573270
9917.000000;0.572257
9916.000000;0.570904
9915.000000;0.569184
9914.000000;0.567354
9913.000000;0.565694
9912.000000;0.564223
9911.000000;0.562812
9910.000000;0.561488
9909.000000;0.560415
9908.000000;0.559542
9907.000000;0.558531
9906.000000;0.557174
9905.000000;0.555693
9904.000000;0.554476
9903.000000;0.553597
9902.000000;0.552774
9901.000000;0.551719
9900.000000;0.550372
9899.000000;0.548861
9898.000000;0.547382
9897.000000;0.546101
9896.000000;0.545018
9895.000000;0.543882
9894.000000;0.542407
9893.000000;0.540613
9892.000000;0.538840
9891.000000;0.537383
9890.000000;0.536205
9889.000000;0.535074
9888.000000;0.533856
9887.000000;0.532557
9886.000000;0.531171
9885.000000;0.529647
9884.000000;0.528021
9883.000000;0.526430
9882.000000;0.524962
9881.000000;0.523591
9880.000000;0.522321
9879.000000;0.521260
9878.000000;0.520455
9877.000000;0.519706
9876.000000;0.518704
9875.000000;0.517342
9874.000000;0.515779
9873.000000;0.514202
9872.000000;0.512660
9871.000000;0.511170
9870.000000;0.509818
9869.000000;0.508624
9868.000000;0.507439
9867.000000;0.506091
9866.000000;0.504582
9865.000000;0.503051
9864.000000;0.501597
9863.000000;0.500269
9862.000000;0.499122
9861.000000;0.498144
9860.000000;0.497144
9859.000000;0.495914
9858.000000;0.494485
9857.000000;0.493079
9856.000000;0.491789
9855.000000;0.490474
9854.000000;0.489009
9853.000000;0.487457
9852.000000;0.485935
9851.000000;0.484442
9850.000000;0.482927
9849.000000;0.481397
9848.000000;0.479873
9847.000000;0.478311
9846.000000;0.476698
9845.000000;0.475131
9844.000000;0.473724
9843.000000;0.472487
9842.000000;0.471349
9841.000000;0.470224
9840.000000;0.469002
9839.000000;0.467574
9838.000000;0.465985
9837.000000;0.464457
9836.000000;0.463136
9835.000000;0.461870
9834.000000;0.460366
9833.000000;0.458553
9832.000000;0.456672
9831.000000;0.455023
9830.000000;0.453707
9829.000000;0.452586
9828.000000;0.451400
9827.000000;0.449946
9826.000000;0.448250
9825.000000;0.446588
9824.000000;0.445239
9823.000000;0.444204
9822.000000;0.443197
9821.000000;0.441920
9820.000000;0.440294
9819.000000;0.438467
9818.000000;0.436658
9817.000000;0.435001
9816.000000;0.433457
9815.000000;0.431877
9814.000000;0.430176
9813.000000;0.428436
9812.000000;0.426807
9811.000000;0.425336
9810.000000;0.423952
9809.000000;0.422583
9808.000000;0.421219
9807.000000;0.419881
9806.000000;0.418579
9805.000000;0.417287
9804.000000;0.415919
9803.000000;0.414368
9802.000000;0.412630
9801.000000;0.410843
9800.000000;0.409156
9799.000000;0.407581
9798.000000;0.406045
9797.000000;0.404531
9796.000000;0.403078
9795.000000;0.401662
9794.000000;0.400181
9793.000000;0.398560
9792.000000;0.396827
9791.000000;0.395065
9790.000000;0.393350
9789.000000;0.391708
9788.000000;0.390086
9787.000000;0.388394
9786.000000;0.386635
9785.000000;0.384959
9784.000000;0.383525
9783.000000;0.382315
9782.000000;0.381140
9781.000000;0.379824
9780.000000;0.378309
9779.000000;0.376623
9778.000000;0.374812
9777.000000;0.372924
9776.000000;0.370995
9775.000000;0.369073
9774.000000;0.367271
9773.000000;0.365724
9772.000000;0.364406
9771.000000;0.363081
9770.000000;0.361552
9769.000000;0.359910
9768.000000;0.358394
9767.000000;0.357034
9766.000000;0.355636
9765.000000;0.354081
9764.000000;0.352451
9763.000000;0.350808
9762.000000;0.349055
9761.000000;0.347137
9760.000000;0.345213
9759.000000;0.343468
9758.000000;0.341858
9757.000000;0.340193
9756.000000;0.338432
9755.000000;0.336718
9754.000000;0.335132
9753.000000;0.333555
9752.000000;0.331837
9751.000000;0.330009
9750.000000;0.328256
9749.000000;0.326713
9748.000000;0.325308
9747.000000;0.323818
9746.000000;0.322063
9745.000000;0.320041
9744.000000;0.317915
9743.000000;0.315872
9742.000000;0.314007
9741.000000;0.312310
9740.000000;0.310717
9739.000000;0.309166
9738.000000;0.307630
9737.000000;0.306113
9736.000000;0.304593
9735.000000;0.302988
9734.000000;0.301221
9733.000000;0.299318
9732.000000;0.297419
9731.000000;0.295664
9730.000000;0.294087
9729.000000;0.292610
9728.000000;0.291108
9727.000000;0.289490
9726.000000;0.287757
9725.000000;0.285985
9724.000000;0.284218
9723.000000;0.282405
9722.000000;0.280487
9721.000000;0.278509
9720.000000;0.276572
9719.000000;0.274686
9718.000000;0.272773
9717.000000;0.270841
9716.000000;0.269018
9715.000000;0.267366
9714.000000;0.265740
9713.000000;0.263947
9712.000000;0.261975
9711.000000;0.259979
9710.000000;0.258078
9709.000000;0.256262
9708.000000;0.254479
9707.000000;0.252691
9706.000000;0.250845
9705.000000;0.248879
9704.000000;0.246815
9703.000000;0.244784
9702.000000;0.242892
9701.000000;0.241098
9700.000000;0.239270
9699.000000;0.237341
9698.000000;0.235366
9697.000000;0.233446
9696.000000;0.231651
9695.000000;0.230009
9694.000000;0.228503
9693.000000;0.227030
9692.000000;0.225402
9691.000000;0.223443
9690.000000;0.221128
9689.000000;0.218627
9688.000000;0.216217
9687.000000;0.214122
9686.000000;0.212372
9685.000000;0.210777
9684.000000;0.209068
9683.000000;0.207116
9682.000000;0.205025
9681.000000;0.202989
9680.000000;0.201071
9679.000000;0.199191
9678.000000;0.197295
9677.000000;0.195427
9676.000000;0.193586
9675.000000;0.191646
9674.000000;0.189493
9673.000000;0.187223
9672.000000;0.185062
9671.000000;0.183103
9670.000000;0.181206
9669.000000;0.179208
9668.000000;0.177131
9667.000000;0.175131
9666.000000;0.173285
9665.000000;0.171506
9664.000000;0.169652
9663.000000;0.167653
9662.000000;0.165530
9661.000000;0.163339
9660.000000;0.161140
9659.000000;0.158996
9658.000000;0.156947
9657.000000;0.154946
9656.000000;0.152862
9655.000000;0.150601
9654.000000;0.148234
9653.000000;0.145967
9652.000000;0.143950
9651.000000;0.142129
9650.000000;0.140314
9649.000000;0.138356
9648.000000;0.136268
9647.000000;0.134166
9646.000000;0.132134
9645.000000;0.130156
9644.000000;0.128170
9643.000000;0.126155
9642.000000;0.124145
9641.000000;0.122125
9640.000000;0.120000
9639.000000;0.117720
9638.000000;0.115388
9637.000000;0.113152
9636.000000;0.111000
9635.000000;0.108777
9634.000000;0.106431
9633.000000;0.104109
9632.000000;0.101943
9631.000000;0.099844
9630.000000;0.097639
9629.000000;0.095333
9628.000000;0.093086
9627.000000;0.090965
9626.000000;0.088843
9625.000000;0.086616
9624.000000;0.084372
9623.000000;0.082270
9622.000000;0.080289
9621.000000;0.078205
9620.000000;0.075849
9619.000000;0.073337
9618.000000;0.070977
9617.000000;0.068926
9616.000000;0.067027
9615.000000;0.065025
9614.000000;0.062892
9613.000000;0.060798
9612.000000;0.058801
9611.000000;0.056731
9610.000000;0.054472
9609.000000;0.052205
9608.000000;0.050194
9607.000000;0.048416
9606.000000;0.046547
9605.000000;0.044300
9604.000000;0.041666
9603.000000;0.038846
9602.000000;0.036111
9601.000000;0.033691
9600.000000;0.031635
9599.000000;0.029718
9598.000000;0.027586
9597.000000;0.025099
9596.000000;0.022441
9595.000000;0.019882
9594.000000;0.017498
9593.000000;0.015192
9592.000000;0.012904
9591.000000;0.010685
9590.000000;0.008594
9589.000000;0.006595
9588.000000;0.004598
9587.000000;0.002553
9586.000000;0.000476
9585.000000;-0.001619
9584.000000;-0.003798
9583.000000;-0.006147
9582.000000;-0.008654
9581.000000;-0.011164
9580.000000;-0.013519
9579.000000;-0.015694
9578.000000;-0.017793
9577.000000;-0.019922
9576.000000;-0.022133
9575.000000;-0.024422
9574.000000;-0.026744
9573.000000;-0.029042
9572.000000;-0.031306
9571.000000;-0.033594
9570.000000;-0.035937
9569.000000;-0.038285
9568.000000;-0.040582
9567.000000;-0.042849
9566.000000;-0.045115
9565.000000;-0.047320
9564.000000;-0.049401
9563.000000;-0.051438
9562.000000;-0.053592
9561.000000;-0.055911
9560.000000;-0.058302
9559.000000;-0.060702
9558.000000;-0.063144
9557.000000;-0.065609
9556.000000;-0.067925
9555.000000;-0.069931
9554.000000;-0.071697
9553.000000;-0.073515
9552.000000;-0.075676
9551.000000;-0.078233
9550.000000;-0.080957
9549.000000;-0.083514
9548.000000;-0.085752
9547.000000;-0.087812
9546.000000;-0.089932
9545.000000;-0.092147
9544.000000;-0.094287
9543.000000;-0.096236
9542.000000;-0.098091
9541.000000;-0.100030
9540.000000;-0.102122
9539.000000;-0.104309
9538.000000;-0.106512
9537.000000;-0.108691
9536.000000;-0.110865
9535.000000;-0.113106
9534.000000;-0.115474
9533.000000;-0.117923
9532.000000;-0.120308
9531.000000;-0.122507
9530.000000;-0.124480
9529.000000;-0.126231
9528.000000;-0.127810
9527.000000;-0.129376
9526.000000;-0.131142
9525.000000;-0.133193
9524.000000;-0.135421
9523.000000;-0.137674
9522.000000;-0.139877
9521.000000;-0.141962
9520.000000;-0.143810
9519.000000;-0.145395
9518.000000;-0.146923
9517.000000;-0.148675
9516.000000;-0.150689
9515.000000;-0.152694
9514.000000;-0.154413
9513.000000;-0.155864
9512.000000;-0.157353
9511.000000;-0.159170
9510.000000;-0.161319
9509.000000;-0.163522
9508.000000;-0.165465
9507.000000;-0.167048
9506.000000;-0.168404
9505.000000;-0.169737
9504.000000;-0.171212
9503.000000;-0.172947
9502.000000;-0.174991
9501.000000;-0.177240
9500.000000;-0.179447
9499.000000;-0.181381
9498.000000;-0.182974
9497.000000;-0.184296
9496.000000;-0.185490
9495.000000;-0.186731
9494.000000;-0.188156
9493.000000;-0.189724
9492.000000;-0.191211
9491.000000;-0.192440
9490.000000;-0.193490
9489.000000;-0.194582
9488.000000;-0.195810
9487.000000;-0.197079
9486.000000;-0.198294
9485.000000;-0.199488
9484.000000;-0.200733
9483.000000;-0.202024
9482.000000;-0.203287
9481.000000;-0.204454
9480.000000;-0.205472
9479.000000;-0.206313
9478.000000;-0.207024
9477.000000;-0.207743
9476.000000;-0.208598
9475.000000;-0.209613
9474.000000;-0.210705
9473.000000;-0.211783
9472.000000;-0.212803
9471.000000;-0.213760
9470.000000;-0.214662
9469.000000;-0.215541
9468.000000;-0.216480
9467.000000;-0.217561
9466.000000;-0.218759
9465.000000;-0.219876
9464.000000;-0.220662
9463.000000;-0.221055
9462.000000;-0.221268
9461.000000;-0.221606
9460.000000;-0.222190
9459.000000;-0.222888
9458.000000;-0.223497
9457.000000;-0.223927
9456.000000;-0.224224
9455.000000;-0.224482
9454.000000;-0.224758
9453.000000;-0.225039
9452.000000;-0.225266
9451.000000;-0.225421
9450.000000;-0.225582
9449.000000;-0.225854
9448.000000;-0.226210
9447.000000;-0.226477
9446.000000;-0.226518
9445.000000;-0.226380
9444.000000;-0.226233
9443.000000;-0.226219
9442.000000;-0.226382
9441.000000;-0.226690
9440.000000;-0.227033
9439.000000;-0.227246
9438.000000;-0.227237
9437.000000;-0.227071
9436.000000;-0.226874
9435.000000;-0.226665
9434.000000;-0.226370
9433.000000;-0.225988
9432.000000;-0.225620
9431.000000;-0.225330
9430.000000;-0.225060
9429.000000;-0.224727
9428.000000;-0.224302
9427.000000;-0.223796
9426.000000;-0.223239
9425.000000;-0.222729
9424.000000;-0.222378
9423.000000;-0.222133
9422.000000;-0.221767
9421.000000;-0.221131
9420.000000;-0.220349
9419.000000;-0.219653
9418.000000;-0.219105
9417.000000;-0.218595
9416.000000;-0.218070
9415.000000;-0.217601
9414.000000;-0.217239
9413.000000;-0.216932
9412.000000;-0.216592
9411.000000;-0.216137
9410.000000;-0.215456
9409.000000;-0.214485
9408.000000;-0.213348
9407.000000;-0.212307
9406.000000;-0.211488
9405.000000;-0.210759
9404.000000;-0.209939
9403.000000;-0.209018
9402.000000;-0.208097
9401.000000;-0.207206
9400.000000;-0.206297
9399.000000;-0.205381
9398.000000;-0.204539
9397.000000;-0.203791
9396.000000;-0.203045
9395.000000;-0.202196
9394.000000;-0.201223
9393.000000;-0.200184
9392.000000;-0.199156
9391.000000;-0.198196
9390.000000;-0.197320
9389.000000;-0.196502
9388.000000;-0.195676
9387.000000;-0.194742
9386.000000;-0.193609
9385.000000;-0.192283
9384.000000;-0.190933
9383.000000;-0.189765
9382.000000;-0.188810
9381.000000;-0.187862
9380.000000;-0.186712
9379.000000;-0.185375
9378.000000;-0.184044
9377.000000;-0.182848
9376.000000;-0.181724
9375.000000;-0.180524
9374.000000;-0.179175
9373.000000;-0.177724
9372.000000;-0.176290
9371.000000;-0.174998
9370.000000;-0.173908
9369.000000;-0.172978
9368.000000;-0.172093
9367.000000;-0.171146
9366.000000;-0.170084
9365.000000;-0.168903
9364.000000;-0.167639
9363.000000;-0.166369
9362.000000;-0.165173
9361.000000;-0.164064
9360.000000;-0.162949
9359.000000;-0.161686
9358.000000;-0.160228
9357.000000;-0.158715
9356.000000;-0.157393
9355.000000;-0.156372
9354.000000;-0.155496
9353.000000;-0.154489
9352.000000;-0.153252
9351.000000;-0.151939
9350.000000;-0.150747
9349.000000;-0.149700
9348.000000;-0.148671
9347.000000;-0.147536
9346.000000;-0.146240
9345.000000;-0.144806
9344.000000;-0.143343
9343.000000;-0.142000
9342.000000;-0.140814
9341.000000;-0.139658
9340.000000;-0.138390
9339.000000;-0.137029
9338.000000;-0.135709
9337.000000;-0.134503
9336.000000;-0.133386
9335.000000;-0.132310
9334.000000;-0.131212
9333.000000;-0.129987
9332.000000;-0.128600
9331.000000;-0.127210
9330.000000;-0.126051
9329.000000;-0.125136
9328.000000;-0.124216
9327.000000;-0.123061
9326.000000;-0.121682
9325.000000;-0.120212
9324.000000;-0.118709
9323.000000;-0.117196
9322.000000;-0.115782
9321.000000;-0.114619
9320.000000;-0.113739
9319.000000;-0.113013
9318.000000;-0.112232
9317.000000;-0.111206
9316.000000;-0.109858
9315.000000;-0.108310
9314.000000;-0.106828
9313.000000;-0.105581
9312.000000;-0.104483
9311.000000;-0.103338
9310.000000;-0.102098
9309.000000;-0.100858
9308.000000;-0.099661
9307.000000;-0.098436
9306.000000;-0.097138
9305.000000;-0.095830
9304.000000;-0.094589
9303.000000;-0.093423
9302.000000;-0.092329
9301.000000;-0.091323
9300.000000;-0.090378
9299.000000;-0.089381
9298.000000;-0.088241
9297.000000;-0.086970
9296.000000;-0.085627
9295.000000;-0.084247
9294.000000;-0.082869
9293.000000;-0.081575
9292.000000;-0.080418
9291.000000;-0.079339
9290.000000;-0.078229
9289.000000;-0.077057
9288.000000;-0.075870
9287.000000;-0.074713
9286.000000;-0.073607
9285.000000;-0.072599
9284.000000;-0.071740
9283.000000;-0.070987
9282.000000;-0.070204
9281.000000;-0.069277
9280.000000;-0.068189
9279.000000;-0.066978
9278.000000;-0.065699
9277.000000;-0.064445
9276.000000;-0.063328
9275.000000;-0.062354
9274.000000;-0.061373
9273.000000;-0.060228
9272.000000;-0.058936
9271.000000;-0.057662
9270.000000;-0.056516
9269.000000;-0.055464
9268.000000;-0.054450
9267.000000;-0.053506
9266.000000;-0.052693
9265.000000;-0.051963
9264.000000;-0.051169
9263.000000;-0.050187
9262.000000;-0.049006
9261.000000;-0.047718
9260.000000;-0.046469
9259.000000;-0.045393
9258.000000;-0.044515
9257.000000;-0.043695
9256.000000;-0.042742
9255.000000;-0.041605
9254.000000;-0.040437
9253.000000;-0.039429
9252.000000;-0.038611
9251.000000;-0.037840
9250.000000;-0.036981
9249.000000;-0.036042
9248.000000;-0.035114
9247.000000;-0.034233
9246.000000;-0.033342
9245.000000;-0.032390
9244.000000;-0.031431
9243.000000;-0.030572
9242.000000;-0.029836
9241.000000;-0.029133
9240.000000;-0.028368
9239.000000;-0.027543
9238.000000;-0.026697
9237.000000;-0.025786
9236.000000;-0.024726
9235.000000;-0.023538
9234.000000;-0.022397
9233.000000;-0.021478
9232.000000;-0.020775
9231.000000;-0.020107
9230.000000;-0.019283
9229.000000;-0.018237
9228.000000;-0.017059
9227.000000;-0.015922
9226.000000;-0.014970
9225.000000;-0.014202
9224.000000;-0.013478
9223.000000;-0.012659
9222.000000;-0.011748
9221.000000;-0.010872
9220.000000;-0.010131
9219.000000;-0.009495
9218.000000;-0.008854
9217.000000;-0.008130
9216.000000;-0.007335
9215.000000;-0.006528
9214.000000;-0.005763
9213.000000;-0.005054
9212.000000;-0.004385
9211.000000;-0.003705
9210.000000;-0.002937
9209.000000;-0.001993
9208.000000;-0.000857
9207.000000;0.000355
9206.000000;0.001443
9205.000000;0.002274
9204.000000;0.002884
9203.000000;0.003419
9202.000000;0.003985
9201.000000;0.004612
9200.000000;0.005303
9199.000000;0.006072
9198.000000;0.006907
9197.000000;0.007749
9196.000000;0.008537
9195.000000;0.009259
9194.000000;0.009957
9193.000000;0.010688
9192.000000;0.011487
9191.000000;0.012329
9190.000000;0.013134
9189.000000;0.013842
9188.000000;0.014475
9187.000000;0.015122
9186.000000;0.015834
9185.000000;0.016584
9184.000000;0.017320
9183.000000;0.018023
9182.000000;0.018696
9181.000000;0.019349
9180.000000;0.020013
9179.000000;0.020722
9178.000000;0.021462
9177.000000;0.022184
9176.000000;0.022874
9175.000000;0.023569
9174.000000;0.024256
9173.000000;0.024828
9172.000000;0.025214
9171.000000;0.025523
9170.000000;0.025956
9169.000000;0.026600
9168.000000;0.027368
9167.000000;0.028152
9166.000000;0.028939
9165.000000;0.029727
9164.000000;0.030437
9163.000000;0.030976
9162.000000;0.031384
9161.000000;0.031821
9160.000000;0.032416
9159.000000;0.033156
9158.000000;0.033930
9157.000000;0.034639
9156.000000;0.035264
9155.000000;0.035851
9154.000000;0.036453
9153.000000;0.037076
9152.000000;0.037678
9151.000000;0.038227
9150.000000;0.038753
9149.000000;0.039314
9148.000000;0.039933
9147.000000;0.040589
9146.000000;0.041252
9145.000000;0.041909
9144.000000;0.042549
9143.000000;0.043171
9142.000000;0.043793
9141.000000;0.044438
9140.000000;0.045083
9139.000000;0.045661
9138.000000;0.046136
9137.000000;0.046556
9136.000000;0.047003
9135.000000;0.047499
9134.000000;0.047986
9133.000000;0.048402
9132.000000;0.048758
9131.000000;0.049149
9130.000000;0.049680
9129.000000;0.050387
9128.000000;0.051191
9127.000000;0.051934
9126.000000;0.052485
9125.000000;0.052834
9124.000000;0.053103
9123.000000;0.053470
9122.000000;0.054044
9121.000000;0.054794
9120.000000;0.055549
9119.000000;0.056119
9118.000000;0.056449
9117.000000;0.056667
9116.000000;0.056948
9115.000000;0.057348
9114.000000;0.057799
9113.000000;0.058246
9112.000000;0.058722
9111.000000;0.059269
9110.000000;0.059840
9109.000000;0.060348
9108.000000;0.060772
9107.000000;0.061168
9106.000000;0.061582
9105.000000;0.062025
9104.000000;0.062516
9103.000000;0.063091
9102.000000;0.063739
9101.000000;0.064376
9100.000000;0.064925
9099.000000;0.065378
9098.000000;0.065778
9097.000000;0.066151
9096.000000;0.066479
9095.000000;0.066737
9094.000000;0.066937
9093.000000;0.067149
9092.000000;0.067491
9091.000000;0.068035
9090.000000;0.068703
9089.000000;0.069295
9088.000000;0.069660
9087.000000;0.069838
9086.000000;0.070002
9085.000000;0.070282
9084.000000;0.070691
9083.000000;0.071188
9082.000000;0.071743
9081.000000;0.072320
9080.000000;0.072864
9079.000000;0.073338
9078.000000;0.073758
9077.000000;0.074161
9076.000000;0.074551
9075.000000;0.074906
9074.000000;0.075203
9073.000000;0.075430
9072.000000;0.075586
9071.000000;0.075708
