Criado como novo conjunto de dados;"0307_DANIEL.spp","30783.4 Secs"
cm-1;Abs
10000.000000;1.073435
9999.000000;1.072316
9998.000000;1.070715
9997.000000;1.068989
9996.000000;1.067624
9995.000000;1.066571
9994.000000;1.065550
9993.000000;1.064393
9992.000000;1.063272
9991.000000;1.062351
9990.000000;1.061625
9989.000000;1.060989
9988.000000;1.060341
9987.000000;1.059506
9986.000000;1.058270
9985.000000;1.056613
9984.000000;1.054797
9983.000000;1.053128
9982.000000;1.051684
9981.000000;1.050400
9980.000000;1.049275
9979.000000;1.048365
9978.000000;1.047592
9977.000000;1.046726
9976.000000;1.045562
9975.000000;1.044077
9974.000000;1.042463
9973.000000;1.041044
9972.000000;1.040068
9971.000000;1.039449
9970.000000;1.038788
9969.000000;1.037723
9968.000000;1.036202
9967.000000;1.034337
9966.000000;1.032196
9965.000000;1.029975
9964.000000;1.028188
9963.000000;1.027293
9962.000000;1.027051
9961.000000;1.026620
9960.000000;1.025481
9959.000000;1.023975
9958.000000;1.022726
9957.000000;1.021804
9956.000000;1.020774
9955.000000;1.019403
9954.000000;1.017914
9953.000000;1.016573
9952.000000;1.015394
9951.000000;1.014348
9950.000000;1.013532
9949.000000;1.012925
9948.000000;1.012151
9947.000000;1.010747
9946.000000;1.008652
9945.000000;1.006307
9944.000000;1.004273
9943.000000;1.002818
9942.000000;1.001804
9941.000000;1.000837
9940.000000;0.999509
9939.000000;0.997683
9938.000000;0.995628
9937.000000;0.993869
9936.000000;0.992794
9935.000000;0.992323
9934.000000;0.991974
9933.000000;0.991275
9932.000000;0.990126
9931.000000;0.988768
9930.000000;0.987451
9929.000000;0.986190
9928.000000;0.984803
9927.000000;0.983113
9926.000000;0.981109
9925.000000;0.979010
9924.000000;0.977202
9923.000000;0.976016
9922.000000;0.975465
9921.000000;0.975183
9920.000000;0.974636
9919.000000;0.973422
9918.000000;0.971439
9917.000000;0.968937
9916.000000;0.966482
9915.000000;0.964714
9914.000000;0.963922
9913.000000;0.963786
9912.000000;0.963611
9911.000000;0.962864
9910.000000;0.961511
9909.000000;0.959908
9908.000000;0.958455
9907.000000;0.957334
9906.000000;0.956439
9905.000000;0.955494
9904.000000;0.954259
9903.000000;0.952653
9902.000000;0.950715
9901.000000;0.948518
9900.000000;0.946192
9899.000000;0.943959
9898.000000;0.942057
9897.000000;0.940615
9896.000000;0.939636
9895.000000;0.939059
9894.000000;0.938745
9893.000000;0.938441
9892.000000;0.937851
9891.000000;0.936790
9890.000000;0.935258
9889.000000;0.933409
9888.000000;0.931518
9887.000000;0.929886
9886.000000;0.928635
9885.000000;0.927567
9884.000000;0.926335
9883.000000;0.924807
9882.000000;0.923158
9881.000000;0.921594
9880.000000;0.920103
9879.000000;0.918571
9878.000000;0.917016
9877.000000;0.915579
9876.000000;0.914317
9875.000000;0.913163
9874.000000;0.912095
9873.000000;0.911208
9872.000000;0.910511
9871.000000;0.909753
9870.000000;0.908557
9869.000000;0.906737
9868.000000;0.904428
9867.000000;0.901941
9866.000000;0.899598
9865.000000;0.897661
9864.000000;0.896239
9863.000000;0.895172
9862.000000;0.894128
9861.000000;0.892958
9860.000000;0.891830
9859.000000;0.890889
9858.000000;0.889905
9857.000000;0.888509
9856.000000;0.886727
9855.000000;0.884994
9854.000000;0.883596
9853.000000;0.882362
9852.000000;0.881016
9851.000000;0.879564
9850.000000;0.878155
9849.000000;0.876745
9848.000000;0.875147
9847.000000;0.873331
9846.000000;0.871484
9845.000000;0.869810
9844.000000;0.868416
9843.000000;0.867291
9842.000000;0.866233
9841.000000;0.864892
9840.000000;0.863065
9839.000000;0.860920
9838.000000;0.858790
9837.000000;0.856849
9836.000000;0.855163
9835.000000;0.853872
9834.000000;0.853025
9833.000000;0.852287
9832.000000;0.851171
9831.000000;0.849637
9830.000000;0.848133
9829.000000;0.846921
9828.000000;0.845640
9827.000000;0.843780
9826.000000;0.841416
9825.000000;0.839198
9824.000000;0.837690
9823.000000;0.836873
9822.000000;0.836265
9821.000000;0.835350
9820.000000;0.833939
9819.000000;0.832192
9818.000000;0.830367
9817.000000;0.828570
9816.000000;0.826787
9815.000000;0.825094
9814.000000;0.823628
9813.000000;0.822331
9812.000000;0.820918
9811.000000;0.819206
9810.000000;0.817309
9809.000000;0.815427
9808.000000;0.813603
9807.000000;0.811844
9806.000000;0.810295
9805.000000;0.809074
9804.000000;0.808000
9803.000000;0.806722
9802.000000;0.805113
9801.000000;0.803351
9800.000000;0.801617
9799.000000;0.799891
9798.000000;0.798079
9797.000000;0.796177
9796.000000;0.794233
9795.000000;0.792290
9794.000000;0.790441
9793.000000;0.788838
9792.000000;0.787527
9791.000000;0.786313
9790.000000;0.784921
9789.000000;0.783313
9788.000000;0.781731
9787.000000;0.780373
9786.000000;0.779066
9785.000000;0.777379
9784.000000;0.775112
9783.000000;0.772604
9782.000000;0.770462
9781.000000;0.768995
9780.000000;0.767991
9779.000000;0.767009
9778.000000;0.765727
9777.000000;0.764000
9776.000000;0.761790
9775.000000;0.759252
9774.000000;0.756795
9773.000000;0.754826
9772.000000;0.753374
9771.000000;0.752079
9770.000000;0.750615
9769.000000;0.749016
9768.000000;0.747550
9767.000000;0.746368
9766.000000;0.745341
9765.000000;0.744186
9764.000000;0.742671
9763.000000;0.740750
9762.000000;0.738552
9761.000000;0.736270
9760.000000;0.734057
9759.000000;0.731984
9758.000000;0.730073
9757.000000;0.728332
9756.000000;0.726768
9755.000000;0.725400
9754.000000;0.724229
9753.000000;0.723123
9752.000000;0.721748
9751.000000;0.719745
9750.000000;0.717089
9749.000000;0.714260
9748.000000;0.711919
9747.000000;0.710360
9746.000000;0.709286
9745.000000;0.708158
9744.000000;0.706682
9743.000000;0.704921
9742.000000;0.703012
9741.000000;0.700975
9740.000000;0.698844
9739.000000;0.696808
9738.000000;0.695079
9737.000000;0.693646
9736.000000;0.692293
9735.000000;0.690820
9734.000000;0.689168
9733.000000;0.687357
9732.000000;0.685459
9731.000000;0.683623
9730.000000;0.681983
9729.000000;0.680479
9728.000000;0.678871
9727.000000;0.676980
9726.000000;0.674822
9725.000000;0.672496
9724.000000;0.670088
9723.000000;0.667755
9722.000000;0.665739
9721.000000;0.664147
9720.000000;0.662797
9719.000000;0.661392
9718.000000;0.659805
9717.000000;0.658074
9716.000000;0.656213
9715.000000;0.654184
9714.000000;0.652050
9713.000000;0.649974
9712.000000;0.648066
9711.000000;0.646301
9710.000000;0.644604
9709.000000;0.642888
9708.000000;0.641001
9707.000000;0.638783
9706.000000;0.636273
9705.000000;0.633740
9704.000000;0.631452
9703.000000;0.629460
9702.000000;0.627644
9701.000000;0.625891
9700.000000;0.624161
9699.000000;0.622448
9698.000000;0.620734
9697.000000;0.618973
9696.000000;0.617069
9695.000000;0.614934
9694.000000;0.612631
9693.000000;0.610413
9692.000000;0.608524
9691.000000;0.606943
9690.000000;0.605379
9689.000000;0.603545
9688.000000;0.601402
9687.000000;0.599097
9686.000000;0.596740
9685.000000;0.594350
9684.000000;0.592010
9683.000000;0.589940
9682.000000;0.588288
9681.000000;0.586846
9680.000000;0.585132
9679.000000;0.582861
9678.000000;0.580282
9677.000000;0.577924
9676.000000;0.576036
9675.000000;0.574400
9674.000000;0.572689
9673.000000;0.570860
9672.000000;0.569055
9671.000000;0.567235
9670.000000;0.565111
9669.000000;0.562521
9668.000000;0.559754
9667.000000;0.557358
9666.000000;0.555619
9665.000000;0.554288
9664.000000;0.552828
9663.000000;0.550878
9662.000000;0.548483
9661.000000;0.545961
9660.000000;0.543617
9659.000000;0.541538
9658.000000;0.539546
9657.000000;0.537345
9656.000000;0.534764
9655.000000;0.531903
9654.000000;0.529036
9653.000000;0.526419
9652.000000;0.524203
9651.000000;0.522430
9650.000000;0.520970
9649.000000;0.519497
9648.000000;0.517701
9647.000000;0.515602
9646.000000;0.513519
9645.000000;0.511659
9644.000000;0.509878
9643.000000;0.507908
9642.000000;0.505680
9641.000000;0.503309
9640.000000;0.500905
9639.000000;0.498551
9638.000000;0.496358
9637.000000;0.494358
9636.000000;0.492399
9635.000000;0.490328
9634.000000;0.488205
9633.000000;0.486179
9632.000000;0.484203
9631.000000;0.482077
9630.000000;0.479732
9629.000000;0.477265
9628.000000;0.474720
9627.000000;0.472054
9626.000000;0.469313
9625.000000;0.466618
9624.000000;0.463975
9623.000000;0.461365
9622.000000;0.459009
9621.000000;0.457196
9620.000000;0.455766
9619.000000;0.454103
9618.000000;0.451858
9617.000000;0.449365
9616.000000;0.447094
9615.000000;0.445001
9614.000000;0.442758
9613.000000;0.440358
9612.000000;0.438055
9611.000000;0.435822
9610.000000;0.433344
9609.000000;0.430594
9608.000000;0.427987
9607.000000;0.425837
9606.000000;0.423959
9605.000000;0.421971
9604.000000;0.419748
9603.000000;0.417394
9602.000000;0.414995
9601.000000;0.412574
9600.000000;0.410147
9599.000000;0.407674
9598.000000;0.405059
9597.000000;0.402328
9596.000000;0.399678
9595.000000;0.397237
9594.000000;0.394860
9593.000000;0.392356
9592.000000;0.389808
9591.000000;0.387496
9590.000000;0.385511
9589.000000;0.383613
9588.000000;0.381486
9587.000000;0.379061
9586.000000;0.376565
9585.000000;0.374307
9584.000000;0.372411
9583.000000;0.370690
9582.000000;0.368790
9581.000000;0.366487
9580.000000;0.363860
9579.000000;0.361143
9578.000000;0.358482
9577.000000;0.355868
9576.000000;0.353279
9575.000000;0.350792
9574.000000;0.348534
9573.000000;0.346525
9572.000000;0.344571
9571.000000;0.342378
9570.000000;0.339836
9569.000000;0.337196
9568.000000;0.334839
9567.000000;0.332852
9566.000000;0.330930
9565.000000;0.328766
9564.000000;0.326419
9563.000000;0.324181
9562.000000;0.322157
9561.000000;0.320126
9560.000000;0.317826
9559.000000;0.315217
9558.000000;0.312450
9557.000000;0.309681
9556.000000;0.306996
9555.000000;0.304456
9554.000000;0.302094
9553.000000;0.299869
9552.000000;0.297665
9551.000000;0.295388
9550.000000;0.293081
9549.000000;0.290902
9548.000000;0.288981
9547.000000;0.287269
9546.000000;0.285559
9545.000000;0.283630
9544.000000;0.281368
9543.000000;0.278807
9542.000000;0.276138
9541.000000;0.273655
9540.000000;0.271555
9539.000000;0.269716
9538.000000;0.267749
9537.000000;0.265352
9536.000000;0.262608
9535.000000;0.259870
9534.000000;0.257433
9533.000000;0.255346
9532.000000;0.253496
9531.000000;0.251757
9530.000000;0.250070
9529.000000;0.248428
9528.000000;0.246800
9527.000000;0.245055
9526.000000;0.242991
9525.000000;0.240491
9524.000000;0.237643
9523.000000;0.234706
9522.000000;0.231982
9521.000000;0.229732
9520.000000;0.228080
9519.000000;0.226881
9518.000000;0.225729
9517.000000;0.224216
9516.000000;0.222254
9515.000000;0.220079
9514.000000;0.217945
9513.000000;0.215882
9512.000000;0.213754
9511.000000;0.211473
9510.000000;0.209128
9509.000000;0.206947
9508.000000;0.205164
9507.000000;0.203848
9506.000000;0.202794
9505.000000;0.201609
9504.000000;0.199981
9503.000000;0.197937
9502.000000;0.195821
9501.000000;0.193990
9500.000000;0.192505
9499.000000;0.191124
9498.000000;0.189593
9497.000000;0.187885
9496.000000;0.186133
9495.000000;0.184392
9494.000000;0.182581
9493.000000;0.180684
9492.000000;0.178871
9491.000000;0.177346
9490.000000;0.176124
9489.000000;0.175040
9488.000000;0.173959
9487.000000;0.172900
9486.000000;0.171963
9485.000000;0.171171
9484.000000;0.170375
9483.000000;0.169294
9482.000000;0.167740
9481.000000;0.165892
9480.000000;0.164266
9479.000000;0.163280
9478.000000;0.162819
9477.000000;0.162343
9476.000000;0.161426
9475.000000;0.160090
9474.000000;0.158633
9473.000000;0.157274
9472.000000;0.156058
9471.000000;0.155001
9470.000000;0.154136
9469.000000;0.153435
9468.000000;0.152780
9467.000000;0.152075
9466.000000;0.151326
9465.000000;0.150586
9464.000000;0.149851
9463.000000;0.149042
9462.000000;0.148095
9461.000000;0.147061
9460.000000;0.146107
9459.000000;0.145412
9458.000000;0.145025
9457.000000;0.144811
9456.000000;0.144542
9455.000000;0.144055
9454.000000;0.143365
9453.000000;0.142653
9452.000000;0.142132
9451.000000;0.141867
9450.000000;0.141699
9449.000000;0.141382
9448.000000;0.140838
9447.000000;0.140296
9446.000000;0.140129
9445.000000;0.140529
9444.000000;0.141306
9443.000000;0.142000
9442.000000;0.142205
9441.000000;0.141839
9440.000000;0.141136
9439.000000;0.140432
9438.000000;0.139969
9437.000000;0.139848
9436.000000;0.140070
9435.000000;0.140529
9434.000000;0.141019
9433.000000;0.141343
9432.000000;0.141477
9431.000000;0.141608
9430.000000;0.141973
9429.000000;0.142626
9428.000000;0.143366
9427.000000;0.143892
9426.000000;0.144066
9425.000000;0.144038
9424.000000;0.144112
9423.000000;0.144465
9422.000000;0.145024
9421.000000;0.145620
9420.000000;0.146189
9419.000000;0.146773
9418.000000;0.147355
9417.000000;0.147818
9416.000000;0.148095
9415.000000;0.148301
9414.000000;0.148650
9413.000000;0.149252
9412.000000;0.150013
9411.000000;0.150709
9410.000000;0.151151
9409.000000;0.151342
9408.000000;0.151520
9407.000000;0.152000
9406.000000;0.152916
9405.000000;0.154102
9404.000000;0.155266
9403.000000;0.156258
9402.000000;0.157172
9401.000000;0.158187
9400.000000;0.159375
9399.000000;0.160635
9398.000000;0.161766
9397.000000;0.162572
9396.000000;0.162971
9395.000000;0.163062
9394.000000;0.163104
9393.000000;0.163394
9392.000000;0.164109
9391.000000;0.165205
9390.000000;0.166446
9389.000000;0.167582
9388.000000;0.168573
9387.000000;0.169643
9386.000000;0.171041
9385.000000;0.172743
9384.000000;0.174397
9383.000000;0.175630
9382.000000;0.176382
9381.000000;0.176932
9380.000000;0.177619
9379.000000;0.178573
9378.000000;0.179699
9377.000000;0.180854
9376.000000;0.182013
9375.000000;0.183260
9374.000000;0.184673
9373.000000;0.186220
9372.000000;0.187751
9371.000000;0.189090
9370.000000;0.190118
9369.000000;0.190810
9368.000000;0.191236
9367.000000;0.191567
9366.000000;0.192055
9365.000000;0.192924
9364.000000;0.194203
9363.000000;0.195687
9362.000000;0.197106
9361.000000;0.198362
9360.000000;0.199576
9359.000000;0.200920
9358.000000;0.202434
9357.000000;0.204021
9356.000000;0.205564
9355.000000;0.206998
9354.000000;0.208291
9353.000000;0.209402
9352.000000;0.210295
9351.000000;0.210996
9350.000000;0.211608
9349.000000;0.212241
9348.000000;0.212923
9347.000000;0.213630
9346.000000;0.214426
9345.000000;0.215499
9344.000000;0.216972
9343.000000;0.218707
9342.000000;0.220423
9341.000000;0.221996
9340.000000;0.223536
9339.000000;0.225131
9338.000000;0.226654
9337.000000;0.227913
9336.000000;0.228881
9335.000000;0.229667
9334.000000;0.230364
9333.000000;0.231051
9332.000000;0.231872
9331.000000;0.232953
9330.000000;0.234251
9329.000000;0.235615
9328.000000;0.236972
9327.000000;0.238318
9326.000000;0.239551
9325.000000;0.240502
9324.000000;0.241187
9323.000000;0.241894
9322.000000;0.242909
9321.000000;0.244246
9320.000000;0.245694
9319.000000;0.247058
9318.000000;0.248289
9317.000000;0.249446
9316.000000;0.250604
9315.000000;0.251778
9314.000000;0.252897
9313.000000;0.253863
9312.000000;0.254691
9311.000000;0.255525
9310.000000;0.256518
9309.000000;0.257734
9308.000000;0.259164
9307.000000;0.260734
9306.000000;0.262271
9305.000000;0.263547
9304.000000;0.264455
9303.000000;0.265105
9302.000000;0.265709
9301.000000;0.266413
9300.000000;0.267278
9299.000000;0.268335
9298.000000;0.269589
9297.000000;0.270993
9296.000000;0.272475
9295.000000;0.273942
9294.000000;0.275257
9293.000000;0.276297
9292.000000;0.277132
9291.000000;0.278040
9290.000000;0.279233
9289.000000;0.280582
9288.000000;0.281734
9287.000000;0.282500
9286.000000;0.283055
9285.000000;0.283748
9284.000000;0.284796
9283.000000;0.286156
9282.000000;0.287627
9281.000000;0.289002
9280.000000;0.290192
9279.000000;0.291251
9278.000000;0.292300
9277.000000;0.293412
9276.000000;0.294557
9275.000000;0.295623
9274.000000;0.296508
9273.000000;0.297242
9272.000000;0.298040
9271.000000;0.299132
9270.000000;0.300517
9269.000000;0.301908
9268.000000;0.303023
9267.000000;0.303876
9266.000000;0.304708
9265.000000;0.305667
9264.000000;0.306650
9263.000000;0.307455
9262.000000;0.308021
9261.000000;0.308484
9260.000000;0.309070
9259.000000;0.309924
9258.000000;0.311001
9257.000000;0.312108
9256.000000;0.313095
9255.000000;0.313996
9254.000000;0.314921
9253.000000;0.315870
9252.000000;0.316749
9251.000000;0.317555
9250.000000;0.318431
9249.000000;0.319458
9248.000000;0.320518
9247.000000;0.321459
9246.000000;0.322297
9245.000000;0.323142
9244.000000;0.323966
9243.000000;0.324617
9242.000000;0.325107
9241.000000;0.325716
9240.000000;0.326703
9239.000000;0.327980
9238.000000;0.329205
9237.000000;0.330166
9236.000000;0.330943
9235.000000;0.331699
9234.000000;0.332453
9233.000000;0.333171
9232.000000;0.333958
9231.000000;0.335001
9230.000000;0.336310
9229.000000;0.337631
9228.000000;0.338670
9227.000000;0.339333
9226.000000;0.339734
9225.000000;0.340066
9224.000000;0.340523
9223.000000;0.341256
9222.000000;0.342272
9221.000000;0.343379
9220.000000;0.344320
9219.000000;0.344986
9218.000000;0.345491
9217.000000;0.346025
9216.000000;0.346695
9215.000000;0.347471
9214.000000;0.348238
9213.000000;0.348880
9212.000000;0.349387
9211.000000;0.349894
9210.000000;0.350607
9209.000000;0.351614
9208.000000;0.352783
9207.000000;0.353853
9206.000000;0.354651
9205.000000;0.355206
9204.000000;0.355696
9203.000000;0.356308
9202.000000;0.357124
9201.000000;0.358081
9200.000000;0.359017
9199.000000;0.359794
9198.000000;0.360411
9197.000000;0.360995
9196.000000;0.361648
9195.000000;0.362336
9194.000000;0.362986
9193.000000;0.363616
9192.000000;0.364301
9191.000000;0.365008
9190.000000;0.365584
9189.000000;0.365960
9188.000000;0.366263
9187.000000;0.366662
9186.000000;0.367189
9185.000000;0.367797
9184.000000;0.368516
9183.000000;0.369405
9182.000000;0.370396
9181.000000;0.371328
9180.000000;0.372126
9179.000000;0.372847
9178.000000;0.373519
9177.000000;0.374097
9176.000000;0.374597
9175.000000;0.375164
9174.000000;0.375890
9173.000000;0.376666
9172.000000;0.377274
9171.000000;0.377613
9170.000000;0.377772
9169.000000;0.377961
9168.000000;0.378381
9167.000000;0.379101
9166.000000;0.379974
9165.000000;0.380735
9164.000000;0.381264
9163.000000;0.381699
9162.000000;0.382249
9161.000000;0.382945
9160.000000;0.383650
9159.000000;0.384249
9158.000000;0.384738
9157.000000;0.385164
9156.000000;0.385601
9155.000000;0.386169
9154.000000;0.386962
9153.000000;0.387900
9152.000000;0.388740
9151.000000;0.389287
9150.000000;0.389577
9149.000000;0.389819
9148.000000;0.390156
9147.000000;0.390533
9146.000000;0.390800
9145.000000;0.390957
9144.000000;0.391249
9143.000000;0.391959
9142.000000;0.393092
9141.000000;0.394311
9140.000000;0.395220
9139.000000;0.395676
9138.000000;0.395834
9137.000000;0.395959
9136.000000;0.396257
9135.000000;0.396789
9134.000000;0.397446
9133.000000;0.398025
9132.000000;0.398431
9131.000000;0.398798
9130.000000;0.399318
9129.000000;0.399984
9128.000000;0.400585
9127.000000;0.400992
9126.000000;0.401318
9125.000000;0.401763
9124.000000;0.402376
9123.000000;0.403023
9122.000000;0.403534
9121.000000;0.403829
9120.000000;0.403952
9119.000000;0.404059
9118.000000;0.404334
9117.000000;0.404838
9116.000000;0.405462
9115.000000;0.406047
9114.000000;0.406552
9113.000000;0.407018
9112.000000;0.407442
9111.000000;0.407770
9110.000000;0.408030
9109.000000;0.408362
9108.000000;0.408877
9107.000000;0.409541
9106.000000;0.410240
9105.000000;0.410877
9104.000000;0.411381
9103.000000;0.411692
9102.000000;0.411828
9101.000000;0.411923
9100.000000;0.412116
9099.000000;0.412435
9098.000000;0.412849
9097.000000;0.413372
9096.000000;0.413990
9095.000000;0.414522
9094.000000;0.414747
9093.000000;0.414714
9092.000000;0.414740
9091.000000;0.415036
9090.000000;0.415465
9089.000000;0.415804
9088.000000;0.416098
9087.000000;0.416547
9086.000000;0.417157
9085.000000;0.417713
9084.000000;0.418109
9083.000000;0.418485
9082.000000;0.418968
9081.000000;0.419450
9080.000000;0.419737
9079.000000;0.419815
9078.000000;0.419864
9077.000000;0.420063
9076.000000;0.420438
9075.000000;0.420858
9074.000000;0.421122
9073.000000;0.421103
9072.000000;0.420875
9071.000000;0.420667
9070.000000;0.420680
9069.000000;0.420978
9068.000000;0.421522
9067.000000;0.422222
9066.000000;0.422914
9065.000000;0.423432
9064.000000;0.423784
9063.000000;0.424146
9062.000000;0.424619
9061.000000;0.425067
9060.000000;0.425312
9059.000000;0.425410
9058.000000;0.425569
9057.000000;0.425865
9056.000000;0.426180
9055.000000;0.426422
9054.000000;0.426646
9053.000000;0.426905
