Criado como novo conjunto de dados;"0307_DANIEL.spp","65165.4 Secs"
cm-1;Abs
10000.000000;0.576352
9999.000000;0.575712
9998.000000;0.575087
9997.000000;0.574435
9996.000000;0.573892
9995.000000;0.573313
9994.000000;0.572477
9993.000000;0.571569
9992.000000;0.570825
9991.000000;0.570266
9990.000000;0.569666
9989.000000;0.568852
9988.000000;0.567872
9987.000000;0.566860
9986.000000;0.565861
9985.000000;0.564850
9984.000000;0.563867
9983.000000;0.562982
9982.000000;0.562113
9981.000000;0.561030
9980.000000;0.559660
9979.000000;0.558302
9978.000000;0.557371
9977.000000;0.556956
9976.000000;0.556761
9975.000000;0.556474
9974.000000;0.556026
9973.000000;0.555470
9972.000000;0.554812
9971.000000;0.554077
9970.000000;0.553389
9969.000000;0.552787
9968.000000;0.552060
9967.000000;0.550953
9966.000000;0.549526
9965.000000;0.548147
9964.000000;0.547142
9963.000000;0.546556
9962.000000;0.546242
9961.000000;0.545992
9960.000000;0.545561
9959.000000;0.544758
9958.000000;0.543635
9957.000000;0.542490
9956.000000;0.541562
9955.000000;0.540769
9954.000000;0.539850
9953.000000;0.538706
9952.000000;0.537531
9951.000000;0.536593
9950.000000;0.535956
9949.000000;0.535405
9948.000000;0.534647
9947.000000;0.533608
9946.000000;0.532545
9945.000000;0.531779
9944.000000;0.531298
9943.000000;0.530718
9942.000000;0.529704
9941.000000;0.528364
9940.000000;0.527122
9939.000000;0.526265
9938.000000;0.525744
9937.000000;0.525370
9936.000000;0.525025
9935.000000;0.524601
9934.000000;0.523919
9933.000000;0.522866
9932.000000;0.521570
9931.000000;0.520300
9930.000000;0.519171
9929.000000;0.518090
9928.000000;0.516993
9927.000000;0.515985
9926.000000;0.515185
9925.000000;0.514544
9924.000000;0.513929
9923.000000;0.513302
9922.000000;0.512646
9921.000000;0.511803
9920.000000;0.510575
9919.000000;0.509019
9918.000000;0.507476
9917.000000;0.506218
9916.000000;0.505217
9915.000000;0.504307
9914.000000;0.503450
9913.000000;0.502691
9912.000000;0.501984
9911.000000;0.501231
9910.000000;0.500434
9909.000000;0.499647
9908.000000;0.498786
9907.000000;0.497683
9906.000000;0.496368
9905.000000;0.495148
9904.000000;0.494289
9903.000000;0.493717
9902.000000;0.493116
9901.000000;0.492259
9900.000000;0.491169
9899.000000;0.490000
9898.000000;0.488861
9897.000000;0.487781
9896.000000;0.486749
9895.000000;0.485753
9894.000000;0.484798
9893.000000;0.483899
9892.000000;0.483048
9891.000000;0.482177
9890.000000;0.481184
9889.000000;0.480067
9888.000000;0.478988
9887.000000;0.478136
9886.000000;0.477496
9885.000000;0.476805
9884.000000;0.475833
9883.000000;0.474647
9882.000000;0.473509
9881.000000;0.472524
9880.000000;0.471525
9879.000000;0.470329
9878.000000;0.469003
9877.000000;0.467774
9876.000000;0.466783
9875.000000;0.466001
9874.000000;0.465316
9873.000000;0.464616
9872.000000;0.463818
9871.000000;0.462899
9870.000000;0.461874
9869.000000;0.460685
9868.000000;0.459227
9867.000000;0.457595
9866.000000;0.456205
9865.000000;0.455470
9864.000000;0.455323
9863.000000;0.455224
9862.000000;0.454659
9861.000000;0.453536
9860.000000;0.452092
9859.000000;0.450570
9858.000000;0.449076
9857.000000;0.447602
9856.000000;0.446073
9855.000000;0.444462
9854.000000;0.442937
9853.000000;0.441799
9852.000000;0.441140
9851.000000;0.440638
9850.000000;0.439845
9849.000000;0.438667
9848.000000;0.437435
9847.000000;0.436481
9846.000000;0.435760
9845.000000;0.434927
9844.000000;0.433702
9843.000000;0.432098
9842.000000;0.430390
9841.000000;0.428940
9840.000000;0.427960
9839.000000;0.427329
9838.000000;0.426627
9837.000000;0.425481
9836.000000;0.423946
9835.000000;0.422434
9834.000000;0.421229
9833.000000;0.420187
9832.000000;0.419008
9831.000000;0.417707
9830.000000;0.416591
9829.000000;0.415801
9828.000000;0.415102
9827.000000;0.414236
9826.000000;0.413287
9825.000000;0.412506
9824.000000;0.411881
9823.000000;0.411093
9822.000000;0.409892
9821.000000;0.408353
9820.000000;0.406698
9819.000000;0.405025
9818.000000;0.403276
9817.000000;0.401420
9816.000000;0.399604
9815.000000;0.398125
9814.000000;0.397240
9813.000000;0.396918
9812.000000;0.396787
9811.000000;0.396387
9810.000000;0.395501
9809.000000;0.394196
9808.000000;0.392626
9807.000000;0.390919
9806.000000;0.389275
9805.000000;0.387956
9804.000000;0.387043
9803.000000;0.386254
9802.000000;0.385141
9801.000000;0.383503
9800.000000;0.381582
9799.000000;0.379844
9798.000000;0.378567
9797.000000;0.377637
9796.000000;0.376698
9795.000000;0.375519
9794.000000;0.374178
9793.000000;0.372878
9792.000000;0.371687
9791.000000;0.370527
9790.000000;0.369339
9789.000000;0.368112
9788.000000;0.366768
9787.000000;0.365216
9786.000000;0.363580
9785.000000;0.362172
9784.000000;0.361134
9783.000000;0.360215
9782.000000;0.359062
9781.000000;0.357655
9780.000000;0.356304
9779.000000;0.355230
9778.000000;0.354286
9777.000000;0.353135
9776.000000;0.351609
9775.000000;0.349880
9774.000000;0.348289
9773.000000;0.347024
9772.000000;0.345933
9771.000000;0.344696
9770.000000;0.343184
9769.000000;0.341629
9768.000000;0.340385
9767.000000;0.339553
9766.000000;0.338872
9765.000000;0.337933
9764.000000;0.336496
9763.000000;0.334673
9762.000000;0.332873
9761.000000;0.331481
9760.000000;0.330506
9759.000000;0.329565
9758.000000;0.328302
9757.000000;0.326750
9756.000000;0.325189
9755.000000;0.323735
9754.000000;0.322255
9753.000000;0.320678
9752.000000;0.319166
9751.000000;0.317891
9750.000000;0.316780
9749.000000;0.315608
9748.000000;0.314268
9747.000000;0.312844
9746.000000;0.311469
9745.000000;0.310180
9744.000000;0.308904
9743.000000;0.307524
9742.000000;0.305980
9741.000000;0.304352
9740.000000;0.302820
9739.000000;0.301485
9738.000000;0.300263
9737.000000;0.298995
9736.000000;0.297627
9735.000000;0.296229
9734.000000;0.294876
9733.000000;0.293598
9732.000000;0.292379
9731.000000;0.291092
9730.000000;0.289489
9729.000000;0.287422
9728.000000;0.285125
9727.000000;0.283093
9726.000000;0.281602
9725.000000;0.280430
9724.000000;0.279164
9723.000000;0.277656
9722.000000;0.276035
9721.000000;0.274381
9720.000000;0.272627
9719.000000;0.270799
9718.000000;0.269126
9717.000000;0.267779
9716.000000;0.266633
9715.000000;0.265414
9714.000000;0.264018
9713.000000;0.262583
9712.000000;0.261270
9711.000000;0.260068
9710.000000;0.258801
9709.000000;0.257276
9708.000000;0.255457
9707.000000;0.253529
9706.000000;0.251735
9705.000000;0.250108
9704.000000;0.248441
9703.000000;0.246606
9702.000000;0.244784
9701.000000;0.243253
9700.000000;0.242007
9699.000000;0.240740
9698.000000;0.239215
9697.000000;0.237502
9696.000000;0.235821
9695.000000;0.234270
9694.000000;0.232765
9693.000000;0.231158
9692.000000;0.229368
9691.000000;0.227469
9690.000000;0.225664
9689.000000;0.224090
9688.000000;0.222613
9687.000000;0.220893
9686.000000;0.218721
9685.000000;0.216243
9684.000000;0.213845
9683.000000;0.211864
9682.000000;0.210429
9681.000000;0.209441
9680.000000;0.208611
9679.000000;0.207606
9678.000000;0.206270
9677.000000;0.204686
9676.000000;0.202989
9675.000000;0.201195
9674.000000;0.199283
9673.000000;0.197340
9672.000000;0.195519
9671.000000;0.193864
9670.000000;0.192272
9669.000000;0.190601
9668.000000;0.188769
9667.000000;0.186771
9666.000000;0.184694
9665.000000;0.182710
9664.000000;0.180959
9663.000000;0.179415
9662.000000;0.177910
9661.000000;0.176297
9660.000000;0.174565
9659.000000;0.172805
9658.000000;0.171098
9657.000000;0.169426
9656.000000;0.167669
9655.000000;0.165715
9654.000000;0.163610
9653.000000;0.161579
9652.000000;0.159822
9651.000000;0.158317
9650.000000;0.156859
9649.000000;0.155272
9648.000000;0.153525
9647.000000;0.151673
9646.000000;0.149781
9645.000000;0.147942
9644.000000;0.146246
9643.000000;0.144675
9642.000000;0.143046
9641.000000;0.141144
9640.000000;0.138934
9639.000000;0.136627
9638.000000;0.134517
9637.000000;0.132741
9636.000000;0.131181
9635.000000;0.129613
9634.000000;0.127931
9633.000000;0.126186
9632.000000;0.124404
9631.000000;0.122494
9630.000000;0.120435
9629.000000;0.118451
9628.000000;0.116819
9627.000000;0.115453
9626.000000;0.113853
9625.000000;0.111600
9624.000000;0.108878
9623.000000;0.106355
9622.000000;0.104500
9621.000000;0.103110
9620.000000;0.101568
9619.000000;0.099498
9618.000000;0.097062
9617.000000;0.094642
9616.000000;0.092424
9615.000000;0.090413
9614.000000;0.088678
9613.000000;0.087283
9612.000000;0.085969
9611.000000;0.084184
9610.000000;0.081662
9609.000000;0.078840
9608.000000;0.076452
9607.000000;0.074735
9606.000000;0.073236
9605.000000;0.071419
9604.000000;0.069249
9603.000000;0.067095
9602.000000;0.065207
9601.000000;0.063476
9600.000000;0.061655
9599.000000;0.059668
9598.000000;0.057686
9597.000000;0.055944
9596.000000;0.054484
9595.000000;0.053038
9594.000000;0.051210
9593.000000;0.048860
9592.000000;0.046301
9591.000000;0.044047
9590.000000;0.042323
9589.000000;0.040845
9588.000000;0.039083
9587.000000;0.036724
9586.000000;0.033898
9585.000000;0.031032
9584.000000;0.028514
9583.000000;0.026473
9582.000000;0.024772
9581.000000;0.023174
9580.000000;0.021531
9579.000000;0.019831
9578.000000;0.018102
9577.000000;0.016288
9576.000000;0.014273
9575.000000;0.012042
9574.000000;0.009774
9573.000000;0.007717
9572.000000;0.005947
9571.000000;0.004286
9570.000000;0.002470
9569.000000;0.000373
9568.000000;-0.001919
9567.000000;-0.004191
9566.000000;-0.006242
9565.000000;-0.008018
9564.000000;-0.009691
9563.000000;-0.011560
9562.000000;-0.013803
9561.000000;-0.016299
9560.000000;-0.018738
9559.000000;-0.020873
9558.000000;-0.022666
9557.000000;-0.024233
9556.000000;-0.025752
9555.000000;-0.027408
9554.000000;-0.029299
9553.000000;-0.031344
9552.000000;-0.033354
9551.000000;-0.035255
9550.000000;-0.037194
9549.000000;-0.039317
9548.000000;-0.041505
9547.000000;-0.043427
9546.000000;-0.044903
9545.000000;-0.046143
9544.000000;-0.047576
9543.000000;-0.049483
9542.000000;-0.051822
9541.000000;-0.054346
9540.000000;-0.056797
9539.000000;-0.058994
9538.000000;-0.060876
9537.000000;-0.062548
9536.000000;-0.064230
9535.000000;-0.066063
9534.000000;-0.067982
9533.000000;-0.069835
9532.000000;-0.071606
9531.000000;-0.073434
9530.000000;-0.075421
9529.000000;-0.077510
9528.000000;-0.079594
9527.000000;-0.081643
9526.000000;-0.083674
9525.000000;-0.085662
9524.000000;-0.087568
9523.000000;-0.089399
9522.000000;-0.091159
9521.000000;-0.092786
9520.000000;-0.094226
9519.000000;-0.095549
9518.000000;-0.096911
9517.000000;-0.098381
9516.000000;-0.099896
9515.000000;-0.101395
9514.000000;-0.102925
9513.000000;-0.104561
9512.000000;-0.106282
9511.000000;-0.108020
9510.000000;-0.109795
9509.000000;-0.111715
9508.000000;-0.113759
9507.000000;-0.115629
9506.000000;-0.116950
9505.000000;-0.117703
9504.000000;-0.118373
9503.000000;-0.119548
9502.000000;-0.121370
9501.000000;-0.123476
9500.000000;-0.125453
9499.000000;-0.127167
9498.000000;-0.128629
9497.000000;-0.129779
9496.000000;-0.130612
9495.000000;-0.131353
9494.000000;-0.132259
9493.000000;-0.133275
9492.000000;-0.134142
9491.000000;-0.134868
9490.000000;-0.135828
9489.000000;-0.137254
9488.000000;-0.138849
9487.000000;-0.140098
9486.000000;-0.140849
9485.000000;-0.141402
9484.000000;-0.142089
9483.000000;-0.142974
9482.000000;-0.143940
9481.000000;-0.144886
9480.000000;-0.145749
9479.000000;-0.146499
9478.000000;-0.147224
9477.000000;-0.148139
9476.000000;-0.149376
9475.000000;-0.150767
9474.000000;-0.151935
9473.000000;-0.152632
9472.000000;-0.152964
9471.000000;-0.153274
9470.000000;-0.153834
9469.000000;-0.154676
9468.000000;-0.155637
9467.000000;-0.156513
9466.000000;-0.157129
9465.000000;-0.157374
9464.000000;-0.157278
9463.000000;-0.157093
9462.000000;-0.157190
9461.000000;-0.157745
9460.000000;-0.158546
9459.000000;-0.159175
9458.000000;-0.159440
9457.000000;-0.159538
9456.000000;-0.159783
9455.000000;-0.160213
9454.000000;-0.160561
9453.000000;-0.160588
9452.000000;-0.160333
9451.000000;-0.160031
9450.000000;-0.159850
9449.000000;-0.159779
9448.000000;-0.159738
9447.000000;-0.159700
9446.000000;-0.159666
9445.000000;-0.159567
9444.000000;-0.159309
9443.000000;-0.158955
9442.000000;-0.158785
9441.000000;-0.159033
9440.000000;-0.159526
9439.000000;-0.159740
9438.000000;-0.159315
9437.000000;-0.158441
9436.000000;-0.157607
9435.000000;-0.157045
9434.000000;-0.156599
9433.000000;-0.156127
9432.000000;-0.155761
9431.000000;-0.155620
9430.000000;-0.155488
9429.000000;-0.155006
9428.000000;-0.154104
9427.000000;-0.153037
9426.000000;-0.152022
9425.000000;-0.151058
9424.000000;-0.150103
9423.000000;-0.149241
9422.000000;-0.148552
9421.000000;-0.147996
9420.000000;-0.147499
9419.000000;-0.147064
9418.000000;-0.146665
9417.000000;-0.146154
9416.000000;-0.145393
9415.000000;-0.144455
9414.000000;-0.143578
9413.000000;-0.142919
9412.000000;-0.142397
9411.000000;-0.141782
9410.000000;-0.140896
9409.000000;-0.139781
9408.000000;-0.138705
9407.000000;-0.137902
9406.000000;-0.137269
9405.000000;-0.136389
9404.000000;-0.134971
9403.000000;-0.133193
9402.000000;-0.131508
9401.000000;-0.130167
9400.000000;-0.129073
9399.000000;-0.128057
9398.000000;-0.127121
9397.000000;-0.126343
9396.000000;-0.125699
9395.000000;-0.125068
9394.000000;-0.124307
9393.000000;-0.123273
9392.000000;-0.121899
9391.000000;-0.120331
9390.000000;-0.118912
9389.000000;-0.117849
9388.000000;-0.116946
9387.000000;-0.115787
9386.000000;-0.114196
9385.000000;-0.112410
9384.000000;-0.110793
9383.000000;-0.109489
9382.000000;-0.108390
9381.000000;-0.107326
9380.000000;-0.106199
9379.000000;-0.105001
9378.000000;-0.103778
9377.000000;-0.102545
9376.000000;-0.101208
9375.000000;-0.099641
9374.000000;-0.097915
9373.000000;-0.096355
9372.000000;-0.095217
9371.000000;-0.094353
9370.000000;-0.093348
9369.000000;-0.092000
9368.000000;-0.090497
9367.000000;-0.089058
9366.000000;-0.087595
9365.000000;-0.085873
9364.000000;-0.083878
9363.000000;-0.081862
9362.000000;-0.080059
9361.000000;-0.078531
9360.000000;-0.077267
9359.000000;-0.076241
9358.000000;-0.075346
9357.000000;-0.074408
9356.000000;-0.073350
9355.000000;-0.072204
9354.000000;-0.070941
9353.000000;-0.069424
9352.000000;-0.067640
9351.000000;-0.065853
9350.000000;-0.064367
9349.000000;-0.063200
9348.000000;-0.062113
9347.000000;-0.060912
9346.000000;-0.059574
9345.000000;-0.058084
9344.000000;-0.056350
9343.000000;-0.054341
9342.000000;-0.052240
9341.000000;-0.050330
9340.000000;-0.048742
9339.000000;-0.047371
9338.000000;-0.046035
9337.000000;-0.044690
9336.000000;-0.043443
9335.000000;-0.042355
9334.000000;-0.041285
9333.000000;-0.040031
9332.000000;-0.038615
9331.000000;-0.037331
9330.000000;-0.036397
9329.000000;-0.035654
9328.000000;-0.034704
9327.000000;-0.033310
9326.000000;-0.031554
9325.000000;-0.029641
9324.000000;-0.027684
9323.000000;-0.025735
9322.000000;-0.023895
9321.000000;-0.022293
9320.000000;-0.020979
9319.000000;-0.019891
9318.000000;-0.018900
9317.000000;-0.017877
9316.000000;-0.016753
9315.000000;-0.015550
9314.000000;-0.014341
9313.000000;-0.013166
9312.000000;-0.012008
9311.000000;-0.010835
9310.000000;-0.009628
9309.000000;-0.008339
9308.000000;-0.006893
9307.000000;-0.005275
9306.000000;-0.003574
9305.000000;-0.001928
9304.000000;-0.000429
9303.000000;0.000932
9302.000000;0.002258
9301.000000;0.003681
9300.000000;0.005226
9299.000000;0.006733
9298.000000;0.007986
9297.000000;0.009000
9296.000000;0.010076
9295.000000;0.011489
9294.000000;0.013150
9293.000000;0.014672
9292.000000;0.015792
9291.000000;0.016678
9290.000000;0.017763
9289.000000;0.019310
9288.000000;0.021166
9287.000000;0.022918
9286.000000;0.024282
9285.000000;0.025309
9284.000000;0.026251
9283.000000;0.027271
9282.000000;0.028340
9281.000000;0.029386
9280.000000;0.030448
9279.000000;0.031641
9278.000000;0.033004
9277.000000;0.034417
9276.000000;0.035702
9275.000000;0.036798
9274.000000;0.037838
9273.000000;0.039050
9272.000000;0.040531
9271.000000;0.042170
9270.000000;0.043776
9269.000000;0.045239
9268.000000;0.046500
9267.000000;0.047491
9266.000000;0.048247
9265.000000;0.049040
9264.000000;0.050190
9263.000000;0.051700
9262.000000;0.053234
9261.000000;0.054523
9260.000000;0.055620
9259.000000;0.056691
9258.000000;0.057732
9257.000000;0.058680
9256.000000;0.059649
9255.000000;0.060838
9254.000000;0.062236
9253.000000;0.063633
9252.000000;0.064879
9251.000000;0.065984
9250.000000;0.066937
9249.000000;0.067662
9248.000000;0.068197
9247.000000;0.068797
9246.000000;0.069741
9245.000000;0.071096
9244.000000;0.072679
9243.000000;0.074180
9242.000000;0.075347
9241.000000;0.076157
9240.000000;0.076861
9239.000000;0.077752
9238.000000;0.078878
9237.000000;0.080037
9236.000000;0.081048
9235.000000;0.081888
9234.000000;0.082582
9233.000000;0.083148
9232.000000;0.083737
9231.000000;0.084653
9230.000000;0.086047
9229.000000;0.087680
9228.000000;0.089136
9227.000000;0.090237
9226.000000;0.091148
9225.000000;0.092089
9224.000000;0.093104
9223.000000;0.094120
9222.000000;0.095125
9221.000000;0.096208
9220.000000;0.097446
9219.000000;0.098776
9218.000000;0.100007
9217.000000;0.100968
9216.000000;0.101679
9215.000000;0.102325
9214.000000;0.103060
9213.000000;0.103889
9212.000000;0.104764
9211.000000;0.105721
9210.000000;0.106838
9209.000000;0.108086
9208.000000;0.109310
9207.000000;0.110366
9206.000000;0.111237
9205.000000;0.112021
9204.000000;0.112820
9203.000000;0.113669
9202.000000;0.114532
9201.000000;0.115394
9200.000000;0.116349
9199.000000;0.117539
9198.000000;0.118946
9197.000000;0.120306
9196.000000;0.121297
9195.000000;0.121845
9194.000000;0.122198
9193.000000;0.122690
9192.000000;0.123481
9191.000000;0.124476
9190.000000;0.125465
9189.000000;0.126316
9188.000000;0.127076
9187.000000;0.127890
9186.000000;0.128838
9185.000000;0.129873
9184.000000;0.130905
9183.000000;0.131893
9182.000000;0.132809
9181.000000;0.133616
9180.000000;0.134342
9179.000000;0.135103
9178.000000;0.135938
9177.000000;0.136671
9176.000000;0.137082
9175.000000;0.137218
9174.000000;0.137422
9173.000000;0.137990
9172.000000;0.138902
9171.000000;0.139928
9170.000000;0.140907
9169.000000;0.141862
9168.000000;0.142881
9167.000000;0.143971
9166.000000;0.145018
9165.000000;0.145846
9164.000000;0.146342
9163.000000;0.146571
9162.000000;0.146758
9161.000000;0.147155
9160.000000;0.147910
9159.000000;0.149022
9158.000000;0.150325
9157.000000;0.151511
9156.000000;0.152306
9155.000000;0.152728
9154.000000;0.153112
9153.000000;0.153770
9152.000000;0.154662
9151.000000;0.155494
9150.000000;0.156109
9149.000000;0.156648
9148.000000;0.157315
9147.000000;0.158086
9146.000000;0.158772
9145.000000;0.159300
9144.000000;0.159843
9143.000000;0.160654
9142.000000;0.161797
9141.000000;0.163065
9140.000000;0.164146
9139.000000;0.164920
9138.000000;0.165562
9137.000000;0.166319
9136.000000;0.167189
9135.000000;0.167895
9134.000000;0.168229
9133.000000;0.168342
9132.000000;0.168595
9131.000000;0.169163
9130.000000;0.169867
9129.000000;0.170404
9128.000000;0.170666
9127.000000;0.170810
9126.000000;0.171122
9125.000000;0.171815
9124.000000;0.172901
9123.000000;0.174165
9122.000000;0.175291
9121.000000;0.176080
9120.000000;0.176571
9119.000000;0.176947
9118.000000;0.177354
9117.000000;0.177828
9116.000000;0.178340
9115.000000;0.178858
9114.000000;0.179367
9113.000000;0.179883
9112.000000;0.180451
9111.000000;0.181118
9110.000000;0.181869
9109.000000;0.182623
9108.000000;0.183292
9107.000000;0.183854
9106.000000;0.184394
9105.000000;0.185053
9104.000000;0.185885
9103.000000;0.186750
9102.000000;0.187405
9101.000000;0.187766
9100.000000;0.188053
9099.000000;0.188600
9098.000000;0.189495
9097.000000;0.190480
9096.000000;0.191211
9095.000000;0.191591
9094.000000;0.191822
9093.000000;0.192171
9092.000000;0.192753
9091.000000;0.193511
9090.000000;0.194338
9089.000000;0.195153
9088.000000;0.195864
9087.000000;0.196340
9086.000000;0.196516
9085.000000;0.196529
9084.000000;0.196693
9083.000000;0.197233
9082.000000;0.198054
9081.000000;0.198831
9080.000000;0.199326
9079.000000;0.199585
9078.000000;0.199810
9077.000000;0.200144
9076.000000;0.200622
9075.000000;0.201227
9074.000000;0.201910
9073.000000;0.202558
9072.000000;0.203071
9071.000000;0.203485
9070.000000;0.203933
9069.000000;0.204435
9068.000000;0.204794
9067.000000;0.204820
9066.000000;0.204636
9065.000000;0.204641
