Criado como novo conjunto de dados;"0307_DANIEL.spp","20703.1 Secs"
cm-1;Abs
10000.000000;1.004576
9999.000000;1.003779
9998.000000;1.002708
9997.000000;1.001139
9996.000000;0.999329
9995.000000;0.997661
9994.000000;0.996159
9993.000000;0.994689
9992.000000;0.993478
9991.000000;0.992918
9990.000000;0.992826
9989.000000;0.992356
9988.000000;0.990888
9987.000000;0.988693
9986.000000;0.986528
9985.000000;0.984873
9984.000000;0.983763
9983.000000;0.983039
9982.000000;0.982462
9981.000000;0.981747
9980.000000;0.980794
9979.000000;0.979828
9978.000000;0.979074
9977.000000;0.978388
9976.000000;0.977396
9975.000000;0.975942
9974.000000;0.974222
9973.000000;0.972496
9972.000000;0.970867
9971.000000;0.969317
9970.000000;0.967853
9969.000000;0.966558
9968.000000;0.965518
9967.000000;0.964691
9966.000000;0.963850
9965.000000;0.962742
9964.000000;0.961358
9963.000000;0.959941
9962.000000;0.958705
9961.000000;0.957636
9960.000000;0.956601
9959.000000;0.955546
9958.000000;0.954499
9957.000000;0.953469
9956.000000;0.952402
9955.000000;0.951222
9954.000000;0.949902
9953.000000;0.948556
9952.000000;0.947408
9951.000000;0.946570
9950.000000;0.945873
9949.000000;0.945060
9948.000000;0.944087
9947.000000;0.943061
9946.000000;0.941924
9945.000000;0.940472
9944.000000;0.938710
9943.000000;0.936926
9942.000000;0.935329
9941.000000;0.933857
9940.000000;0.932444
9939.000000;0.931216
9938.000000;0.930258
9937.000000;0.929400
9936.000000;0.928436
9935.000000;0.927371
9934.000000;0.926272
9933.000000;0.925024
9932.000000;0.923467
9931.000000;0.921696
9930.000000;0.920039
9929.000000;0.918797
9928.000000;0.918053
9927.000000;0.917585
9926.000000;0.916864
9925.000000;0.915334
9924.000000;0.912976
9923.000000;0.910493
9922.000000;0.908697
9921.000000;0.907718
9920.000000;0.906975
9919.000000;0.905871
9918.000000;0.904314
9917.000000;0.902600
9916.000000;0.901020
9915.000000;0.899683
9914.000000;0.898572
9913.000000;0.897626
9912.000000;0.896739
9911.000000;0.895758
9910.000000;0.894541
9909.000000;0.893079
9908.000000;0.891555
9907.000000;0.890198
9906.000000;0.889027
9905.000000;0.887791
9904.000000;0.886209
9903.000000;0.884265
9902.000000;0.882267
9901.000000;0.880655
9900.000000;0.879677
9899.000000;0.879136
9898.000000;0.878443
9897.000000;0.877076
9896.000000;0.875036
9895.000000;0.872810
9894.000000;0.870913
9893.000000;0.869585
9892.000000;0.868829
9891.000000;0.868454
9890.000000;0.868017
9889.000000;0.866987
9888.000000;0.865196
9887.000000;0.863042
9886.000000;0.861103
9885.000000;0.859638
9884.000000;0.858519
9883.000000;0.857500
9882.000000;0.856395
9881.000000;0.855104
9880.000000;0.853636
9879.000000;0.852111
9878.000000;0.850639
9877.000000;0.849210
9876.000000;0.847744
9875.000000;0.846197
9874.000000;0.844603
9873.000000;0.843068
9872.000000;0.841730
9871.000000;0.840630
9870.000000;0.839586
9869.000000;0.838307
9868.000000;0.836677
9867.000000;0.834839
9866.000000;0.833030
9865.000000;0.831443
9864.000000;0.830204
9863.000000;0.829276
9862.000000;0.828354
9861.000000;0.827092
9860.000000;0.825514
9859.000000;0.823962
9858.000000;0.822584
9857.000000;0.821128
9856.000000;0.819381
9855.000000;0.817550
9854.000000;0.815976
9853.000000;0.814681
9852.000000;0.813412
9851.000000;0.811990
9850.000000;0.810406
9849.000000;0.808718
9848.000000;0.807101
9847.000000;0.805850
9846.000000;0.805066
9845.000000;0.804398
9844.000000;0.803350
9843.000000;0.801796
9842.000000;0.799993
9841.000000;0.798155
9840.000000;0.796305
9839.000000;0.794504
9838.000000;0.792933
9837.000000;0.791648
9836.000000;0.790472
9835.000000;0.789235
9834.000000;0.787950
9833.000000;0.786675
9832.000000;0.785342
9831.000000;0.783813
9830.000000;0.782019
9829.000000;0.779987
9828.000000;0.777832
9827.000000;0.775784
9826.000000;0.774122
9825.000000;0.772981
9824.000000;0.772218
9823.000000;0.771499
9822.000000;0.770494
9821.000000;0.769020
9820.000000;0.767121
9819.000000;0.765077
9818.000000;0.763241
9817.000000;0.761766
9816.000000;0.760453
9815.000000;0.758947
9814.000000;0.757098
9813.000000;0.755108
9812.000000;0.753310
9811.000000;0.751827
9810.000000;0.750497
9809.000000;0.749097
9808.000000;0.747556
9807.000000;0.745920
9806.000000;0.744242
9805.000000;0.742596
9804.000000;0.741118
9803.000000;0.739857
9802.000000;0.738620
9801.000000;0.737134
9800.000000;0.735366
9799.000000;0.733530
9798.000000;0.731767
9797.000000;0.730004
9796.000000;0.728162
9795.000000;0.726337
9794.000000;0.724634
9793.000000;0.722992
9792.000000;0.721326
9791.000000;0.719715
9790.000000;0.718312
9789.000000;0.717121
9788.000000;0.715992
9787.000000;0.714792
9786.000000;0.713491
9785.000000;0.712095
9784.000000;0.710576
9783.000000;0.708851
9782.000000;0.706807
9781.000000;0.704454
9780.000000;0.702090
9779.000000;0.700219
9778.000000;0.699163
9777.000000;0.698731
9776.000000;0.698288
9775.000000;0.697137
9774.000000;0.694922
9773.000000;0.691859
9772.000000;0.688652
9771.000000;0.685998
9770.000000;0.684081
9769.000000;0.682577
9768.000000;0.681185
9767.000000;0.679932
9766.000000;0.678866
9765.000000;0.677711
9764.000000;0.676100
9763.000000;0.674057
9762.000000;0.671969
9761.000000;0.670116
9760.000000;0.668454
9759.000000;0.666855
9758.000000;0.665312
9757.000000;0.663851
9756.000000;0.662402
9755.000000;0.660886
9754.000000;0.659325
9753.000000;0.657790
9752.000000;0.656286
9751.000000;0.654695
9750.000000;0.652838
9749.000000;0.650617
9748.000000;0.648165
9747.000000;0.645806
9746.000000;0.643785
9745.000000;0.642038
9744.000000;0.640312
9743.000000;0.638440
9742.000000;0.636428
9741.000000;0.634317
9740.000000;0.632152
9739.000000;0.630077
9738.000000;0.628315
9737.000000;0.626979
9736.000000;0.625965
9735.000000;0.625062
9734.000000;0.624061
9733.000000;0.622760
9732.000000;0.621005
9731.000000;0.618826
9730.000000;0.616481
9729.000000;0.614277
9728.000000;0.612330
9727.000000;0.610538
9726.000000;0.608755
9725.000000;0.606948
9724.000000;0.605169
9723.000000;0.603387
9722.000000;0.601459
9721.000000;0.599322
9720.000000;0.597173
9719.000000;0.595299
9718.000000;0.593702
9717.000000;0.592057
9716.000000;0.590148
9715.000000;0.588180
9714.000000;0.586445
9713.000000;0.584817
9712.000000;0.582874
9711.000000;0.580562
9710.000000;0.578416
9709.000000;0.576937
9708.000000;0.575937
9707.000000;0.574724
9706.000000;0.572866
9705.000000;0.570548
9704.000000;0.568209
9703.000000;0.566082
9702.000000;0.564176
9701.000000;0.562457
9700.000000;0.560841
9699.000000;0.559108
9698.000000;0.557045
9697.000000;0.554706
9696.000000;0.552347
9695.000000;0.550070
9694.000000;0.547724
9693.000000;0.545257
9692.000000;0.542961
9691.000000;0.541170
9690.000000;0.539806
9689.000000;0.538442
9688.000000;0.536769
9687.000000;0.534833
9686.000000;0.532797
9685.000000;0.530723
9684.000000;0.528659
9683.000000;0.526731
9682.000000;0.524974
9681.000000;0.523195
9680.000000;0.521171
9679.000000;0.518922
9678.000000;0.516639
9677.000000;0.514405
9676.000000;0.512118
9675.000000;0.509680
9674.000000;0.507147
9673.000000;0.504681
9672.000000;0.502438
9671.000000;0.500487
9670.000000;0.498762
9669.000000;0.497096
9668.000000;0.495354
9667.000000;0.493540
9666.000000;0.491715
9665.000000;0.489859
9664.000000;0.487913
9663.000000;0.485920
9662.000000;0.483994
9661.000000;0.482125
9660.000000;0.480140
9659.000000;0.477927
9658.000000;0.475619
9657.000000;0.473471
9656.000000;0.471588
9655.000000;0.469841
9654.000000;0.468000
9653.000000;0.465881
9652.000000;0.463395
9651.000000;0.460587
9650.000000;0.457698
9649.000000;0.455086
9648.000000;0.452981
9647.000000;0.451270
9646.000000;0.449613
9645.000000;0.447795
9644.000000;0.445884
9643.000000;0.444008
9642.000000;0.442083
9641.000000;0.439884
9640.000000;0.437341
9639.000000;0.434641
9638.000000;0.432035
9637.000000;0.429666
9636.000000;0.427580
9635.000000;0.425732
9634.000000;0.423898
9633.000000;0.421744
9632.000000;0.419141
9631.000000;0.416388
9630.000000;0.413951
9629.000000;0.411982
9628.000000;0.410184
9627.000000;0.408186
9626.000000;0.405959
9625.000000;0.403778
9624.000000;0.401825
9623.000000;0.399938
9622.000000;0.397810
9621.000000;0.395368
9620.000000;0.392840
9619.000000;0.390451
9618.000000;0.388149
9617.000000;0.385742
9616.000000;0.383229
9615.000000;0.380878
9614.000000;0.378931
9613.000000;0.377333
9612.000000;0.375751
9611.000000;0.373807
9610.000000;0.371307
9609.000000;0.368373
9608.000000;0.365431
9607.000000;0.362961
9606.000000;0.361110
9605.000000;0.359554
9604.000000;0.357785
9603.000000;0.355522
9602.000000;0.352827
9601.000000;0.349934
9600.000000;0.347048
9599.000000;0.344311
9598.000000;0.341806
9597.000000;0.339523
9596.000000;0.337364
9595.000000;0.335203
9594.000000;0.332967
9593.000000;0.330655
9592.000000;0.328345
9591.000000;0.326146
9590.000000;0.324127
9589.000000;0.322246
9588.000000;0.320351
9587.000000;0.318262
9586.000000;0.315867
9585.000000;0.313198
9584.000000;0.310449
9583.000000;0.307871
9582.000000;0.305551
9581.000000;0.303299
9580.000000;0.300833
9579.000000;0.298113
9578.000000;0.295430
9577.000000;0.293112
9576.000000;0.291158
9575.000000;0.289224
9574.000000;0.286977
9573.000000;0.284396
9572.000000;0.281715
9571.000000;0.279146
9570.000000;0.276734
9569.000000;0.274417
9568.000000;0.272130
9567.000000;0.269866
9566.000000;0.267687
9565.000000;0.265702
9564.000000;0.263927
9563.000000;0.262153
9562.000000;0.260043
9561.000000;0.257456
9560.000000;0.254626
9559.000000;0.251989
9558.000000;0.249807
9557.000000;0.247958
9556.000000;0.246037
9555.000000;0.243644
9554.000000;0.240716
9553.000000;0.237639
9552.000000;0.234978
9551.000000;0.232958
9550.000000;0.231226
9549.000000;0.229184
9548.000000;0.226562
9547.000000;0.223612
9546.000000;0.220795
9545.000000;0.218408
9544.000000;0.216487
9543.000000;0.214916
9542.000000;0.213491
9541.000000;0.211953
9540.000000;0.210042
9539.000000;0.207628
9538.000000;0.204791
9537.000000;0.201805
9536.000000;0.198970
9535.000000;0.196449
9534.000000;0.194245
9533.000000;0.192307
9532.000000;0.190572
9531.000000;0.188902
9530.000000;0.187104
9529.000000;0.185084
9528.000000;0.182936
9527.000000;0.180807
9526.000000;0.178757
9525.000000;0.176826
9524.000000;0.175104
9523.000000;0.173568
9522.000000;0.171935
9521.000000;0.169894
9520.000000;0.167499
9519.000000;0.165141
9518.000000;0.163095
9517.000000;0.161268
9516.000000;0.159431
9515.000000;0.157518
9514.000000;0.155588
9513.000000;0.153643
9512.000000;0.151631
9511.000000;0.149560
9510.000000;0.147494
9509.000000;0.145482
9508.000000;0.143539
9507.000000;0.141658
9506.000000;0.139804
9505.000000;0.137955
9504.000000;0.136184
9503.000000;0.134608
9502.000000;0.133203
9501.000000;0.131779
9500.000000;0.130213
9499.000000;0.128598
9498.000000;0.127030
9497.000000;0.125384
9496.000000;0.123472
9495.000000;0.121396
9494.000000;0.119545
9493.000000;0.118199
9492.000000;0.117260
9491.000000;0.116387
9490.000000;0.115306
9489.000000;0.113951
9488.000000;0.112416
9487.000000;0.110875
9486.000000;0.109490
9485.000000;0.108301
9484.000000;0.107189
9483.000000;0.105986
9482.000000;0.104637
9481.000000;0.103261
9480.000000;0.102062
9479.000000;0.101159
9478.000000;0.100478
9477.000000;0.099793
9476.000000;0.098901
9475.000000;0.097763
9474.000000;0.096515
9473.000000;0.095346
9472.000000;0.094368
9471.000000;0.093550
9470.000000;0.092710
9469.000000;0.091640
9468.000000;0.090294
9467.000000;0.088909
9466.000000;0.087847
9465.000000;0.087275
9464.000000;0.086989
9463.000000;0.086606
9462.000000;0.085927
9461.000000;0.085096
9460.000000;0.084392
9459.000000;0.083912
9458.000000;0.083484
9457.000000;0.082887
9456.000000;0.082135
9455.000000;0.081489
9454.000000;0.081209
9453.000000;0.081302
9452.000000;0.081527
9451.000000;0.081618
9450.000000;0.081471
9449.000000;0.081153
9448.000000;0.080804
9447.000000;0.080551
9446.000000;0.080461
9445.000000;0.080508
9444.000000;0.080562
9443.000000;0.080448
9442.000000;0.080087
9441.000000;0.079597
9440.000000;0.079249
9439.000000;0.079266
9438.000000;0.079624
9437.000000;0.080048
9436.000000;0.080250
9435.000000;0.080204
9434.000000;0.080183
9433.000000;0.080465
9432.000000;0.081022
9431.000000;0.081543
9430.000000;0.081762
9429.000000;0.081708
9428.000000;0.081594
9427.000000;0.081558
9426.000000;0.081603
9425.000000;0.081744
9424.000000;0.082071
9423.000000;0.082629
9422.000000;0.083314
9421.000000;0.083963
9420.000000;0.084501
9419.000000;0.084986
9418.000000;0.085527
9417.000000;0.086218
9416.000000;0.087065
9415.000000;0.087947
9414.000000;0.088666
9413.000000;0.089124
9412.000000;0.089442
9411.000000;0.089869
9410.000000;0.090560
9409.000000;0.091463
9408.000000;0.092388
9407.000000;0.093158
9406.000000;0.093705
9405.000000;0.094085
9404.000000;0.094421
9403.000000;0.094840
9402.000000;0.095446
9401.000000;0.096318
9400.000000;0.097447
9399.000000;0.098668
9398.000000;0.099729
9397.000000;0.100504
9396.000000;0.101112
9395.000000;0.101791
9394.000000;0.102690
9393.000000;0.103802
9392.000000;0.105049
9391.000000;0.106347
9390.000000;0.107603
9389.000000;0.108710
9388.000000;0.109564
9387.000000;0.110128
9386.000000;0.110513
9385.000000;0.111002
9384.000000;0.111871
9383.000000;0.113124
9382.000000;0.114474
9381.000000;0.115649
9380.000000;0.116649
9379.000000;0.117645
9378.000000;0.118725
9377.000000;0.119857
9376.000000;0.121021
9375.000000;0.122231
9374.000000;0.123429
9373.000000;0.124538
9372.000000;0.125614
9371.000000;0.126804
9370.000000;0.128109
9369.000000;0.129326
9368.000000;0.130299
9367.000000;0.131121
9366.000000;0.132012
9365.000000;0.133061
9364.000000;0.134189
9363.000000;0.135316
9362.000000;0.136476
9361.000000;0.137741
9360.000000;0.139099
9359.000000;0.140445
9358.000000;0.141686
9357.000000;0.142837
9356.000000;0.144018
9355.000000;0.145352
9354.000000;0.146884
9353.000000;0.148533
9352.000000;0.150094
9351.000000;0.151314
9350.000000;0.152083
9349.000000;0.152606
9348.000000;0.153283
9347.000000;0.154349
9346.000000;0.155681
9345.000000;0.157009
9344.000000;0.158243
9343.000000;0.159471
9342.000000;0.160751
9341.000000;0.162029
9340.000000;0.163260
9339.000000;0.164461
9338.000000;0.165642
9337.000000;0.166790
9336.000000;0.167925
9335.000000;0.169104
9334.000000;0.170346
9333.000000;0.171623
9332.000000;0.172893
9331.000000;0.174092
9330.000000;0.175129
9329.000000;0.176006
9328.000000;0.176875
9327.000000;0.177876
9326.000000;0.178949
9325.000000;0.179966
9324.000000;0.180994
9323.000000;0.182247
9322.000000;0.183758
9321.000000;0.185287
9320.000000;0.186601
9319.000000;0.187710
9318.000000;0.188772
9317.000000;0.189912
9316.000000;0.191172
9315.000000;0.192503
9314.000000;0.193745
9313.000000;0.194714
9312.000000;0.195419
9311.000000;0.196093
9310.000000;0.196987
9309.000000;0.198222
9308.000000;0.199816
9307.000000;0.201673
9306.000000;0.203499
9305.000000;0.204913
9304.000000;0.205806
9303.000000;0.206463
9302.000000;0.207224
9301.000000;0.208159
9300.000000;0.209174
9299.000000;0.210278
9298.000000;0.211544
9297.000000;0.212896
9296.000000;0.214141
9295.000000;0.215196
9294.000000;0.216154
9293.000000;0.217116
9292.000000;0.218098
9291.000000;0.219077
9290.000000;0.220030
9289.000000;0.220916
9288.000000;0.221732
9287.000000;0.222567
9286.000000;0.223540
9285.000000;0.224679
9284.000000;0.225914
9283.000000;0.227156
9282.000000;0.228342
9281.000000;0.229435
9280.000000;0.230471
9279.000000;0.231550
9278.000000;0.232717
9277.000000;0.233903
9276.000000;0.235046
9275.000000;0.236191
9274.000000;0.237369
9273.000000;0.238481
9272.000000;0.239448
9271.000000;0.240418
9270.000000;0.241626
9269.000000;0.243037
9268.000000;0.244339
9267.000000;0.245297
9266.000000;0.245971
9265.000000;0.246511
9264.000000;0.246952
9263.000000;0.247358
9262.000000;0.247993
9261.000000;0.249119
9260.000000;0.250640
9259.000000;0.252126
9258.000000;0.253232
9257.000000;0.254007
9256.000000;0.254753
9255.000000;0.255680
9254.000000;0.256758
9253.000000;0.257805
9252.000000;0.258655
9251.000000;0.259272
9250.000000;0.259787
9249.000000;0.260427
9248.000000;0.261339
9247.000000;0.262457
9246.000000;0.263581
9245.000000;0.264564
9244.000000;0.265404
9243.000000;0.266147
9242.000000;0.266806
9241.000000;0.267416
9240.000000;0.268103
9239.000000;0.268994
9238.000000;0.270060
9237.000000;0.271130
9236.000000;0.272097
9235.000000;0.273019
9234.000000;0.273994
9233.000000;0.274994
9232.000000;0.275896
9231.000000;0.276660
9230.000000;0.277387
9229.000000;0.278187
9228.000000;0.279047
9227.000000;0.279863
9226.000000;0.280576
9225.000000;0.281246
9224.000000;0.282002
9223.000000;0.282904
9222.000000;0.283878
9221.000000;0.284777
9220.000000;0.285520
9219.000000;0.286166
9218.000000;0.286827
9217.000000;0.287539
9216.000000;0.288235
9215.000000;0.288880
9214.000000;0.289571
9213.000000;0.290432
9212.000000;0.291425
9211.000000;0.292320
9210.000000;0.292930
9209.000000;0.293325
9208.000000;0.293774
9207.000000;0.294466
9206.000000;0.295349
9205.000000;0.296237
9204.000000;0.297000
9203.000000;0.297647
9202.000000;0.298275
9201.000000;0.298986
9200.000000;0.299828
9199.000000;0.300755
9198.000000;0.301640
9197.000000;0.302341
9196.000000;0.302805
9195.000000;0.303149
9194.000000;0.303623
9193.000000;0.304420
9192.000000;0.305454
9191.000000;0.306399
9190.000000;0.307023
9189.000000;0.307484
9188.000000;0.308140
9187.000000;0.309112
9186.000000;0.310150
9185.000000;0.310971
9184.000000;0.311572
9183.000000;0.312138
9182.000000;0.312768
9181.000000;0.313426
9180.000000;0.314070
9179.000000;0.314691
9178.000000;0.315261
9177.000000;0.315767
9176.000000;0.316278
9175.000000;0.316882
9174.000000;0.317573
9173.000000;0.318258
9172.000000;0.318891
9171.000000;0.319504
9170.000000;0.320146
9169.000000;0.320851
9168.000000;0.321635
9167.000000;0.322468
9166.000000;0.323256
9165.000000;0.323910
9164.000000;0.324414
9163.000000;0.324800
9162.000000;0.325103
9161.000000;0.325392
9160.000000;0.325787
9159.000000;0.326350
9158.000000;0.327003
9157.000000;0.327621
9156.000000;0.328164
9155.000000;0.328667
9154.000000;0.329150
9153.000000;0.329610
9152.000000;0.330037
9151.000000;0.330401
9150.000000;0.330688
9149.000000;0.331026
9148.000000;0.331635
9147.000000;0.332536
9146.000000;0.333435
9145.000000;0.334040
9144.000000;0.334414
9143.000000;0.334833
9142.000000;0.335395
9141.000000;0.335995
9140.000000;0.336614
9139.000000;0.337368
9138.000000;0.338228
9137.000000;0.338940
9136.000000;0.339333
9135.000000;0.339528
9134.000000;0.339746
9133.000000;0.340061
9132.000000;0.340423
9131.000000;0.340817
9130.000000;0.341264
9129.000000;0.341767
9128.000000;0.342338
9127.000000;0.343000
9126.000000;0.343692
9125.000000;0.344259
9124.000000;0.344609
9123.000000;0.344828
9122.000000;0.345088
9121.000000;0.345499
9120.000000;0.346078
9119.000000;0.346782
9118.000000;0.347510
9117.000000;0.348139
9116.000000;0.348621
9115.000000;0.348998
9114.000000;0.349315
9113.000000;0.349587
9112.000000;0.349861
9111.000000;0.350218
9110.000000;0.350663
9109.000000;0.351092
9108.000000;0.351423
9107.000000;0.351687
9106.000000;0.351950
9105.000000;0.352236
9104.000000;0.352565
9103.000000;0.352982
9102.000000;0.353488
9101.000000;0.354020
9100.000000;0.354535
9099.000000;0.355047
9098.000000;0.355522
9097.000000;0.355845
9096.000000;0.355977
9095.000000;0.356083
9094.000000;0.356387
9093.000000;0.356940
9092.000000;0.357601
9091.000000;0.358234
9090.000000;0.358796
9089.000000;0.359258
9088.000000;0.359529
9087.000000;0.359550
9086.000000;0.359438
9085.000000;0.359480
9084.000000;0.359931
9083.000000;0.360782
9082.000000;0.361728
9081.000000;0.362394
9080.000000;0.362608
9079.000000;0.362504
9078.000000;0.362408
9077.000000;0.362623
9076.000000;0.363228
9075.000000;0.364017
9074.000000;0.364655
9073.000000;0.364963
9072.000000;0.365036
9071.000000;0.365065
9070.000000;0.365133
9069.000000;0.365259
9068.000000;0.365518
9067.000000;0.365976
9066.000000;0.366515
9065.000000;0.366896
9064.000000;0.367008
9063.000000;0.366989
9062.000000;0.367056
9061.000000;0.367315
9060.000000;0.367722
9059.000000;0.368146
9058.000000;0.368463
9057.000000;0.368648
9056.000000;0.368803
9055.000000;0.369031
9054.000000;0.369330
9053.000000;0.369663
