Criado como novo conjunto de dados;"0307_DANIEL.spp","77406.1 Secs"
cm-1;Abs
10000.000000;0.536879
9999.000000;0.536135
9998.000000;0.535645
9997.000000;0.535110
9996.000000;0.534349
9995.000000;0.533587
9994.000000;0.533163
9993.000000;0.533021
9992.000000;0.532672
9991.000000;0.531720
9990.000000;0.530309
9989.000000;0.528959
9988.000000;0.528033
9987.000000;0.527473
9986.000000;0.526970
9985.000000;0.526310
9984.000000;0.525532
9983.000000;0.524828
9982.000000;0.524323
9981.000000;0.523929
9980.000000;0.523412
9979.000000;0.522612
9978.000000;0.521587
9977.000000;0.520536
9976.000000;0.519620
9975.000000;0.518840
9974.000000;0.518047
9973.000000;0.517042
9972.000000;0.515727
9971.000000;0.514232
9970.000000;0.512856
9969.000000;0.511831
9968.000000;0.511124
9967.000000;0.510548
9966.000000;0.510026
9965.000000;0.509642
9964.000000;0.509391
9963.000000;0.509030
9962.000000;0.508286
9961.000000;0.507196
9960.000000;0.506099
9959.000000;0.505286
9958.000000;0.504734
9957.000000;0.504212
9956.000000;0.503558
9955.000000;0.502781
9954.000000;0.501956
9953.000000;0.501123
9952.000000;0.500299
9951.000000;0.499506
9950.000000;0.498742
9949.000000;0.497970
9948.000000;0.497170
9947.000000;0.496381
9946.000000;0.495631
9945.000000;0.494863
9944.000000;0.493993
9943.000000;0.493064
9942.000000;0.492234
9941.000000;0.491556
9940.000000;0.490814
9939.000000;0.489720
9938.000000;0.488275
9937.000000;0.486851
9936.000000;0.485826
9935.000000;0.485204
9934.000000;0.484648
9933.000000;0.483873
9932.000000;0.482938
9931.000000;0.482127
9930.000000;0.481633
9929.000000;0.481351
9928.000000;0.480950
9927.000000;0.480122
9926.000000;0.478821
9925.000000;0.477288
9924.000000;0.475859
9923.000000;0.474724
9922.000000;0.473888
9921.000000;0.473258
9920.000000;0.472677
9919.000000;0.471896
9918.000000;0.470693
9917.000000;0.469147
9916.000000;0.467693
9915.000000;0.466742
9914.000000;0.466271
9913.000000;0.465887
9912.000000;0.465278
9911.000000;0.464474
9910.000000;0.463642
9909.000000;0.462796
9908.000000;0.461795
9907.000000;0.460580
9906.000000;0.459276
9905.000000;0.458087
9904.000000;0.457154
9903.000000;0.456474
9902.000000;0.455893
9901.000000;0.455194
9900.000000;0.454250
9899.000000;0.453127
9898.000000;0.452018
9897.000000;0.451071
9896.000000;0.450288
9895.000000;0.449545
9894.000000;0.448670
9893.000000;0.447556
9892.000000;0.446273
9891.000000;0.445059
9890.000000;0.444110
9889.000000;0.443387
9888.000000;0.442672
9887.000000;0.441815
9886.000000;0.440876
9885.000000;0.439993
9884.000000;0.439187
9883.000000;0.438343
9882.000000;0.437332
9881.000000;0.436133
9880.000000;0.434858
9879.000000;0.433674
9878.000000;0.432677
9877.000000;0.431806
9876.000000;0.430906
9875.000000;0.429886
9874.000000;0.428776
9873.000000;0.427640
9872.000000;0.426510
9871.000000;0.425443
9870.000000;0.424537
9869.000000;0.423818
9868.000000;0.423137
9867.000000;0.422281
9866.000000;0.421200
9865.000000;0.420032
9864.000000;0.418928
9863.000000;0.417906
9862.000000;0.416886
9861.000000;0.415819
9860.000000;0.414737
9859.000000;0.413722
9858.000000;0.412821
9857.000000;0.411961
9856.000000;0.410976
9855.000000;0.409758
9854.000000;0.408392
9853.000000;0.407081
9852.000000;0.405945
9851.000000;0.404945
9850.000000;0.403998
9849.000000;0.403078
9848.000000;0.402186
9847.000000;0.401282
9846.000000;0.400289
9845.000000;0.399144
9844.000000;0.397840
9843.000000;0.396471
9842.000000;0.395229
9841.000000;0.394233
9840.000000;0.393340
9839.000000;0.392244
9838.000000;0.390833
9837.000000;0.389381
9836.000000;0.388280
9835.000000;0.387625
9834.000000;0.387131
9833.000000;0.386442
9832.000000;0.385427
9831.000000;0.384200
9830.000000;0.382958
9829.000000;0.381834
9828.000000;0.380839
9827.000000;0.379909
9826.000000;0.378977
9825.000000;0.377981
9824.000000;0.376809
9823.000000;0.375343
9822.000000;0.373630
9821.000000;0.371959
9820.000000;0.370633
9819.000000;0.369657
9818.000000;0.368749
9817.000000;0.367664
9816.000000;0.366448
9815.000000;0.365318
9814.000000;0.364368
9813.000000;0.363455
9812.000000;0.362358
9811.000000;0.361011
9810.000000;0.359549
9809.000000;0.358133
9808.000000;0.356777
9807.000000;0.355374
9806.000000;0.353893
9805.000000;0.352473
9804.000000;0.351295
9803.000000;0.350387
9802.000000;0.349608
9801.000000;0.348775
9800.000000;0.347757
9799.000000;0.346548
9798.000000;0.345276
9797.000000;0.344103
9796.000000;0.343008
9795.000000;0.341773
9794.000000;0.340292
9793.000000;0.338798
9792.000000;0.337609
9791.000000;0.336665
9790.000000;0.335531
9789.000000;0.333922
9788.000000;0.332073
9787.000000;0.330481
9786.000000;0.329383
9785.000000;0.328577
9784.000000;0.327666
9783.000000;0.326404
9782.000000;0.324863
9781.000000;0.323332
9780.000000;0.322034
9779.000000;0.320905
9778.000000;0.319687
9777.000000;0.318261
9776.000000;0.316798
9775.000000;0.315526
9774.000000;0.314450
9773.000000;0.313383
9772.000000;0.312203
9771.000000;0.310992
9770.000000;0.309925
9769.000000;0.309084
9768.000000;0.308354
9767.000000;0.307491
9766.000000;0.306305
9765.000000;0.304811
9764.000000;0.303163
9763.000000;0.301460
9762.000000;0.299707
9761.000000;0.297960
9760.000000;0.296369
9759.000000;0.295005
9758.000000;0.293737
9757.000000;0.292399
9756.000000;0.290984
9755.000000;0.289565
9754.000000;0.288101
9753.000000;0.286485
9752.000000;0.284778
9751.000000;0.283247
9750.000000;0.282099
9749.000000;0.281225
9748.000000;0.280262
9747.000000;0.278903
9746.000000;0.277159
9745.000000;0.275365
9744.000000;0.273908
9743.000000;0.272900
9742.000000;0.272093
9741.000000;0.271119
9740.000000;0.269809
9739.000000;0.268233
9738.000000;0.266530
9737.000000;0.264801
9736.000000;0.263143
9735.000000;0.261667
9734.000000;0.260410
9733.000000;0.259285
9732.000000;0.258153
9731.000000;0.256903
9730.000000;0.255462
9729.000000;0.253798
9728.000000;0.252003
9727.000000;0.250299
9726.000000;0.248877
9725.000000;0.247709
9724.000000;0.246556
9723.000000;0.245192
9722.000000;0.243588
9721.000000;0.241856
9720.000000;0.240085
9719.000000;0.238308
9718.000000;0.236619
9717.000000;0.235180
9716.000000;0.234044
9715.000000;0.233024
9714.000000;0.231829
9713.000000;0.230311
9712.000000;0.228534
9711.000000;0.226648
9710.000000;0.224803
9709.000000;0.223130
9708.000000;0.221646
9707.000000;0.220165
9706.000000;0.218435
9705.000000;0.216428
9704.000000;0.214437
9703.000000;0.212855
9702.000000;0.211889
9701.000000;0.211431
9700.000000;0.211061
9699.000000;0.210221
9698.000000;0.208619
9697.000000;0.206555
9696.000000;0.204651
9695.000000;0.203153
9694.000000;0.201681
9693.000000;0.199791
9692.000000;0.197590
9691.000000;0.195565
9690.000000;0.193949
9689.000000;0.192544
9688.000000;0.191091
9687.000000;0.189498
9686.000000;0.187707
9685.000000;0.185642
9684.000000;0.183425
9683.000000;0.181430
9682.000000;0.179932
9681.000000;0.178815
9680.000000;0.177719
9679.000000;0.176386
9678.000000;0.174765
9677.000000;0.172917
9676.000000;0.170958
9675.000000;0.169020
9674.000000;0.167153
9673.000000;0.165292
9672.000000;0.163413
9671.000000;0.161645
9670.000000;0.160128
9669.000000;0.158807
9668.000000;0.157462
9667.000000;0.155914
9666.000000;0.154137
9665.000000;0.152217
9664.000000;0.150302
9663.000000;0.148530
9662.000000;0.146899
9661.000000;0.145258
9660.000000;0.143523
9659.000000;0.141824
9658.000000;0.140288
9657.000000;0.138724
9656.000000;0.136760
9655.000000;0.134358
9654.000000;0.132002
9653.000000;0.130228
9652.000000;0.129100
9651.000000;0.128233
9650.000000;0.127211
9649.000000;0.125817
9648.000000;0.123964
9647.000000;0.121679
9646.000000;0.119182
9645.000000;0.116818
9644.000000;0.114788
9643.000000;0.113029
9642.000000;0.111359
9641.000000;0.109653
9640.000000;0.107833
9639.000000;0.105841
9638.000000;0.103738
9637.000000;0.101730
9636.000000;0.099976
9635.000000;0.098389
9634.000000;0.096736
9633.000000;0.094892
9632.000000;0.092922
9631.000000;0.090958
9630.000000;0.089101
9629.000000;0.087410
9628.000000;0.085844
9627.000000;0.084216
9626.000000;0.082318
9625.000000;0.080152
9624.000000;0.077944
9623.000000;0.075917
9622.000000;0.074118
9621.000000;0.072483
9620.000000;0.070953
9619.000000;0.069465
9618.000000;0.067902
9617.000000;0.066150
9616.000000;0.064188
9615.000000;0.062088
9614.000000;0.059934
9613.000000;0.057765
9612.000000;0.055575
9611.000000;0.053345
9610.000000;0.051123
9609.000000;0.049041
9608.000000;0.047186
9607.000000;0.045461
9606.000000;0.043680
9605.000000;0.041806
9604.000000;0.039988
9603.000000;0.038315
9602.000000;0.036672
9601.000000;0.034897
9600.000000;0.032985
9599.000000;0.031032
9598.000000;0.029048
9597.000000;0.026964
9596.000000;0.024753
9595.000000;0.022468
9594.000000;0.020192
9593.000000;0.018043
9592.000000;0.016156
9591.000000;0.014542
9590.000000;0.012995
9589.000000;0.011274
9588.000000;0.009350
9587.000000;0.007360
9586.000000;0.005352
9585.000000;0.003243
9584.000000;0.001033
9583.000000;-0.001124
9582.000000;-0.003136
9581.000000;-0.005131
9580.000000;-0.007277
9579.000000;-0.009549
9578.000000;-0.011762
9577.000000;-0.013798
9576.000000;-0.015692
9575.000000;-0.017527
9574.000000;-0.019383
9573.000000;-0.021360
9572.000000;-0.023526
9571.000000;-0.025777
9570.000000;-0.027849
9569.000000;-0.029570
9568.000000;-0.031092
9567.000000;-0.032780
9566.000000;-0.034832
9565.000000;-0.037069
9564.000000;-0.039140
9563.000000;-0.040916
9562.000000;-0.042614
9561.000000;-0.044578
9560.000000;-0.046985
9559.000000;-0.049735
9558.000000;-0.052533
9557.000000;-0.055031
9556.000000;-0.056997
9555.000000;-0.058463
9554.000000;-0.059713
9553.000000;-0.061058
9552.000000;-0.062620
9551.000000;-0.064344
9550.000000;-0.066174
9549.000000;-0.068141
9548.000000;-0.070267
9547.000000;-0.072446
9546.000000;-0.074472
9545.000000;-0.076180
9544.000000;-0.077585
9543.000000;-0.078893
9542.000000;-0.080362
9541.000000;-0.082106
9540.000000;-0.084036
9539.000000;-0.086007
9538.000000;-0.087992
9537.000000;-0.090069
9536.000000;-0.092256
9535.000000;-0.094436
9534.000000;-0.096460
9533.000000;-0.098289
9532.000000;-0.100020
9531.000000;-0.101807
9530.000000;-0.103739
9529.000000;-0.105744
9528.000000;-0.107598
9527.000000;-0.109126
9526.000000;-0.110448
9525.000000;-0.111953
9524.000000;-0.113932
9523.000000;-0.116251
9522.000000;-0.118457
9521.000000;-0.120235
9520.000000;-0.121657
9519.000000;-0.122969
9518.000000;-0.124244
9517.000000;-0.125366
9516.000000;-0.126325
9515.000000;-0.127375
9514.000000;-0.128828
9513.000000;-0.130729
9512.000000;-0.132833
9511.000000;-0.134855
9510.000000;-0.136676
9509.000000;-0.138323
9508.000000;-0.139836
9507.000000;-0.141190
9506.000000;-0.142361
9505.000000;-0.143426
9504.000000;-0.144572
9503.000000;-0.145990
9502.000000;-0.147725
9501.000000;-0.149648
9500.000000;-0.151542
9499.000000;-0.153197
9498.000000;-0.154458
9497.000000;-0.155305
9496.000000;-0.155943
9495.000000;-0.156700
9494.000000;-0.157745
9493.000000;-0.158941
9492.000000;-0.160075
9491.000000;-0.161147
9490.000000;-0.162289
9489.000000;-0.163441
9488.000000;-0.164321
9487.000000;-0.164784
9486.000000;-0.165093
9485.000000;-0.165725
9484.000000;-0.166940
9483.000000;-0.168565
9482.000000;-0.170130
9481.000000;-0.171213
9480.000000;-0.171759
9479.000000;-0.172136
9478.000000;-0.172810
9477.000000;-0.173878
9476.000000;-0.175009
9475.000000;-0.175891
9474.000000;-0.176625
9473.000000;-0.177552
9472.000000;-0.178767
9471.000000;-0.179968
9470.000000;-0.180813
9469.000000;-0.181275
9468.000000;-0.181593
9467.000000;-0.181955
9466.000000;-0.182292
9465.000000;-0.182377
9464.000000;-0.182101
9463.000000;-0.181653
9462.000000;-0.181432
9461.000000;-0.181742
9460.000000;-0.182532
9459.000000;-0.183412
9458.000000;-0.183936
9457.000000;-0.183916
9456.000000;-0.183541
9455.000000;-0.183211
9454.000000;-0.183210
9453.000000;-0.183480
9452.000000;-0.183731
9451.000000;-0.183787
9450.000000;-0.183758
9449.000000;-0.183860
9448.000000;-0.184140
9447.000000;-0.184453
9446.000000;-0.184639
9445.000000;-0.184632
9444.000000;-0.184439
9443.000000;-0.184121
9442.000000;-0.183813
9441.000000;-0.183638
9440.000000;-0.183581
9439.000000;-0.183496
9438.000000;-0.183248
9437.000000;-0.182821
9436.000000;-0.182263
9435.000000;-0.181624
9434.000000;-0.180965
9433.000000;-0.180349
9432.000000;-0.179780
9431.000000;-0.179204
9430.000000;-0.178598
9429.000000;-0.177986
9428.000000;-0.177355
9427.000000;-0.176644
9426.000000;-0.175876
9425.000000;-0.175221
9424.000000;-0.174800
9423.000000;-0.174453
9422.000000;-0.173838
9421.000000;-0.172759
9420.000000;-0.171340
9419.000000;-0.169878
9418.000000;-0.168623
9417.000000;-0.167714
9416.000000;-0.167196
9415.000000;-0.166987
9414.000000;-0.166870
9413.000000;-0.166604
9412.000000;-0.166056
9411.000000;-0.165195
9410.000000;-0.164055
9409.000000;-0.162781
9408.000000;-0.161644
9407.000000;-0.160844
9406.000000;-0.160265
9405.000000;-0.159541
9404.000000;-0.158417
9403.000000;-0.156962
9402.000000;-0.155403
9401.000000;-0.153877
9400.000000;-0.152423
9399.000000;-0.151131
9398.000000;-0.150112
9397.000000;-0.149332
9396.000000;-0.148573
9395.000000;-0.147595
9394.000000;-0.146311
9393.000000;-0.144819
9392.000000;-0.143337
9391.000000;-0.142072
9390.000000;-0.141059
9389.000000;-0.140114
9388.000000;-0.139029
9387.000000;-0.137795
9386.000000;-0.136556
9385.000000;-0.135370
9384.000000;-0.134139
9383.000000;-0.132798
9382.000000;-0.131416
9381.000000;-0.130039
9380.000000;-0.128569
9379.000000;-0.126909
9378.000000;-0.125151
9377.000000;-0.123495
9376.000000;-0.122019
9375.000000;-0.120652
9374.000000;-0.119331
9373.000000;-0.118063
9372.000000;-0.116837
9371.000000;-0.115592
9370.000000;-0.114320
9369.000000;-0.113114
9368.000000;-0.112027
9367.000000;-0.110954
9366.000000;-0.109703
9365.000000;-0.108199
9364.000000;-0.106531
9363.000000;-0.104819
9362.000000;-0.103083
9361.000000;-0.101308
9360.000000;-0.099592
9359.000000;-0.098098
9358.000000;-0.096848
9357.000000;-0.095631
9356.000000;-0.094232
9355.000000;-0.092660
9354.000000;-0.091086
9353.000000;-0.089611
9352.000000;-0.088246
9351.000000;-0.087073
9350.000000;-0.086214
9349.000000;-0.085563
9348.000000;-0.084742
9347.000000;-0.083455
9346.000000;-0.081769
9345.000000;-0.079937
9344.000000;-0.078061
9343.000000;-0.076100
9342.000000;-0.074111
9341.000000;-0.072274
9340.000000;-0.070671
9339.000000;-0.069182
9338.000000;-0.067649
9337.000000;-0.066027
9336.000000;-0.064355
9335.000000;-0.062673
9334.000000;-0.061027
9333.000000;-0.059475
9332.000000;-0.058068
9331.000000;-0.056847
9330.000000;-0.055840
9329.000000;-0.054985
9328.000000;-0.054074
9327.000000;-0.052854
9326.000000;-0.051228
9325.000000;-0.049321
9324.000000;-0.047381
9323.000000;-0.045670
9322.000000;-0.044389
9321.000000;-0.043563
9320.000000;-0.042952
9319.000000;-0.042164
9318.000000;-0.040926
9317.000000;-0.039243
9316.000000;-0.037351
9315.000000;-0.035566
9314.000000;-0.034103
9313.000000;-0.032939
9312.000000;-0.031840
9311.000000;-0.030634
9310.000000;-0.029399
9309.000000;-0.028283
9308.000000;-0.027170
9307.000000;-0.025742
9306.000000;-0.023901
9305.000000;-0.021970
9304.000000;-0.020353
9303.000000;-0.019134
9302.000000;-0.018082
9301.000000;-0.016939
9300.000000;-0.015581
9299.000000;-0.013994
9298.000000;-0.012288
9297.000000;-0.010691
9296.000000;-0.009387
9295.000000;-0.008329
9294.000000;-0.007284
9293.000000;-0.006071
9292.000000;-0.004692
9291.000000;-0.003236
9290.000000;-0.001758
9289.000000;-0.000288
9288.000000;0.001091
9287.000000;0.002264
9286.000000;0.003203
9285.000000;0.004041
9284.000000;0.005014
9283.000000;0.006265
9282.000000;0.007721
9281.000000;0.009161
9280.000000;0.010443
9279.000000;0.011657
9278.000000;0.013041
9277.000000;0.014752
9276.000000;0.016698
9275.000000;0.018572
9274.000000;0.020070
9273.000000;0.021141
9272.000000;0.022026
9271.000000;0.023028
9270.000000;0.024238
9269.000000;0.025522
9268.000000;0.026746
9267.000000;0.027921
9266.000000;0.029107
9265.000000;0.030270
9264.000000;0.031310
9263.000000;0.032200
9262.000000;0.033078
9261.000000;0.034180
9260.000000;0.035673
9259.000000;0.037475
9258.000000;0.039234
9257.000000;0.040580
9256.000000;0.041451
9255.000000;0.042122
9254.000000;0.042909
9253.000000;0.043933
9252.000000;0.045167
9251.000000;0.046574
9250.000000;0.048096
9249.000000;0.049597
9248.000000;0.050957
9247.000000;0.052157
9246.000000;0.053203
9245.000000;0.054048
9244.000000;0.054727
9243.000000;0.055523
9242.000000;0.056775
9241.000000;0.058497
9240.000000;0.060287
9239.000000;0.061703
9238.000000;0.062629
9237.000000;0.063255
9236.000000;0.063819
9235.000000;0.064477
9234.000000;0.065309
9233.000000;0.066309
9232.000000;0.067380
9231.000000;0.068456
9230.000000;0.069610
9229.000000;0.070949
9228.000000;0.072390
9227.000000;0.073667
9226.000000;0.074592
9225.000000;0.075250
9224.000000;0.075908
9223.000000;0.076792
9222.000000;0.077979
9221.000000;0.079394
9220.000000;0.080834
9219.000000;0.082058
9218.000000;0.082965
9217.000000;0.083705
9216.000000;0.084515
9215.000000;0.085461
9214.000000;0.086374
9213.000000;0.087071
9212.000000;0.087565
9211.000000;0.088065
9210.000000;0.088825
9209.000000;0.089995
9208.000000;0.091522
9207.000000;0.093119
9206.000000;0.094408
9205.000000;0.095195
9204.000000;0.095608
9203.000000;0.095952
9202.000000;0.096480
9201.000000;0.097308
9200.000000;0.098443
9199.000000;0.099778
9198.000000;0.101090
9197.000000;0.102169
9196.000000;0.102984
9195.000000;0.103670
9194.000000;0.104355
9193.000000;0.105086
9192.000000;0.105902
9191.000000;0.106852
9190.000000;0.107901
9189.000000;0.108897
9188.000000;0.109751
9187.000000;0.110570
9186.000000;0.111523
9185.000000;0.112605
9184.000000;0.113634
9183.000000;0.114478
9182.000000;0.115206
9181.000000;0.115984
9180.000000;0.116919
9179.000000;0.118023
9178.000000;0.119222
9177.000000;0.120326
9176.000000;0.121093
9175.000000;0.121461
9174.000000;0.121722
9173.000000;0.122304
9172.000000;0.123346
9171.000000;0.124597
9170.000000;0.125763
9169.000000;0.126820
9168.000000;0.127855
9167.000000;0.128770
9166.000000;0.129371
9165.000000;0.129733
9164.000000;0.130234
9163.000000;0.131118
9162.000000;0.132164
9161.000000;0.132942
9160.000000;0.133340
9159.000000;0.133700
9158.000000;0.134418
9157.000000;0.135524
9156.000000;0.136688
9155.000000;0.137621
9154.000000;0.138376
9153.000000;0.139204
9152.000000;0.140154
9151.000000;0.140934
9150.000000;0.141270
9149.000000;0.141319
9148.000000;0.141562
9147.000000;0.142303
9146.000000;0.143389
9145.000000;0.144439
9144.000000;0.145212
9143.000000;0.145726
9142.000000;0.146170
9141.000000;0.146784
9140.000000;0.147691
9139.000000;0.148752
9138.000000;0.149670
9137.000000;0.150342
9136.000000;0.150973
9135.000000;0.151747
9134.000000;0.152515
9133.000000;0.153014
9132.000000;0.153292
9131.000000;0.153715
9130.000000;0.154546
9129.000000;0.155668
9128.000000;0.156744
9127.000000;0.157519
9126.000000;0.157983
9125.000000;0.158352
9124.000000;0.158928
9123.000000;0.159846
9122.000000;0.160912
9121.000000;0.161790
9120.000000;0.162354
9119.000000;0.162771
9118.000000;0.163249
9117.000000;0.163830
9116.000000;0.164461
9115.000000;0.165115
9114.000000;0.165783
9113.000000;0.166443
9112.000000;0.167105
9111.000000;0.167841
9110.000000;0.168699
9109.000000;0.169645
9108.000000;0.170615
9107.000000;0.171534
9106.000000;0.172260
9105.000000;0.172630
9104.000000;0.172672
9103.000000;0.172697
9102.000000;0.173076
9101.000000;0.173903
9100.000000;0.174932
9099.000000;0.175822
9098.000000;0.176433
9097.000000;0.176897
9096.000000;0.177444
9095.000000;0.178172
9094.000000;0.178957
9093.000000;0.179596
9092.000000;0.180030
9091.000000;0.180410
9090.000000;0.180936
9089.000000;0.181639
9088.000000;0.182353
9087.000000;0.182882
9086.000000;0.183195
9085.000000;0.183463
9084.000000;0.183877
9083.000000;0.184438
9082.000000;0.184962
9081.000000;0.185300
9080.000000;0.185531
9079.000000;0.185861
9078.000000;0.186392
9077.000000;0.187035
9076.000000;0.187645
9075.000000;0.188155
9074.000000;0.188594
9073.000000;0.189043
9072.000000;0.189589
9071.000000;0.190276
9070.000000;0.191065
9069.000000;0.191856
9068.000000;0.192559
9067.000000;0.193136
