Criado como novo conjunto de dados;"0307_DANIEL.spp","3421.9 Secs"
cm-1;Abs
10000.000000;0.288292
9999.000000;0.287243
9998.000000;0.286150
9997.000000;0.284964
9996.000000;0.283788
9995.000000;0.282785
9994.000000;0.281965
9993.000000;0.281187
9992.000000;0.280326
9991.000000;0.279336
9990.000000;0.278183
9989.000000;0.276860
9988.000000;0.275461
9987.000000;0.274138
9986.000000;0.272968
9985.000000;0.271939
9984.000000;0.271017
9983.000000;0.270134
9982.000000;0.269139
9981.000000;0.267920
9980.000000;0.266575
9979.000000;0.265311
9978.000000;0.264179
9977.000000;0.263049
9976.000000;0.261859
9975.000000;0.260716
9974.000000;0.259689
9973.000000;0.258666
9972.000000;0.257529
9971.000000;0.256342
9970.000000;0.255252
9969.000000;0.254281
9968.000000;0.253323
9967.000000;0.252292
9966.000000;0.251182
9965.000000;0.250026
9964.000000;0.248868
9963.000000;0.247767
9962.000000;0.246747
9961.000000;0.245769
9960.000000;0.244780
9959.000000;0.243766
9958.000000;0.242725
9957.000000;0.241624
9956.000000;0.240429
9955.000000;0.239149
9954.000000;0.237836
9953.000000;0.236552
9952.000000;0.235344
9951.000000;0.234218
9950.000000;0.233117
9949.000000;0.231949
9948.000000;0.230671
9947.000000;0.229318
9946.000000;0.227960
9945.000000;0.226663
9944.000000;0.225486
9943.000000;0.224440
9942.000000;0.223445
9941.000000;0.222375
9940.000000;0.221190
9939.000000;0.219965
9938.000000;0.218783
9937.000000;0.217633
9936.000000;0.216466
9935.000000;0.215288
9934.000000;0.214147
9933.000000;0.213045
9932.000000;0.211910
9931.000000;0.210691
9930.000000;0.209436
9929.000000;0.208248
9928.000000;0.207164
9927.000000;0.206102
9926.000000;0.204943
9925.000000;0.203655
9924.000000;0.202305
9923.000000;0.200985
9922.000000;0.199764
9921.000000;0.198678
9920.000000;0.197699
9919.000000;0.196702
9918.000000;0.195559
9917.000000;0.194281
9916.000000;0.193004
9915.000000;0.191784
9914.000000;0.190512
9913.000000;0.189072
9912.000000;0.187519
9911.000000;0.186016
9910.000000;0.184676
9909.000000;0.183518
9908.000000;0.182500
9907.000000;0.181505
9906.000000;0.180357
9905.000000;0.178987
9904.000000;0.177540
9903.000000;0.176227
9902.000000;0.175080
9901.000000;0.173957
9900.000000;0.172730
9899.000000;0.171390
9898.000000;0.169979
9897.000000;0.168534
9896.000000;0.167121
9895.000000;0.165810
9894.000000;0.164605
9893.000000;0.163450
9892.000000;0.162310
9891.000000;0.161170
9890.000000;0.159992
9889.000000;0.158741
9888.000000;0.157455
9887.000000;0.156204
9886.000000;0.154973
9885.000000;0.153674
9884.000000;0.152267
9883.000000;0.150809
9882.000000;0.149364
9881.000000;0.147954
9880.000000;0.146595
9879.000000;0.145304
9878.000000;0.144054
9877.000000;0.142780
9876.000000;0.141453
9875.000000;0.140101
9874.000000;0.138750
9873.000000;0.137398
9872.000000;0.136058
9871.000000;0.134767
9870.000000;0.133550
9869.000000;0.132384
9868.000000;0.131210
9867.000000;0.129963
9866.000000;0.128611
9865.000000;0.127196
9864.000000;0.125814
9863.000000;0.124520
9862.000000;0.123277
9861.000000;0.122026
9860.000000;0.120749
9859.000000;0.119429
9858.000000;0.118022
9857.000000;0.116525
9856.000000;0.115030
9855.000000;0.113603
9854.000000;0.112187
9853.000000;0.110709
9852.000000;0.109228
9851.000000;0.107869
9850.000000;0.106634
9849.000000;0.105398
9848.000000;0.104102
9847.000000;0.102817
9846.000000;0.101609
9845.000000;0.100433
9844.000000;0.099194
9843.000000;0.097840
9842.000000;0.096357
9841.000000;0.094770
9840.000000;0.093173
9839.000000;0.091694
9838.000000;0.090389
9837.000000;0.089200
9836.000000;0.088022
9835.000000;0.086773
9834.000000;0.085422
9833.000000;0.083999
9832.000000;0.082572
9831.000000;0.081155
9830.000000;0.079654
9829.000000;0.077986
9828.000000;0.076247
9827.000000;0.074642
9826.000000;0.073257
9825.000000;0.071960
9824.000000;0.070579
9823.000000;0.069091
9822.000000;0.067590
9821.000000;0.066139
9820.000000;0.064710
9819.000000;0.063228
9818.000000;0.061637
9817.000000;0.059958
9816.000000;0.058309
9815.000000;0.056827
9814.000000;0.055538
9813.000000;0.054322
9812.000000;0.053032
9811.000000;0.051622
9810.000000;0.050159
9809.000000;0.048722
9808.000000;0.047308
9807.000000;0.045833
9806.000000;0.044223
9805.000000;0.042513
9804.000000;0.040839
9803.000000;0.039327
9802.000000;0.037981
9801.000000;0.036701
9800.000000;0.035381
9799.000000;0.033969
9798.000000;0.032479
9797.000000;0.030969
9796.000000;0.029487
9795.000000;0.028019
9794.000000;0.026493
9793.000000;0.024879
9792.000000;0.023218
9791.000000;0.021558
9790.000000;0.019901
9789.000000;0.018246
9788.000000;0.016643
9787.000000;0.015134
9786.000000;0.013687
9785.000000;0.012242
9784.000000;0.010777
9783.000000;0.009278
9782.000000;0.007673
9781.000000;0.005898
9780.000000;0.004010
9779.000000;0.002170
9778.000000;0.000505
9777.000000;-0.000972
9776.000000;-0.002327
9775.000000;-0.003636
9774.000000;-0.004952
9773.000000;-0.006289
9772.000000;-0.007645
9771.000000;-0.009057
9770.000000;-0.010598
9769.000000;-0.012295
9768.000000;-0.014085
9767.000000;-0.015897
9766.000000;-0.017701
9765.000000;-0.019462
9764.000000;-0.021095
9763.000000;-0.022570
9762.000000;-0.023993
9761.000000;-0.025501
9760.000000;-0.027112
9759.000000;-0.028766
9758.000000;-0.030457
9757.000000;-0.032216
9756.000000;-0.033986
9755.000000;-0.035647
9754.000000;-0.037170
9753.000000;-0.038661
9752.000000;-0.040227
9751.000000;-0.041880
9750.000000;-0.043588
9749.000000;-0.045342
9748.000000;-0.047135
9747.000000;-0.048958
9746.000000;-0.050827
9745.000000;-0.052777
9744.000000;-0.054779
9743.000000;-0.056710
9742.000000;-0.058449
9741.000000;-0.059987
9740.000000;-0.061416
9739.000000;-0.062840
9738.000000;-0.064307
9737.000000;-0.065812
9736.000000;-0.067357
9735.000000;-0.068974
9734.000000;-0.070690
9733.000000;-0.072467
9732.000000;-0.074244
9731.000000;-0.076016
9730.000000;-0.077835
9729.000000;-0.079698
9728.000000;-0.081513
9727.000000;-0.083221
9726.000000;-0.084889
9725.000000;-0.086613
9724.000000;-0.088385
9723.000000;-0.090119
9722.000000;-0.091777
9721.000000;-0.093420
9720.000000;-0.095143
9719.000000;-0.097000
9718.000000;-0.098954
9717.000000;-0.100865
9716.000000;-0.102591
9715.000000;-0.104151
9714.000000;-0.105738
9713.000000;-0.107510
9712.000000;-0.109424
9711.000000;-0.111337
9710.000000;-0.113202
9709.000000;-0.115068
9708.000000;-0.116945
9707.000000;-0.118796
9706.000000;-0.120624
9705.000000;-0.122486
9704.000000;-0.124390
9703.000000;-0.126269
9702.000000;-0.128066
9701.000000;-0.129779
9700.000000;-0.131461
9699.000000;-0.133200
9698.000000;-0.135076
9697.000000;-0.137057
9696.000000;-0.138989
9695.000000;-0.140762
9694.000000;-0.142449
9693.000000;-0.144211
9692.000000;-0.146084
9691.000000;-0.147983
9690.000000;-0.149881
9689.000000;-0.151856
9688.000000;-0.153934
9687.000000;-0.156002
9686.000000;-0.157946
9685.000000;-0.159792
9684.000000;-0.161655
9683.000000;-0.163590
9682.000000;-0.165554
9681.000000;-0.167490
9680.000000;-0.169393
9679.000000;-0.171301
9678.000000;-0.173216
9677.000000;-0.175093
9676.000000;-0.176914
9675.000000;-0.178758
9674.000000;-0.180726
9673.000000;-0.182795
9672.000000;-0.184825
9671.000000;-0.186743
9670.000000;-0.188636
9669.000000;-0.190581
9668.000000;-0.192509
9667.000000;-0.194341
9666.000000;-0.196182
9665.000000;-0.198231
9664.000000;-0.200507
9663.000000;-0.202815
9662.000000;-0.204984
9661.000000;-0.207045
9660.000000;-0.209105
9659.000000;-0.211191
9658.000000;-0.213254
9657.000000;-0.215276
9656.000000;-0.217278
9655.000000;-0.219258
9654.000000;-0.221167
9653.000000;-0.222974
9652.000000;-0.224731
9651.000000;-0.226567
9650.000000;-0.228602
9649.000000;-0.230828
9648.000000;-0.233114
9647.000000;-0.235332
9646.000000;-0.237454
9645.000000;-0.239497
9644.000000;-0.241449
9643.000000;-0.243306
9642.000000;-0.245158
9641.000000;-0.247137
9640.000000;-0.249266
9639.000000;-0.251435
9638.000000;-0.253533
9637.000000;-0.255568
9636.000000;-0.257642
9635.000000;-0.259822
9634.000000;-0.262073
9633.000000;-0.264290
9632.000000;-0.266412
9631.000000;-0.268491
9630.000000;-0.270629
9629.000000;-0.272847
9628.000000;-0.275080
9627.000000;-0.277284
9626.000000;-0.279503
9625.000000;-0.281772
9624.000000;-0.284032
9623.000000;-0.286193
9622.000000;-0.288241
9621.000000;-0.290248
9620.000000;-0.292285
9619.000000;-0.294377
9618.000000;-0.296502
9617.000000;-0.298599
9616.000000;-0.300604
9615.000000;-0.302536
9614.000000;-0.304500
9613.000000;-0.306588
9612.000000;-0.308810
9611.000000;-0.311145
9610.000000;-0.313581
9609.000000;-0.316057
9608.000000;-0.318454
9607.000000;-0.320707
9606.000000;-0.322892
9605.000000;-0.325107
9604.000000;-0.327333
9603.000000;-0.329503
9602.000000;-0.331648
9601.000000;-0.333863
9600.000000;-0.336147
9599.000000;-0.338391
9598.000000;-0.340540
9597.000000;-0.342672
9596.000000;-0.344898
9595.000000;-0.347242
9594.000000;-0.349630
9593.000000;-0.351967
9592.000000;-0.354202
9591.000000;-0.356354
9590.000000;-0.358484
9589.000000;-0.360625
9588.000000;-0.362767
9587.000000;-0.364926
9586.000000;-0.367156
9585.000000;-0.369458
9584.000000;-0.371727
9583.000000;-0.373882
9582.000000;-0.375995
9581.000000;-0.378233
9580.000000;-0.380659
9579.000000;-0.383164
9578.000000;-0.385580
9577.000000;-0.387832
9576.000000;-0.389970
9575.000000;-0.392108
9574.000000;-0.394309
9573.000000;-0.396535
9572.000000;-0.398712
9571.000000;-0.400855
9570.000000;-0.403064
9569.000000;-0.405381
9568.000000;-0.407739
9567.000000;-0.410080
9566.000000;-0.412420
9565.000000;-0.414737
9564.000000;-0.416917
9563.000000;-0.418907
9562.000000;-0.420858
9561.000000;-0.422985
9560.000000;-0.425319
9559.000000;-0.427699
9558.000000;-0.429966
9557.000000;-0.432087
9556.000000;-0.434128
9555.000000;-0.436196
9554.000000;-0.438393
9553.000000;-0.440719
9552.000000;-0.443042
9551.000000;-0.445244
9550.000000;-0.447364
9549.000000;-0.449520
9548.000000;-0.451726
9547.000000;-0.453891
9546.000000;-0.455975
9545.000000;-0.458030
9544.000000;-0.460088
9543.000000;-0.462140
9542.000000;-0.464213
9541.000000;-0.466370
9540.000000;-0.468608
9539.000000;-0.470845
9538.000000;-0.473044
9537.000000;-0.475253
9536.000000;-0.477506
9535.000000;-0.479754
9534.000000;-0.481925
9533.000000;-0.484006
9532.000000;-0.486036
9531.000000;-0.488051
9530.000000;-0.490054
9529.000000;-0.492002
9528.000000;-0.493845
9527.000000;-0.495596
9526.000000;-0.497358
9525.000000;-0.499236
9524.000000;-0.501228
9523.000000;-0.503261
9522.000000;-0.505288
9521.000000;-0.507289
9520.000000;-0.509235
9519.000000;-0.511124
9518.000000;-0.513036
9517.000000;-0.515047
9516.000000;-0.517068
9515.000000;-0.518891
9514.000000;-0.520417
9513.000000;-0.521786
9512.000000;-0.523237
9511.000000;-0.524905
9510.000000;-0.526781
9509.000000;-0.528778
9508.000000;-0.530781
9507.000000;-0.532663
9506.000000;-0.534344
9505.000000;-0.535867
9504.000000;-0.537373
9503.000000;-0.538977
9502.000000;-0.540658
9501.000000;-0.542296
9500.000000;-0.543840
9499.000000;-0.545390
9498.000000;-0.547061
9497.000000;-0.548791
9496.000000;-0.550393
9495.000000;-0.551806
9494.000000;-0.553188
9493.000000;-0.554687
9492.000000;-0.556223
9491.000000;-0.557595
9490.000000;-0.558746
9489.000000;-0.559782
9488.000000;-0.560785
9487.000000;-0.561743
9486.000000;-0.562659
9485.000000;-0.563614
9484.000000;-0.564684
9483.000000;-0.565881
9482.000000;-0.567174
9481.000000;-0.568491
9480.000000;-0.569676
9479.000000;-0.570581
9478.000000;-0.571246
9477.000000;-0.571924
9476.000000;-0.572864
9475.000000;-0.574093
9474.000000;-0.575429
9473.000000;-0.576645
9472.000000;-0.577604
9471.000000;-0.578315
9470.000000;-0.578916
9469.000000;-0.579585
9468.000000;-0.580420
9467.000000;-0.581388
9466.000000;-0.582367
9465.000000;-0.583210
9464.000000;-0.583818
9463.000000;-0.584222
9462.000000;-0.584618
9461.000000;-0.585193
9460.000000;-0.585916
9459.000000;-0.586541
9458.000000;-0.586899
9457.000000;-0.587096
9456.000000;-0.587388
9455.000000;-0.587889
9454.000000;-0.588471
9453.000000;-0.588927
9452.000000;-0.589177
9451.000000;-0.589307
9450.000000;-0.589464
9449.000000;-0.589721
9448.000000;-0.590007
9447.000000;-0.590171
9446.000000;-0.590128
9445.000000;-0.589940
9444.000000;-0.589754
9443.000000;-0.589670
9442.000000;-0.589697
9441.000000;-0.589776
9440.000000;-0.589827
9439.000000;-0.589774
9438.000000;-0.589603
9437.000000;-0.589376
9436.000000;-0.589173
9435.000000;-0.589002
9434.000000;-0.588790
9433.000000;-0.588480
9432.000000;-0.588110
9431.000000;-0.587775
9430.000000;-0.587526
9429.000000;-0.587329
9428.000000;-0.587100
9427.000000;-0.586770
9426.000000;-0.586320
9425.000000;-0.585778
9424.000000;-0.585203
9423.000000;-0.584641
9422.000000;-0.584086
9421.000000;-0.583501
9420.000000;-0.582858
9419.000000;-0.582175
9418.000000;-0.581493
9417.000000;-0.580855
9416.000000;-0.580292
9415.000000;-0.579811
9414.000000;-0.579358
9413.000000;-0.578846
9412.000000;-0.578222
9411.000000;-0.577513
9410.000000;-0.576768
9409.000000;-0.575995
9408.000000;-0.575181
9407.000000;-0.574340
9406.000000;-0.573497
9405.000000;-0.572638
9404.000000;-0.571740
9403.000000;-0.570828
9402.000000;-0.569949
9401.000000;-0.569076
9400.000000;-0.568136
9399.000000;-0.567134
9398.000000;-0.566181
9397.000000;-0.565349
9396.000000;-0.564557
9395.000000;-0.563670
9394.000000;-0.562657
9393.000000;-0.561599
9392.000000;-0.560563
9391.000000;-0.559530
9390.000000;-0.558452
9389.000000;-0.557330
9388.000000;-0.556223
9387.000000;-0.555177
9386.000000;-0.554154
9385.000000;-0.553043
9384.000000;-0.551783
9383.000000;-0.550466
9382.000000;-0.549264
9381.000000;-0.548250
9380.000000;-0.547330
9379.000000;-0.546369
9378.000000;-0.545320
9377.000000;-0.544196
9376.000000;-0.543000
9375.000000;-0.541741
9374.000000;-0.540470
9373.000000;-0.539230
9372.000000;-0.537980
9371.000000;-0.536661
9370.000000;-0.535324
9369.000000;-0.534104
9368.000000;-0.533059
9367.000000;-0.532079
9366.000000;-0.531009
9365.000000;-0.529800
9364.000000;-0.528521
9363.000000;-0.527245
9362.000000;-0.525973
9361.000000;-0.524681
9360.000000;-0.523389
9359.000000;-0.522151
9358.000000;-0.520980
9357.000000;-0.519818
9356.000000;-0.518597
9355.000000;-0.517312
9354.000000;-0.515998
9353.000000;-0.514669
9352.000000;-0.513315
9351.000000;-0.511962
9350.000000;-0.510666
9349.000000;-0.509456
9348.000000;-0.508298
9347.000000;-0.507138
9346.000000;-0.505925
9345.000000;-0.504608
9344.000000;-0.503163
9343.000000;-0.501659
9342.000000;-0.500223
9341.000000;-0.498916
9340.000000;-0.497685
9339.000000;-0.496462
9338.000000;-0.495251
9337.000000;-0.494095
9336.000000;-0.492994
9335.000000;-0.491893
9334.000000;-0.490712
9333.000000;-0.489380
9332.000000;-0.487900
9331.000000;-0.486406
9330.000000;-0.485094
9329.000000;-0.484038
9328.000000;-0.483105
9327.000000;-0.482113
9326.000000;-0.481002
9325.000000;-0.479815
9324.000000;-0.478581
9323.000000;-0.477297
9322.000000;-0.475997
9321.000000;-0.474740
9320.000000;-0.473549
9319.000000;-0.472390
9318.000000;-0.471209
9317.000000;-0.469950
9316.000000;-0.468574
9315.000000;-0.467125
9314.000000;-0.465732
9313.000000;-0.464510
9312.000000;-0.463448
9311.000000;-0.462453
9310.000000;-0.461448
9309.000000;-0.460381
9308.000000;-0.459187
9307.000000;-0.457831
9306.000000;-0.456378
9305.000000;-0.454941
9304.000000;-0.453573
9303.000000;-0.452268
9302.000000;-0.451040
9301.000000;-0.449931
9300.000000;-0.448919
9299.000000;-0.447911
9298.000000;-0.446826
9297.000000;-0.445651
9296.000000;-0.444418
9295.000000;-0.443165
9294.000000;-0.441932
9293.000000;-0.440725
9292.000000;-0.439503
9291.000000;-0.438232
9290.000000;-0.436957
9289.000000;-0.435759
9288.000000;-0.434660
9287.000000;-0.433602
9286.000000;-0.432532
9285.000000;-0.431436
9284.000000;-0.430296
9283.000000;-0.429084
9282.000000;-0.427807
9281.000000;-0.426536
9280.000000;-0.425336
9279.000000;-0.424228
9278.000000;-0.423198
9277.000000;-0.422224
9276.000000;-0.421270
9275.000000;-0.420284
9274.000000;-0.419217
9273.000000;-0.418058
9272.000000;-0.416835
9271.000000;-0.415620
9270.000000;-0.414496
9269.000000;-0.413504
9268.000000;-0.412598
9267.000000;-0.411691
9266.000000;-0.410733
9265.000000;-0.409733
9264.000000;-0.408723
9263.000000;-0.407710
9262.000000;-0.406664
9261.000000;-0.405540
9260.000000;-0.404328
9259.000000;-0.403100
9258.000000;-0.401968
9257.000000;-0.400971
9256.000000;-0.400052
9255.000000;-0.399147
9254.000000;-0.398261
9253.000000;-0.397408
9252.000000;-0.396517
9251.000000;-0.395489
9250.000000;-0.394331
9249.000000;-0.393176
9248.000000;-0.392155
9247.000000;-0.391283
9246.000000;-0.390469
9245.000000;-0.389602
9244.000000;-0.388632
9243.000000;-0.387605
9242.000000;-0.386611
9241.000000;-0.385677
9240.000000;-0.384736
9239.000000;-0.383728
9238.000000;-0.382708
9237.000000;-0.381782
9236.000000;-0.380965
9235.000000;-0.380170
9234.000000;-0.379336
9233.000000;-0.378490
9232.000000;-0.377670
9231.000000;-0.376830
9230.000000;-0.375889
9229.000000;-0.374840
9228.000000;-0.373770
9227.000000;-0.372787
9226.000000;-0.371920
9225.000000;-0.371100
9224.000000;-0.370227
9223.000000;-0.369271
9222.000000;-0.368293
9221.000000;-0.367363
9220.000000;-0.366486
9219.000000;-0.365623
9218.000000;-0.364761
9217.000000;-0.363935
9216.000000;-0.363171
9215.000000;-0.362439
9214.000000;-0.361676
9213.000000;-0.360852
9212.000000;-0.360004
9211.000000;-0.359201
9210.000000;-0.358461
9209.000000;-0.357713
9208.000000;-0.356873
9207.000000;-0.355949
9206.000000;-0.355035
9205.000000;-0.354207
9204.000000;-0.353462
9203.000000;-0.352762
9202.000000;-0.352078
9201.000000;-0.351368
9200.000000;-0.350579
9199.000000;-0.349708
9198.000000;-0.348823
9197.000000;-0.347986
9196.000000;-0.347191
9195.000000;-0.346411
9194.000000;-0.345646
9193.000000;-0.344901
9192.000000;-0.344144
9191.000000;-0.343353
9190.000000;-0.342560
9189.000000;-0.341809
9188.000000;-0.341092
9187.000000;-0.340375
9186.000000;-0.339641
9185.000000;-0.338876
9184.000000;-0.338058
9183.000000;-0.337206
9182.000000;-0.336403
9181.000000;-0.335694
9180.000000;-0.335016
9179.000000;-0.334284
9178.000000;-0.333522
9177.000000;-0.332819
9176.000000;-0.332189
9175.000000;-0.331556
9174.000000;-0.330868
9173.000000;-0.330140
9172.000000;-0.329400
9171.000000;-0.328641
9170.000000;-0.327885
9169.000000;-0.327200
9168.000000;-0.326626
9167.000000;-0.326112
9166.000000;-0.325550
9165.000000;-0.324877
9164.000000;-0.324114
9163.000000;-0.323347
9162.000000;-0.322660
9161.000000;-0.322079
9160.000000;-0.321569
9159.000000;-0.321069
9158.000000;-0.320525
9157.000000;-0.319903
9156.000000;-0.319199
9155.000000;-0.318448
9154.000000;-0.317699
9153.000000;-0.316973
9152.000000;-0.316276
9151.000000;-0.315643
9150.000000;-0.315110
9149.000000;-0.314642
9148.000000;-0.314142
9147.000000;-0.313564
9146.000000;-0.312939
9145.000000;-0.312285
9144.000000;-0.311574
9143.000000;-0.310816
9142.000000;-0.310114
9141.000000;-0.309532
9140.000000;-0.309002
9139.000000;-0.308430
9138.000000;-0.307830
9137.000000;-0.307271
9136.000000;-0.306747
9135.000000;-0.306190
9134.000000;-0.305587
9133.000000;-0.304988
9132.000000;-0.304410
9131.000000;-0.303821
9130.000000;-0.303222
9129.000000;-0.302654
9128.000000;-0.302119
9127.000000;-0.301572
9126.000000;-0.300999
9125.000000;-0.300456
9124.000000;-0.299983
9123.000000;-0.299555
9122.000000;-0.299119
9121.000000;-0.298649
9120.000000;-0.298155
9119.000000;-0.297668
9118.000000;-0.297218
9117.000000;-0.296797
9116.000000;-0.296352
9115.000000;-0.295836
9114.000000;-0.295269
9113.000000;-0.294697
9112.000000;-0.294128
9111.000000;-0.293554
9110.000000;-0.292996
9109.000000;-0.292481
9108.000000;-0.291979
9107.000000;-0.291430
9106.000000;-0.290827
9105.000000;-0.290219
9104.000000;-0.289646
9103.000000;-0.289123
9102.000000;-0.288680
9101.000000;-0.288340
9100.000000;-0.288051
9099.000000;-0.287685
9098.000000;-0.287159
9097.000000;-0.286518
9096.000000;-0.285897
9095.000000;-0.285400
9094.000000;-0.285037
9093.000000;-0.284731
9092.000000;-0.284397
9091.000000;-0.284000
9090.000000;-0.283569
9089.000000;-0.283137
9088.000000;-0.282710
9087.000000;-0.282282
9086.000000;-0.281856
