Criado como novo conjunto de dados;"0307_DANIEL.spp","52024.7 Secs"
cm-1;Abs
10000.000000;0.458895
9999.000000;0.457806
9998.000000;0.456690
9997.000000;0.455570
9996.000000;0.454581
9995.000000;0.453801
9994.000000;0.453073
9993.000000;0.452123
9992.000000;0.450887
9991.000000;0.449583
9990.000000;0.448444
9989.000000;0.447472
9988.000000;0.446500
9987.000000;0.445403
9986.000000;0.444220
9985.000000;0.443083
9984.000000;0.442053
9983.000000;0.441046
9982.000000;0.439930
9981.000000;0.438696
9980.000000;0.437483
9979.000000;0.436396
9978.000000;0.435386
9977.000000;0.434357
9976.000000;0.433314
9975.000000;0.432307
9974.000000;0.431294
9973.000000;0.430201
9972.000000;0.429060
9971.000000;0.427971
9970.000000;0.426902
9969.000000;0.425670
9968.000000;0.424174
9967.000000;0.422548
9966.000000;0.421047
9965.000000;0.419821
9964.000000;0.418841
9963.000000;0.417956
9962.000000;0.417001
9961.000000;0.415869
9960.000000;0.414562
9959.000000;0.413170
9958.000000;0.411820
9957.000000;0.410610
9956.000000;0.409556
9955.000000;0.408548
9954.000000;0.407404
9953.000000;0.406039
9952.000000;0.404572
9951.000000;0.403225
9950.000000;0.402120
9949.000000;0.401200
9948.000000;0.400332
9947.000000;0.399400
9946.000000;0.398364
9945.000000;0.397261
9944.000000;0.396168
9943.000000;0.395096
9942.000000;0.393952
9941.000000;0.392654
9940.000000;0.391271
9939.000000;0.389970
9938.000000;0.388823
9937.000000;0.387747
9936.000000;0.386617
9935.000000;0.385387
9934.000000;0.384089
9933.000000;0.382796
9932.000000;0.381575
9931.000000;0.380420
9930.000000;0.379240
9929.000000;0.377970
9928.000000;0.376682
9927.000000;0.375498
9926.000000;0.374421
9925.000000;0.373338
9924.000000;0.372180
9923.000000;0.370991
9922.000000;0.369826
9921.000000;0.368678
9920.000000;0.367537
9919.000000;0.366407
9918.000000;0.365228
9917.000000;0.363896
9916.000000;0.362413
9915.000000;0.360959
9914.000000;0.359710
9913.000000;0.358639
9912.000000;0.357554
9911.000000;0.356316
9910.000000;0.354957
9909.000000;0.353605
9908.000000;0.352327
9907.000000;0.351078
9906.000000;0.349770
9905.000000;0.348396
9904.000000;0.347045
9903.000000;0.345789
9902.000000;0.344584
9901.000000;0.343339
9900.000000;0.342064
9899.000000;0.340852
9898.000000;0.339732
9897.000000;0.338610
9896.000000;0.337380
9895.000000;0.336025
9894.000000;0.334593
9893.000000;0.333154
9892.000000;0.331807
9891.000000;0.330629
9890.000000;0.329562
9889.000000;0.328409
9888.000000;0.327020
9887.000000;0.325467
9886.000000;0.323958
9885.000000;0.322621
9884.000000;0.321403
9883.000000;0.320186
9882.000000;0.318941
9881.000000;0.317759
9880.000000;0.316724
9879.000000;0.315753
9878.000000;0.314593
9877.000000;0.313054
9876.000000;0.311269
9875.000000;0.309637
9874.000000;0.308443
9873.000000;0.307563
9872.000000;0.306588
9871.000000;0.305225
9870.000000;0.303537
9869.000000;0.301839
9868.000000;0.300391
9867.000000;0.299213
9866.000000;0.298114
9865.000000;0.296875
9864.000000;0.295410
9863.000000;0.293795
9862.000000;0.292186
9861.000000;0.290726
9860.000000;0.289467
9859.000000;0.288335
9858.000000;0.287160
9857.000000;0.285819
9856.000000;0.284344
9855.000000;0.282864
9854.000000;0.281458
9853.000000;0.280129
9852.000000;0.278874
9851.000000;0.277681
9850.000000;0.276444
9849.000000;0.275010
9848.000000;0.273364
9847.000000;0.271690
9846.000000;0.270189
9845.000000;0.268886
9844.000000;0.267667
9843.000000;0.266423
9842.000000;0.265102
9841.000000;0.263677
9840.000000;0.262167
9839.000000;0.260639
9838.000000;0.259150
9837.000000;0.257686
9836.000000;0.256213
9835.000000;0.254757
9834.000000;0.253361
9833.000000;0.252004
9832.000000;0.250640
9831.000000;0.249270
9830.000000;0.247919
9829.000000;0.246554
9828.000000;0.245107
9827.000000;0.243573
9826.000000;0.242011
9825.000000;0.240453
9824.000000;0.238868
9823.000000;0.237252
9822.000000;0.235667
9821.000000;0.234179
9820.000000;0.232784
9819.000000;0.231440
9818.000000;0.230104
9817.000000;0.228736
9816.000000;0.227286
9815.000000;0.225726
9814.000000;0.224092
9813.000000;0.222464
9812.000000;0.220927
9811.000000;0.219533
9810.000000;0.218274
9809.000000;0.217068
9808.000000;0.215786
9807.000000;0.214330
9806.000000;0.212707
9805.000000;0.211025
9804.000000;0.209403
9803.000000;0.207874
9802.000000;0.206355
9801.000000;0.204735
9800.000000;0.202982
9799.000000;0.201177
9798.000000;0.199435
9797.000000;0.197843
9796.000000;0.196452
9795.000000;0.195272
9794.000000;0.194202
9793.000000;0.193019
9792.000000;0.191526
9791.000000;0.189738
9790.000000;0.187878
9789.000000;0.186171
9788.000000;0.184652
9787.000000;0.183191
9786.000000;0.181655
9785.000000;0.180031
9784.000000;0.178407
9783.000000;0.176864
9782.000000;0.175384
9781.000000;0.173882
9780.000000;0.172313
9779.000000;0.170753
9778.000000;0.169312
9777.000000;0.167984
9776.000000;0.166598
9775.000000;0.164981
9774.000000;0.163133
9773.000000;0.161232
9772.000000;0.159469
9771.000000;0.157911
9770.000000;0.156500
9769.000000;0.155120
9768.000000;0.153645
9767.000000;0.151995
9766.000000;0.150205
9765.000000;0.148453
9764.000000;0.146930
9763.000000;0.145645
9762.000000;0.144388
9761.000000;0.142909
9760.000000;0.141138
9759.000000;0.139203
9758.000000;0.137283
9757.000000;0.135466
9756.000000;0.133741
9755.000000;0.132055
9754.000000;0.130356
9753.000000;0.128614
9752.000000;0.126831
9751.000000;0.125040
9750.000000;0.123290
9749.000000;0.121625
9748.000000;0.120064
9747.000000;0.118560
9746.000000;0.117004
9745.000000;0.115290
9744.000000;0.113410
9743.000000;0.111460
9742.000000;0.109553
9741.000000;0.107756
9740.000000;0.106093
9739.000000;0.104573
9738.000000;0.103157
9737.000000;0.101736
9736.000000;0.100179
9735.000000;0.098434
9734.000000;0.096555
9733.000000;0.094642
9732.000000;0.092757
9731.000000;0.090913
9730.000000;0.089121
9729.000000;0.087401
9728.000000;0.085740
9727.000000;0.084054
9726.000000;0.082266
9725.000000;0.080409
9724.000000;0.078605
9723.000000;0.076893
9722.000000;0.075144
9721.000000;0.073212
9720.000000;0.071137
9719.000000;0.069106
9718.000000;0.067228
9717.000000;0.065440
9716.000000;0.063669
9715.000000;0.061966
9714.000000;0.060388
9713.000000;0.058835
9712.000000;0.057126
9711.000000;0.055227
9710.000000;0.053303
9709.000000;0.051523
9708.000000;0.049892
9707.000000;0.048288
9706.000000;0.046602
9705.000000;0.044793
9704.000000;0.042857
9703.000000;0.040810
9702.000000;0.038707
9701.000000;0.036645
9700.000000;0.034712
9699.000000;0.032924
9698.000000;0.031207
9697.000000;0.029445
9696.000000;0.027576
9695.000000;0.025634
9694.000000;0.023707
9693.000000;0.021841
9692.000000;0.020013
9691.000000;0.018172
9690.000000;0.016294
9689.000000;0.014399
9688.000000;0.012523
9687.000000;0.010682
9686.000000;0.008841
9685.000000;0.006938
9684.000000;0.004963
9683.000000;0.002998
9682.000000;0.001145
9681.000000;-0.000599
9680.000000;-0.002364
9679.000000;-0.004281
9678.000000;-0.006372
9677.000000;-0.008569
9676.000000;-0.010786
9675.000000;-0.012941
9674.000000;-0.014956
9673.000000;-0.016810
9672.000000;-0.018581
9671.000000;-0.020384
9670.000000;-0.022248
9669.000000;-0.024112
9668.000000;-0.025933
9667.000000;-0.027771
9666.000000;-0.029741
9665.000000;-0.031906
9664.000000;-0.034242
9663.000000;-0.036654
9662.000000;-0.039004
9661.000000;-0.041178
9660.000000;-0.043164
9659.000000;-0.045083
9658.000000;-0.047082
9657.000000;-0.049209
9656.000000;-0.051400
9655.000000;-0.053562
9654.000000;-0.055638
9653.000000;-0.057611
9652.000000;-0.059495
9651.000000;-0.061343
9650.000000;-0.063209
9649.000000;-0.065114
9648.000000;-0.067048
9647.000000;-0.069034
9646.000000;-0.071130
9645.000000;-0.073347
9644.000000;-0.075596
9643.000000;-0.077754
9642.000000;-0.079787
9641.000000;-0.081779
9640.000000;-0.083847
9639.000000;-0.086023
9638.000000;-0.088231
9637.000000;-0.090374
9636.000000;-0.092437
9635.000000;-0.094498
9634.000000;-0.096620
9633.000000;-0.098772
9632.000000;-0.100871
9631.000000;-0.102889
9630.000000;-0.104877
9629.000000;-0.106907
9628.000000;-0.109028
9627.000000;-0.111281
9626.000000;-0.113657
9625.000000;-0.116045
9624.000000;-0.118278
9623.000000;-0.120305
9622.000000;-0.122272
9621.000000;-0.124363
9620.000000;-0.126588
9619.000000;-0.128807
9618.000000;-0.130944
9617.000000;-0.133091
9616.000000;-0.135362
9615.000000;-0.137719
9614.000000;-0.139995
9613.000000;-0.142092
9612.000000;-0.144088
9611.000000;-0.146160
9610.000000;-0.148416
9609.000000;-0.150812
9608.000000;-0.153203
9607.000000;-0.155459
9606.000000;-0.157551
9605.000000;-0.159552
9604.000000;-0.161561
9603.000000;-0.163627
9602.000000;-0.165734
9601.000000;-0.167860
9600.000000;-0.170031
9599.000000;-0.172306
9598.000000;-0.174708
9597.000000;-0.177180
9596.000000;-0.179633
9595.000000;-0.182005
9594.000000;-0.184279
9593.000000;-0.186468
9592.000000;-0.188617
9591.000000;-0.190811
9590.000000;-0.193120
9589.000000;-0.195516
9588.000000;-0.197877
9587.000000;-0.200089
9586.000000;-0.202151
9585.000000;-0.204172
9584.000000;-0.206259
9583.000000;-0.208438
9582.000000;-0.210656
9581.000000;-0.212864
9580.000000;-0.215065
9579.000000;-0.217292
9578.000000;-0.219570
9577.000000;-0.221921
9576.000000;-0.224383
9575.000000;-0.226949
9574.000000;-0.229483
9573.000000;-0.231782
9572.000000;-0.233796
9571.000000;-0.235729
9570.000000;-0.237847
9569.000000;-0.240204
9568.000000;-0.242636
9567.000000;-0.244992
9566.000000;-0.247253
9565.000000;-0.249454
9564.000000;-0.251604
9563.000000;-0.253737
9562.000000;-0.255933
9561.000000;-0.258219
9560.000000;-0.260513
9559.000000;-0.262743
9558.000000;-0.264953
9557.000000;-0.267220
9556.000000;-0.269528
9555.000000;-0.271793
9554.000000;-0.273992
9553.000000;-0.276181
9552.000000;-0.278400
9551.000000;-0.280630
9550.000000;-0.282844
9549.000000;-0.285034
9548.000000;-0.287193
9547.000000;-0.289314
9546.000000;-0.291410
9545.000000;-0.293476
9544.000000;-0.295460
9543.000000;-0.297326
9542.000000;-0.299150
9541.000000;-0.301093
9540.000000;-0.303261
9539.000000;-0.305621
9538.000000;-0.308053
9537.000000;-0.310453
9536.000000;-0.312781
9535.000000;-0.315053
9534.000000;-0.317306
9533.000000;-0.319548
9532.000000;-0.321734
9531.000000;-0.323816
9530.000000;-0.325799
9529.000000;-0.327733
9528.000000;-0.329646
9527.000000;-0.331524
9526.000000;-0.333354
9525.000000;-0.335151
9524.000000;-0.336955
9523.000000;-0.338835
9522.000000;-0.340875
9521.000000;-0.343093
9520.000000;-0.345355
9519.000000;-0.347453
9518.000000;-0.349285
9517.000000;-0.350942
9516.000000;-0.352584
9515.000000;-0.354286
9514.000000;-0.356035
9513.000000;-0.357812
9512.000000;-0.359631
9511.000000;-0.361508
9510.000000;-0.363439
9509.000000;-0.365410
9508.000000;-0.367378
9507.000000;-0.369254
9506.000000;-0.370960
9505.000000;-0.372526
9504.000000;-0.374083
9503.000000;-0.375719
9502.000000;-0.377353
9501.000000;-0.378827
9500.000000;-0.380130
9499.000000;-0.381464
9498.000000;-0.383032
9497.000000;-0.384783
9496.000000;-0.386459
9495.000000;-0.387894
9494.000000;-0.389182
9493.000000;-0.390524
9492.000000;-0.391973
9491.000000;-0.393427
9490.000000;-0.394804
9489.000000;-0.396113
9488.000000;-0.397364
9487.000000;-0.398522
9486.000000;-0.399585
9485.000000;-0.400642
9484.000000;-0.401787
9483.000000;-0.403016
9482.000000;-0.404247
9481.000000;-0.405380
9480.000000;-0.406343
9479.000000;-0.407123
9478.000000;-0.407828
9477.000000;-0.408662
9476.000000;-0.409757
9475.000000;-0.411041
9474.000000;-0.412314
9473.000000;-0.413449
9472.000000;-0.414467
9471.000000;-0.415438
9470.000000;-0.416376
9469.000000;-0.417255
9468.000000;-0.418059
9467.000000;-0.418780
9466.000000;-0.419405
9465.000000;-0.419937
9464.000000;-0.420419
9463.000000;-0.420919
9462.000000;-0.421487
9461.000000;-0.422136
9460.000000;-0.422851
9459.000000;-0.423583
9458.000000;-0.424260
9457.000000;-0.424812
9456.000000;-0.425211
9455.000000;-0.425480
9454.000000;-0.425671
9453.000000;-0.425831
9452.000000;-0.425982
9451.000000;-0.426135
9450.000000;-0.426319
9449.000000;-0.426565
9448.000000;-0.426861
9447.000000;-0.427122
9446.000000;-0.427246
9445.000000;-0.427203
9444.000000;-0.427050
9443.000000;-0.426884
9442.000000;-0.426786
9441.000000;-0.426792
9440.000000;-0.426874
9439.000000;-0.426942
9438.000000;-0.426918
9437.000000;-0.426807
9436.000000;-0.426668
9435.000000;-0.426519
9434.000000;-0.426310
9433.000000;-0.426028
9432.000000;-0.425763
9431.000000;-0.425623
9430.000000;-0.425602
9429.000000;-0.425558
9428.000000;-0.425328
9427.000000;-0.424859
9426.000000;-0.424235
9425.000000;-0.423602
9424.000000;-0.423047
9423.000000;-0.422536
9422.000000;-0.421984
9421.000000;-0.421372
9420.000000;-0.420754
9419.000000;-0.420154
9418.000000;-0.419512
9417.000000;-0.418784
9416.000000;-0.418037
9415.000000;-0.417389
9414.000000;-0.416872
9413.000000;-0.416412
9412.000000;-0.415917
9411.000000;-0.415331
9410.000000;-0.414627
9409.000000;-0.413813
9408.000000;-0.412968
9407.000000;-0.412183
9406.000000;-0.411443
9405.000000;-0.410617
9404.000000;-0.409626
9403.000000;-0.408561
9402.000000;-0.407582
9401.000000;-0.406709
9400.000000;-0.405821
9399.000000;-0.404849
9398.000000;-0.403900
9397.000000;-0.403121
9396.000000;-0.402485
9395.000000;-0.401789
9394.000000;-0.400878
9393.000000;-0.399804
9392.000000;-0.398743
9391.000000;-0.397791
9390.000000;-0.396890
9389.000000;-0.395936
9388.000000;-0.394902
9387.000000;-0.393821
9386.000000;-0.392697
9385.000000;-0.391473
9384.000000;-0.390110
9383.000000;-0.388659
9382.000000;-0.387234
9381.000000;-0.385924
9380.000000;-0.384741
9379.000000;-0.383651
9378.000000;-0.382645
9377.000000;-0.381718
9376.000000;-0.380814
9375.000000;-0.379812
9374.000000;-0.378625
9373.000000;-0.377281
9372.000000;-0.375885
9371.000000;-0.374510
9370.000000;-0.373182
9369.000000;-0.371931
9368.000000;-0.370805
9367.000000;-0.369810
9366.000000;-0.368868
9365.000000;-0.367884
9364.000000;-0.366805
9363.000000;-0.365617
9362.000000;-0.364321
9361.000000;-0.362947
9360.000000;-0.361573
9359.000000;-0.360270
9358.000000;-0.359049
9357.000000;-0.357881
9356.000000;-0.356744
9355.000000;-0.355604
9354.000000;-0.354391
9353.000000;-0.353060
9352.000000;-0.351674
9351.000000;-0.350360
9350.000000;-0.349186
9349.000000;-0.348119
9348.000000;-0.347101
9347.000000;-0.346089
9346.000000;-0.345012
9345.000000;-0.343771
9344.000000;-0.342336
9343.000000;-0.340800
9342.000000;-0.339283
9341.000000;-0.337814
9340.000000;-0.336379
9339.000000;-0.335036
9338.000000;-0.333877
9337.000000;-0.332878
9336.000000;-0.331885
9335.000000;-0.330759
9334.000000;-0.329494
9333.000000;-0.328154
9332.000000;-0.326778
9331.000000;-0.325396
9330.000000;-0.324084
9329.000000;-0.322911
9328.000000;-0.321858
9327.000000;-0.320833
9326.000000;-0.319772
9325.000000;-0.318655
9324.000000;-0.317446
9323.000000;-0.316103
9322.000000;-0.314678
9321.000000;-0.313322
9320.000000;-0.312149
9319.000000;-0.311097
9318.000000;-0.309991
9317.000000;-0.308725
9316.000000;-0.307358
9315.000000;-0.306040
9314.000000;-0.304872
9313.000000;-0.303841
9312.000000;-0.302856
9311.000000;-0.301837
9310.000000;-0.300744
9309.000000;-0.299546
9308.000000;-0.298186
9307.000000;-0.296646
9306.000000;-0.295032
9305.000000;-0.293527
9304.000000;-0.292244
9303.000000;-0.291136
9302.000000;-0.290099
9301.000000;-0.289089
9300.000000;-0.288097
9299.000000;-0.287060
9298.000000;-0.285892
9297.000000;-0.284606
9296.000000;-0.283337
9295.000000;-0.282202
9294.000000;-0.281185
9293.000000;-0.280169
9292.000000;-0.279052
9291.000000;-0.277811
9290.000000;-0.276502
9289.000000;-0.275213
9288.000000;-0.274016
9287.000000;-0.272920
9286.000000;-0.271890
9285.000000;-0.270891
9284.000000;-0.269903
9283.000000;-0.268893
9282.000000;-0.267825
9281.000000;-0.266702
9280.000000;-0.265565
9279.000000;-0.264451
9278.000000;-0.263363
9277.000000;-0.262304
9276.000000;-0.261281
9275.000000;-0.260258
9274.000000;-0.259165
9273.000000;-0.257993
9272.000000;-0.256834
9271.000000;-0.255783
9270.000000;-0.254807
9269.000000;-0.253797
9268.000000;-0.252709
9267.000000;-0.251604
9266.000000;-0.250544
9265.000000;-0.249526
9264.000000;-0.248525
9263.000000;-0.247531
9262.000000;-0.246519
9261.000000;-0.245420
9260.000000;-0.244219
9259.000000;-0.243034
9258.000000;-0.242031
9257.000000;-0.241254
9256.000000;-0.240565
9255.000000;-0.239783
9254.000000;-0.238850
9253.000000;-0.237819
9252.000000;-0.236733
9251.000000;-0.235575
9250.000000;-0.234354
9249.000000;-0.233193
9248.000000;-0.232249
9247.000000;-0.231539
9246.000000;-0.230901
9245.000000;-0.230139
9244.000000;-0.229207
9243.000000;-0.228196
9242.000000;-0.227201
9241.000000;-0.226233
9240.000000;-0.225268
9239.000000;-0.224315
9238.000000;-0.223391
9237.000000;-0.222472
9236.000000;-0.221514
9235.000000;-0.220518
9234.000000;-0.219538
9233.000000;-0.218622
9232.000000;-0.217760
9231.000000;-0.216907
9230.000000;-0.216026
9229.000000;-0.215106
9228.000000;-0.214155
9227.000000;-0.213207
9226.000000;-0.212324
9225.000000;-0.211552
9224.000000;-0.210856
9223.000000;-0.210115
9222.000000;-0.209230
9221.000000;-0.208222
9220.000000;-0.207217
9219.000000;-0.206306
9218.000000;-0.205478
9217.000000;-0.204676
9216.000000;-0.203889
9215.000000;-0.203136
9214.000000;-0.202394
9213.000000;-0.201603
9212.000000;-0.200754
9211.000000;-0.199902
9210.000000;-0.199094
9209.000000;-0.198296
9208.000000;-0.197449
9207.000000;-0.196557
9206.000000;-0.195688
9205.000000;-0.194890
9204.000000;-0.194141
9203.000000;-0.193383
9202.000000;-0.192597
9201.000000;-0.191814
9200.000000;-0.191057
9199.000000;-0.190285
9198.000000;-0.189425
9197.000000;-0.188489
9196.000000;-0.187612
9195.000000;-0.186920
9194.000000;-0.186365
9193.000000;-0.185762
9192.000000;-0.185000
9191.000000;-0.184152
9190.000000;-0.183344
9189.000000;-0.182600
9188.000000;-0.181871
9187.000000;-0.181152
9186.000000;-0.180483
9185.000000;-0.179847
9184.000000;-0.179177
9183.000000;-0.178458
9182.000000;-0.177748
9181.000000;-0.177067
9180.000000;-0.176366
9179.000000;-0.175604
9178.000000;-0.174818
9177.000000;-0.174054
9176.000000;-0.173307
9175.000000;-0.172566
9174.000000;-0.171855
9173.000000;-0.171186
9172.000000;-0.170514
9171.000000;-0.169787
9170.000000;-0.169018
9169.000000;-0.168266
9168.000000;-0.167563
9167.000000;-0.166916
9166.000000;-0.166341
9165.000000;-0.165846
9164.000000;-0.165375
9163.000000;-0.164831
9162.000000;-0.164164
9161.000000;-0.163421
9160.000000;-0.162693
9159.000000;-0.162037
9158.000000;-0.161459
9157.000000;-0.160927
9156.000000;-0.160398
9155.000000;-0.159842
9154.000000;-0.159246
9153.000000;-0.158597
9152.000000;-0.157888
9151.000000;-0.157145
9150.000000;-0.156426
9149.000000;-0.155769
9148.000000;-0.155160
9147.000000;-0.154554
9146.000000;-0.153939
9145.000000;-0.153323
9144.000000;-0.152714
9143.000000;-0.152107
9142.000000;-0.151507
9141.000000;-0.150926
9140.000000;-0.150378
9139.000000;-0.149887
9138.000000;-0.149466
9137.000000;-0.149061
9136.000000;-0.148549
9135.000000;-0.147869
9134.000000;-0.147128
9133.000000;-0.146510
9132.000000;-0.146083
9131.000000;-0.145743
9130.000000;-0.145338
9129.000000;-0.144784
9128.000000;-0.144074
9127.000000;-0.143257
9126.000000;-0.142463
9125.000000;-0.141860
9124.000000;-0.141519
9123.000000;-0.141343
9122.000000;-0.141158
9121.000000;-0.140864
9120.000000;-0.140458
9119.000000;-0.139966
9118.000000;-0.139417
9117.000000;-0.138859
9116.000000;-0.138331
9115.000000;-0.137811
9114.000000;-0.137249
9113.000000;-0.136644
9112.000000;-0.136054
9111.000000;-0.135504
9110.000000;-0.134952
9109.000000;-0.134365
9108.000000;-0.133778
9107.000000;-0.133250
9106.000000;-0.132769
9105.000000;-0.132274
9104.000000;-0.131760
9103.000000;-0.131309
9102.000000;-0.130995
9101.000000;-0.130779
9100.000000;-0.130534
9099.000000;-0.130149
9098.000000;-0.129608
9097.000000;-0.128989
9096.000000;-0.128407
9095.000000;-0.127955
9094.000000;-0.127627
9093.000000;-0.127318
9092.000000;-0.126903
9091.000000;-0.126362
9090.000000;-0.125778
9089.000000;-0.125229
9088.000000;-0.124730
9087.000000;-0.124276
9086.000000;-0.123899
9085.000000;-0.123615
9084.000000;-0.123363
9083.000000;-0.123052
9082.000000;-0.122660
9081.000000;-0.122253
