Criado como novo conjunto de dados;"0307_DANIEL.spp","12242.6 Secs"
cm-1;Abs
10000.000000;0.754228
9999.000000;0.752740
9998.000000;0.751322
9997.000000;0.749924
9996.000000;0.748674
9995.000000;0.747761
9994.000000;0.747169
9993.000000;0.746710
9992.000000;0.746135
9991.000000;0.745282
9990.000000;0.744129
9989.000000;0.742780
9988.000000;0.741362
9987.000000;0.739940
9986.000000;0.738528
9985.000000;0.737143
9984.000000;0.735787
9983.000000;0.734432
9982.000000;0.733087
9981.000000;0.731863
9980.000000;0.730876
9979.000000;0.730072
9978.000000;0.729218
9977.000000;0.728095
9976.000000;0.726700
9975.000000;0.725212
9974.000000;0.723811
9973.000000;0.722531
9972.000000;0.721282
9971.000000;0.719997
9970.000000;0.718740
9969.000000;0.717661
9968.000000;0.716823
9967.000000;0.716106
9966.000000;0.715325
9965.000000;0.714407
9964.000000;0.713431
9963.000000;0.712468
9962.000000;0.711439
9961.000000;0.710185
9960.000000;0.708655
9959.000000;0.706989
9958.000000;0.705397
9957.000000;0.703991
9956.000000;0.702769
9955.000000;0.701668
9954.000000;0.700598
9953.000000;0.699440
9952.000000;0.698118
9951.000000;0.696701
9950.000000;0.695362
9949.000000;0.694222
9948.000000;0.693254
9947.000000;0.692326
9946.000000;0.691270
9945.000000;0.689935
9944.000000;0.688296
9943.000000;0.686576
9942.000000;0.685115
9941.000000;0.684068
9940.000000;0.683264
9939.000000;0.682454
9938.000000;0.681581
9937.000000;0.680711
9936.000000;0.679792
9935.000000;0.678661
9934.000000;0.677284
9933.000000;0.675830
9932.000000;0.674463
9931.000000;0.673162
9930.000000;0.671798
9929.000000;0.670335
9928.000000;0.668879
9927.000000;0.667568
9926.000000;0.666422
9925.000000;0.665325
9924.000000;0.664169
9923.000000;0.663015
9922.000000;0.662036
9921.000000;0.661282
9920.000000;0.660543
9919.000000;0.659516
9918.000000;0.658058
9917.000000;0.656250
9916.000000;0.654288
9915.000000;0.652405
9914.000000;0.650810
9913.000000;0.649550
9912.000000;0.648469
9911.000000;0.647366
9910.000000;0.646180
9909.000000;0.644900
9908.000000;0.643408
9907.000000;0.641604
9906.000000;0.639692
9905.000000;0.638121
9904.000000;0.637114
9903.000000;0.636384
9902.000000;0.635408
9901.000000;0.633946
9900.000000;0.632229
9899.000000;0.630678
9898.000000;0.629517
9897.000000;0.628612
9896.000000;0.627646
9895.000000;0.626440
9894.000000;0.625113
9893.000000;0.623895
9892.000000;0.622822
9891.000000;0.621678
9890.000000;0.620256
9889.000000;0.618575
9888.000000;0.616816
9887.000000;0.615151
9886.000000;0.613689
9885.000000;0.612503
9884.000000;0.611605
9883.000000;0.610860
9882.000000;0.610008
9881.000000;0.608823
9880.000000;0.607281
9879.000000;0.605583
9878.000000;0.603958
9877.000000;0.602458
9876.000000;0.600977
9875.000000;0.599494
9874.000000;0.598181
9873.000000;0.597169
9872.000000;0.596285
9871.000000;0.595176
9870.000000;0.593712
9869.000000;0.592143
9868.000000;0.590774
9867.000000;0.589602
9866.000000;0.588348
9865.000000;0.586797
9864.000000;0.585013
9863.000000;0.583234
9862.000000;0.581621
9861.000000;0.580155
9860.000000;0.578740
9859.000000;0.577352
9858.000000;0.576041
9857.000000;0.574807
9856.000000;0.573566
9855.000000;0.572243
9854.000000;0.570831
9853.000000;0.569310
9852.000000;0.567621
9851.000000;0.565829
9850.000000;0.564189
9849.000000;0.562906
9848.000000;0.561842
9847.000000;0.560632
9846.000000;0.559104
9845.000000;0.557435
9844.000000;0.555872
9843.000000;0.554447
9842.000000;0.553039
9841.000000;0.551605
9840.000000;0.550225
9839.000000;0.548960
9838.000000;0.547768
9837.000000;0.546553
9836.000000;0.545247
9835.000000;0.543830
9834.000000;0.542309
9833.000000;0.540664
9832.000000;0.538872
9831.000000;0.536993
9830.000000;0.535207
9829.000000;0.533661
9828.000000;0.532276
9827.000000;0.530800
9826.000000;0.529081
9825.000000;0.527233
9824.000000;0.525511
9823.000000;0.524076
9822.000000;0.522888
9821.000000;0.521763
9820.000000;0.520507
9819.000000;0.519082
9818.000000;0.517650
9817.000000;0.516376
9816.000000;0.515198
9815.000000;0.513858
9814.000000;0.512220
9813.000000;0.510433
9812.000000;0.508743
9811.000000;0.507224
9810.000000;0.505793
9809.000000;0.504372
9808.000000;0.502922
9807.000000;0.501357
9806.000000;0.499582
9805.000000;0.497645
9804.000000;0.495745
9803.000000;0.494060
9802.000000;0.492593
9801.000000;0.491201
9800.000000;0.489741
9799.000000;0.488153
9798.000000;0.486475
9797.000000;0.484803
9796.000000;0.483215
9795.000000;0.481684
9794.000000;0.480100
9793.000000;0.478410
9792.000000;0.476724
9791.000000;0.475235
9790.000000;0.474001
9789.000000;0.472857
9788.000000;0.471554
9787.000000;0.469969
9786.000000;0.468149
9785.000000;0.466223
9784.000000;0.464319
9783.000000;0.462556
9782.000000;0.460996
9781.000000;0.459585
9780.000000;0.458185
9779.000000;0.456704
9778.000000;0.455136
9777.000000;0.453476
9776.000000;0.451683
9775.000000;0.449782
9774.000000;0.447908
9773.000000;0.446156
9772.000000;0.444453
9771.000000;0.442687
9770.000000;0.440909
9769.000000;0.439291
9768.000000;0.437888
9767.000000;0.436561
9766.000000;0.435148
9765.000000;0.433634
9764.000000;0.432094
9763.000000;0.430561
9762.000000;0.428980
9761.000000;0.427274
9760.000000;0.425428
9759.000000;0.423547
9758.000000;0.421831
9757.000000;0.420425
9756.000000;0.419247
9755.000000;0.417976
9754.000000;0.416280
9753.000000;0.414069
9752.000000;0.411549
9751.000000;0.409071
9750.000000;0.406911
9749.000000;0.405144
9748.000000;0.403663
9747.000000;0.402280
9746.000000;0.400828
9745.000000;0.399182
9744.000000;0.397302
9743.000000;0.395279
9742.000000;0.393301
9741.000000;0.391485
9740.000000;0.389790
9739.000000;0.388114
9738.000000;0.386465
9737.000000;0.384933
9736.000000;0.383516
9735.000000;0.382074
9734.000000;0.380465
9733.000000;0.378658
9732.000000;0.376705
9731.000000;0.374685
9730.000000;0.372703
9729.000000;0.370876
9728.000000;0.369239
9727.000000;0.367670
9726.000000;0.365956
9725.000000;0.363948
9724.000000;0.361674
9723.000000;0.359326
9722.000000;0.357110
9721.000000;0.355104
9720.000000;0.353256
9719.000000;0.351520
9718.000000;0.349948
9717.000000;0.348571
9716.000000;0.347240
9715.000000;0.345681
9714.000000;0.343754
9713.000000;0.341591
9712.000000;0.339456
9711.000000;0.337497
9710.000000;0.335667
9709.000000;0.333827
9708.000000;0.331898
9707.000000;0.329934
9706.000000;0.328050
9705.000000;0.326295
9704.000000;0.324594
9703.000000;0.322830
9702.000000;0.320946
9701.000000;0.318947
9700.000000;0.316859
9699.000000;0.314740
9698.000000;0.312703
9697.000000;0.310850
9696.000000;0.309156
9695.000000;0.307487
9694.000000;0.305707
9693.000000;0.303752
9692.000000;0.301617
9691.000000;0.299371
9690.000000;0.297193
9689.000000;0.295266
9688.000000;0.293586
9687.000000;0.291916
9686.000000;0.290021
9685.000000;0.287907
9684.000000;0.285788
9683.000000;0.283834
9682.000000;0.282004
9681.000000;0.280127
9680.000000;0.278112
9679.000000;0.276039
9678.000000;0.274058
9677.000000;0.272209
9676.000000;0.270373
9675.000000;0.268415
9674.000000;0.266330
9673.000000;0.264220
9672.000000;0.262131
9671.000000;0.259997
9670.000000;0.257760
9669.000000;0.255498
9668.000000;0.253376
9667.000000;0.251486
9666.000000;0.249756
9665.000000;0.248005
9664.000000;0.246091
9663.000000;0.243997
9662.000000;0.241815
9661.000000;0.239637
9660.000000;0.237467
9659.000000;0.235255
9658.000000;0.232990
9657.000000;0.230769
9656.000000;0.228738
9655.000000;0.226961
9654.000000;0.225326
9653.000000;0.223613
9652.000000;0.221665
9651.000000;0.219496
9650.000000;0.217217
9649.000000;0.214889
9648.000000;0.212509
9647.000000;0.210129
9646.000000;0.207884
9645.000000;0.205849
9644.000000;0.203936
9643.000000;0.201970
9642.000000;0.199857
9641.000000;0.197623
9640.000000;0.195346
9639.000000;0.193105
9638.000000;0.190953
9637.000000;0.188884
9636.000000;0.186837
9635.000000;0.184772
9634.000000;0.182711
9633.000000;0.180669
9632.000000;0.178589
9631.000000;0.176407
9630.000000;0.174141
9629.000000;0.171850
9628.000000;0.169543
9627.000000;0.167201
9626.000000;0.164866
9625.000000;0.162645
9624.000000;0.160586
9623.000000;0.158602
9622.000000;0.156543
9621.000000;0.154315
9620.000000;0.151956
9619.000000;0.149603
9618.000000;0.147361
9617.000000;0.145193
9616.000000;0.142994
9615.000000;0.140779
9614.000000;0.138700
9613.000000;0.136809
9612.000000;0.134883
9611.000000;0.132617
9610.000000;0.129959
9609.000000;0.127161
9608.000000;0.124520
9607.000000;0.122155
9606.000000;0.120006
9605.000000;0.117922
9604.000000;0.115751
9603.000000;0.113436
9602.000000;0.111079
9601.000000;0.108850
9600.000000;0.106812
9599.000000;0.104882
9598.000000;0.102932
9597.000000;0.100862
9596.000000;0.098599
9595.000000;0.096135
9594.000000;0.093581
9593.000000;0.091090
9592.000000;0.088708
9591.000000;0.086360
9590.000000;0.083997
9589.000000;0.081657
9588.000000;0.079374
9587.000000;0.077109
9586.000000;0.074828
9585.000000;0.072573
9584.000000;0.070410
9583.000000;0.068335
9582.000000;0.066273
9581.000000;0.064128
9580.000000;0.061835
9579.000000;0.059382
9578.000000;0.056816
9577.000000;0.054191
9576.000000;0.051538
9575.000000;0.048925
9574.000000;0.046501
9573.000000;0.044381
9572.000000;0.042479
9571.000000;0.040567
9570.000000;0.038522
9569.000000;0.036402
9568.000000;0.034265
9567.000000;0.032023
9566.000000;0.029579
9565.000000;0.027011
9564.000000;0.024517
9563.000000;0.022197
9562.000000;0.019950
9561.000000;0.017590
9560.000000;0.015030
9559.000000;0.012377
9558.000000;0.009867
9557.000000;0.007676
9556.000000;0.005756
9555.000000;0.003868
9554.000000;0.001806
9553.000000;-0.000457
9552.000000;-0.002835
9551.000000;-0.005251
9550.000000;-0.007657
9549.000000;-0.010009
9548.000000;-0.012298
9547.000000;-0.014560
9546.000000;-0.016778
9545.000000;-0.018822
9544.000000;-0.020583
9543.000000;-0.022197
9542.000000;-0.024001
9541.000000;-0.026211
9540.000000;-0.028695
9539.000000;-0.031138
9538.000000;-0.033407
9537.000000;-0.035641
9536.000000;-0.037996
9535.000000;-0.040377
9534.000000;-0.042540
9533.000000;-0.044407
9532.000000;-0.046187
9531.000000;-0.048129
9530.000000;-0.050250
9529.000000;-0.052364
9528.000000;-0.054356
9527.000000;-0.056323
9526.000000;-0.058431
9525.000000;-0.060707
9524.000000;-0.063016
9523.000000;-0.065221
9522.000000;-0.067304
9521.000000;-0.069326
9520.000000;-0.071301
9519.000000;-0.073170
9518.000000;-0.074929
9517.000000;-0.076708
9516.000000;-0.078642
9515.000000;-0.080671
9514.000000;-0.082574
9513.000000;-0.084235
9512.000000;-0.085782
9511.000000;-0.087421
9510.000000;-0.089225
9509.000000;-0.091150
9508.000000;-0.093151
9507.000000;-0.095168
9506.000000;-0.097064
9505.000000;-0.098745
9504.000000;-0.100324
9503.000000;-0.102039
9502.000000;-0.103981
9501.000000;-0.106006
9500.000000;-0.107936
9499.000000;-0.109720
9498.000000;-0.111370
9497.000000;-0.112853
9496.000000;-0.114132
9495.000000;-0.115267
9494.000000;-0.116366
9493.000000;-0.117499
9492.000000;-0.118700
9491.000000;-0.120028
9490.000000;-0.121543
9489.000000;-0.123200
9488.000000;-0.124814
9487.000000;-0.126167
9486.000000;-0.127171
9485.000000;-0.127948
9484.000000;-0.128756
9483.000000;-0.129789
9482.000000;-0.131036
9481.000000;-0.132335
9480.000000;-0.133549
9479.000000;-0.134659
9478.000000;-0.135689
9477.000000;-0.136639
9476.000000;-0.137524
9475.000000;-0.138459
9474.000000;-0.139611
9473.000000;-0.141023
9472.000000;-0.142510
9471.000000;-0.143754
9470.000000;-0.144567
9469.000000;-0.145069
9468.000000;-0.145606
9467.000000;-0.146458
9466.000000;-0.147594
9465.000000;-0.148702
9464.000000;-0.149468
9463.000000;-0.149830
9462.000000;-0.149997
9461.000000;-0.150215
9460.000000;-0.150555
9459.000000;-0.150953
9458.000000;-0.151421
9457.000000;-0.152103
9456.000000;-0.153037
9455.000000;-0.153972
9454.000000;-0.154547
9453.000000;-0.154646
9452.000000;-0.154485
9451.000000;-0.154364
9450.000000;-0.154457
9449.000000;-0.154797
9448.000000;-0.155285
9447.000000;-0.155664
9446.000000;-0.155695
9445.000000;-0.155459
9444.000000;-0.155337
9443.000000;-0.155595
9442.000000;-0.156091
9441.000000;-0.156498
9440.000000;-0.156662
9439.000000;-0.156629
9438.000000;-0.156479
9437.000000;-0.156285
9436.000000;-0.156130
9435.000000;-0.155985
9434.000000;-0.155661
9433.000000;-0.155070
9432.000000;-0.154452
9431.000000;-0.154140
9430.000000;-0.154128
9429.000000;-0.154088
9428.000000;-0.153783
9427.000000;-0.153292
9426.000000;-0.152813
9425.000000;-0.152443
9424.000000;-0.152178
9423.000000;-0.151977
9422.000000;-0.151746
9421.000000;-0.151380
9420.000000;-0.150852
9419.000000;-0.150212
9418.000000;-0.149491
9417.000000;-0.148721
9416.000000;-0.148023
9415.000000;-0.147523
9414.000000;-0.147180
9413.000000;-0.146818
9412.000000;-0.146348
9411.000000;-0.145825
9410.000000;-0.145279
9409.000000;-0.144645
9408.000000;-0.143910
9407.000000;-0.143157
9406.000000;-0.142401
9405.000000;-0.141524
9404.000000;-0.140477
9403.000000;-0.139427
9402.000000;-0.138572
9401.000000;-0.137865
9400.000000;-0.137052
9399.000000;-0.135973
9398.000000;-0.134749
9397.000000;-0.133663
9396.000000;-0.132895
9395.000000;-0.132359
9394.000000;-0.131801
9393.000000;-0.131041
9392.000000;-0.130097
9391.000000;-0.129081
9390.000000;-0.128040
9389.000000;-0.126969
9388.000000;-0.125896
9387.000000;-0.124842
9386.000000;-0.123740
9385.000000;-0.122525
9384.000000;-0.121283
9383.000000;-0.120167
9382.000000;-0.119166
9381.000000;-0.118098
9380.000000;-0.116870
9379.000000;-0.115607
9378.000000;-0.114462
9377.000000;-0.113439
9376.000000;-0.112464
9375.000000;-0.111518
9374.000000;-0.110618
9373.000000;-0.109712
9372.000000;-0.108703
9371.000000;-0.107527
9370.000000;-0.106184
9369.000000;-0.104742
9368.000000;-0.103335
9367.000000;-0.102102
9366.000000;-0.101048
9365.000000;-0.100032
9364.000000;-0.098932
9363.000000;-0.097766
9362.000000;-0.096633
9361.000000;-0.095568
9360.000000;-0.094514
9359.000000;-0.093390
9358.000000;-0.092164
9357.000000;-0.090879
9356.000000;-0.089626
9355.000000;-0.088438
9354.000000;-0.087241
9353.000000;-0.085961
9352.000000;-0.084654
9351.000000;-0.083445
9350.000000;-0.082354
9349.000000;-0.081293
9348.000000;-0.080225
9347.000000;-0.079178
9346.000000;-0.078086
9345.000000;-0.076799
9344.000000;-0.075300
9343.000000;-0.073776
9342.000000;-0.072366
9341.000000;-0.070984
9340.000000;-0.069521
9339.000000;-0.068106
9338.000000;-0.066961
9337.000000;-0.066079
9336.000000;-0.065196
9335.000000;-0.064100
9334.000000;-0.062829
9333.000000;-0.061550
9332.000000;-0.060371
9331.000000;-0.059305
9330.000000;-0.058296
9329.000000;-0.057251
9328.000000;-0.056106
9327.000000;-0.054898
9326.000000;-0.053713
9325.000000;-0.052561
9324.000000;-0.051356
9323.000000;-0.050050
9322.000000;-0.048710
9321.000000;-0.047438
9320.000000;-0.046279
9319.000000;-0.045225
9318.000000;-0.044237
9317.000000;-0.043227
9316.000000;-0.042085
9315.000000;-0.040801
9314.000000;-0.039512
9313.000000;-0.038372
9312.000000;-0.037380
9311.000000;-0.036389
9310.000000;-0.035256
9309.000000;-0.033944
9308.000000;-0.032503
9307.000000;-0.031053
9306.000000;-0.029748
9305.000000;-0.028654
9304.000000;-0.027646
9303.000000;-0.026520
9302.000000;-0.025269
9301.000000;-0.024127
9300.000000;-0.023272
9299.000000;-0.022557
9298.000000;-0.021659
9297.000000;-0.020449
9296.000000;-0.019080
9295.000000;-0.017750
9294.000000;-0.016514
9293.000000;-0.015364
9292.000000;-0.014326
9291.000000;-0.013406
9290.000000;-0.012508
9289.000000;-0.011506
9288.000000;-0.010361
9287.000000;-0.009115
9286.000000;-0.007821
9285.000000;-0.006528
9284.000000;-0.005295
9283.000000;-0.004164
9282.000000;-0.003148
9281.000000;-0.002256
9280.000000;-0.001478
9279.000000;-0.000712
9278.000000;0.000203
9277.000000;0.001323
9276.000000;0.002538
9275.000000;0.003731
9274.000000;0.004927
9273.000000;0.006184
9272.000000;0.007411
9271.000000;0.008431
9270.000000;0.009227
9269.000000;0.009993
9268.000000;0.010911
9267.000000;0.011962
9266.000000;0.012990
9265.000000;0.013892
9264.000000;0.014716
9263.000000;0.015595
9262.000000;0.016632
9261.000000;0.017820
9260.000000;0.019055
9259.000000;0.020230
9258.000000;0.021288
9257.000000;0.022211
9256.000000;0.022995
9255.000000;0.023698
9254.000000;0.024436
9253.000000;0.025301
9252.000000;0.026283
9251.000000;0.027324
9250.000000;0.028386
9249.000000;0.029430
9248.000000;0.030382
9247.000000;0.031201
9246.000000;0.031944
9245.000000;0.032713
9244.000000;0.033545
9243.000000;0.034421
9242.000000;0.035334
9241.000000;0.036264
9240.000000;0.037140
9239.000000;0.037918
9238.000000;0.038675
9237.000000;0.039534
9236.000000;0.040489
9235.000000;0.041415
9234.000000;0.042249
9233.000000;0.043054
9232.000000;0.043894
9231.000000;0.044750
9230.000000;0.045599
9229.000000;0.046491
9228.000000;0.047476
9227.000000;0.048500
9226.000000;0.049443
9225.000000;0.050226
9224.000000;0.050887
9223.000000;0.051557
9222.000000;0.052380
9221.000000;0.053402
9220.000000;0.054515
9219.000000;0.055556
9218.000000;0.056460
9217.000000;0.057287
9216.000000;0.058120
9215.000000;0.058969
9214.000000;0.059802
9213.000000;0.060594
9212.000000;0.061330
9211.000000;0.062010
9210.000000;0.062672
9209.000000;0.063385
9208.000000;0.064190
9207.000000;0.065054
9206.000000;0.065903
9205.000000;0.066682
9204.000000;0.067386
9203.000000;0.068058
9202.000000;0.068751
9201.000000;0.069472
9200.000000;0.070172
9199.000000;0.070828
9198.000000;0.071500
9197.000000;0.072267
9196.000000;0.073107
9195.000000;0.073920
9194.000000;0.074654
9193.000000;0.075375
9192.000000;0.076175
9191.000000;0.077064
9190.000000;0.077949
9189.000000;0.078697
9188.000000;0.079238
9187.000000;0.079636
9186.000000;0.080058
9185.000000;0.080622
9184.000000;0.081282
9183.000000;0.081900
9182.000000;0.082433
9181.000000;0.082995
9180.000000;0.083709
9179.000000;0.084556
9178.000000;0.085402
9177.000000;0.086150
9176.000000;0.086825
9175.000000;0.087514
9174.000000;0.088226
9173.000000;0.088861
9172.000000;0.089350
9171.000000;0.089795
9170.000000;0.090388
9169.000000;0.091176
9168.000000;0.091978
9167.000000;0.092624
9166.000000;0.093170
9165.000000;0.093787
9164.000000;0.094482
9163.000000;0.095068
9162.000000;0.095435
9161.000000;0.095706
9160.000000;0.096098
9159.000000;0.096705
9158.000000;0.097462
9157.000000;0.098269
9156.000000;0.099057
9155.000000;0.099789
9154.000000;0.100424
9153.000000;0.100919
9152.000000;0.101288
9151.000000;0.101639
9150.000000;0.102130
9149.000000;0.102802
9148.000000;0.103515
9147.000000;0.104094
9146.000000;0.104519
9145.000000;0.104907
9144.000000;0.105335
9143.000000;0.105787
9142.000000;0.106269
9141.000000;0.106849
9140.000000;0.107547
9139.000000;0.108262
9138.000000;0.108884
9137.000000;0.109419
9136.000000;0.109948
9135.000000;0.110510
9134.000000;0.111079
9133.000000;0.111605
9132.000000;0.112047
9131.000000;0.112391
9130.000000;0.112689
9129.000000;0.113056
9128.000000;0.113575
9127.000000;0.114191
9126.000000;0.114737
9125.000000;0.115083
9124.000000;0.115259
9123.000000;0.115446
9122.000000;0.115830
9121.000000;0.116460
9120.000000;0.117225
9119.000000;0.117964
9118.000000;0.118570
9117.000000;0.119009
9116.000000;0.119309
9115.000000;0.119564
9114.000000;0.119893
9113.000000;0.120354
9112.000000;0.120903
9111.000000;0.121480
9110.000000;0.122083
9109.000000;0.122710
9108.000000;0.123284
9107.000000;0.123736
9106.000000;0.124140
9105.000000;0.124651
9104.000000;0.125287
9103.000000;0.125874
9102.000000;0.126242
9101.000000;0.126404
9100.000000;0.126516
9099.000000;0.126734
9098.000000;0.127135
9097.000000;0.127698
9096.000000;0.128303
9095.000000;0.128800
9094.000000;0.129135
9093.000000;0.129410
9092.000000;0.129763
9091.000000;0.130216
9090.000000;0.130651
9089.000000;0.130941
9088.000000;0.131078
9087.000000;0.131189
9086.000000;0.131433
9085.000000;0.131874
9084.000000;0.132452
9083.000000;0.133061
9082.000000;0.133616
9081.000000;0.134050
9080.000000;0.134311
9079.000000;0.134443
9078.000000;0.134620
9077.000000;0.134997
9076.000000;0.135538
9075.000000;0.136054
9074.000000;0.136418
9073.000000;0.136666
9072.000000;0.136899
9071.000000;0.137185
9070.000000;0.137574
9069.000000;0.138082
9068.000000;0.138614
9067.000000;0.138982
9066.000000;0.139090
