Criado como novo conjunto de dados;"0307_DANIEL.spp","57784.8 Secs"
cm-1;Abs
10000.000000;0.399042
9999.000000;0.397850
9998.000000;0.396551
9997.000000;0.395483
9996.000000;0.394802
9995.000000;0.394338
9994.000000;0.393817
9993.000000;0.393157
9992.000000;0.392452
9991.000000;0.391744
9990.000000;0.390982
9989.000000;0.390179
9988.000000;0.389449
9987.000000;0.388862
9986.000000;0.388377
9985.000000;0.387927
9984.000000;0.387454
9983.000000;0.386825
9982.000000;0.385819
9981.000000;0.384347
9980.000000;0.382658
9979.000000;0.381214
9978.000000;0.380343
9977.000000;0.379994
9976.000000;0.379832
9975.000000;0.379542
9974.000000;0.379029
9973.000000;0.378371
9972.000000;0.377645
9971.000000;0.376858
9970.000000;0.376001
9969.000000;0.375081
9968.000000;0.374079
9967.000000;0.372988
9966.000000;0.371906
9965.000000;0.370992
9964.000000;0.370261
9963.000000;0.369530
9962.000000;0.368659
9961.000000;0.367757
9960.000000;0.367017
9959.000000;0.366398
9958.000000;0.365653
9957.000000;0.364635
9956.000000;0.363461
9955.000000;0.362338
9954.000000;0.361411
9953.000000;0.360791
9952.000000;0.360558
9951.000000;0.360611
9950.000000;0.360602
9949.000000;0.360159
9948.000000;0.359160
9947.000000;0.357763
9946.000000;0.356271
9945.000000;0.354987
9944.000000;0.354071
9943.000000;0.353410
9942.000000;0.352703
9941.000000;0.351771
9940.000000;0.350747
9939.000000;0.349862
9938.000000;0.349138
9937.000000;0.348396
9936.000000;0.347522
9935.000000;0.346588
9934.000000;0.345712
9933.000000;0.344950
9932.000000;0.344318
9931.000000;0.343800
9930.000000;0.343262
9929.000000;0.342488
9928.000000;0.341380
9927.000000;0.340090
9926.000000;0.338893
9925.000000;0.337955
9924.000000;0.337236
9923.000000;0.336569
9922.000000;0.335768
9921.000000;0.334728
9920.000000;0.333490
9919.000000;0.332211
9918.000000;0.331065
9917.000000;0.330147
9916.000000;0.329465
9915.000000;0.328934
9914.000000;0.328367
9913.000000;0.327549
9912.000000;0.326414
9911.000000;0.325154
9910.000000;0.324061
9909.000000;0.323251
9908.000000;0.322580
9907.000000;0.321847
9906.000000;0.321009
9905.000000;0.320152
9904.000000;0.319319
9903.000000;0.318459
9902.000000;0.317536
9901.000000;0.316585
9900.000000;0.315619
9899.000000;0.314595
9898.000000;0.313522
9897.000000;0.312534
9896.000000;0.311741
9895.000000;0.311036
9894.000000;0.310196
9893.000000;0.309160
9892.000000;0.308093
9891.000000;0.307135
9890.000000;0.306210
9889.000000;0.305172
9888.000000;0.304028
9887.000000;0.302918
9886.000000;0.301935
9885.000000;0.301052
9884.000000;0.300187
9883.000000;0.299251
9882.000000;0.298186
9881.000000;0.297040
9880.000000;0.295959
9879.000000;0.295027
9878.000000;0.294152
9877.000000;0.293196
9876.000000;0.292185
9875.000000;0.291258
9874.000000;0.290444
9873.000000;0.289621
9872.000000;0.288689
9871.000000;0.287663
9870.000000;0.286587
9869.000000;0.285487
9868.000000;0.284424
9867.000000;0.283486
9866.000000;0.282648
9865.000000;0.281756
9864.000000;0.280693
9863.000000;0.279517
9862.000000;0.278380
9861.000000;0.277400
9860.000000;0.276580
9859.000000;0.275800
9858.000000;0.274852
9857.000000;0.273619
9856.000000;0.272246
9855.000000;0.271017
9854.000000;0.270043
9853.000000;0.269181
9852.000000;0.268282
9851.000000;0.267359
9850.000000;0.266439
9849.000000;0.265427
9848.000000;0.264280
9847.000000;0.263187
9846.000000;0.262373
9845.000000;0.261762
9844.000000;0.260976
9843.000000;0.259699
9842.000000;0.257949
9841.000000;0.256055
9840.000000;0.254436
9839.000000;0.253346
9838.000000;0.252675
9837.000000;0.252009
9836.000000;0.250995
9835.000000;0.249658
9834.000000;0.248300
9833.000000;0.247143
9832.000000;0.246170
9831.000000;0.245239
9830.000000;0.244191
9829.000000;0.242905
9828.000000;0.241427
9827.000000;0.240051
9826.000000;0.239094
9825.000000;0.238532
9824.000000;0.238003
9823.000000;0.237221
9822.000000;0.236235
9821.000000;0.235226
9820.000000;0.234192
9819.000000;0.232988
9818.000000;0.231565
9817.000000;0.230036
9816.000000;0.228538
9815.000000;0.227132
9814.000000;0.225794
9813.000000;0.224452
9812.000000;0.223058
9811.000000;0.221685
9810.000000;0.220510
9809.000000;0.219599
9808.000000;0.218756
9807.000000;0.217668
9806.000000;0.216219
9805.000000;0.214618
9804.000000;0.213209
9803.000000;0.212193
9802.000000;0.211488
9801.000000;0.210807
9800.000000;0.209881
9799.000000;0.208661
9798.000000;0.207308
9797.000000;0.205974
9796.000000;0.204655
9795.000000;0.203282
9794.000000;0.201898
9793.000000;0.200633
9792.000000;0.199534
9791.000000;0.198511
9790.000000;0.197468
9789.000000;0.196376
9788.000000;0.195214
9787.000000;0.193918
9786.000000;0.192485
9785.000000;0.191041
9784.000000;0.189736
9783.000000;0.188600
9782.000000;0.187540
9781.000000;0.186468
9780.000000;0.185342
9779.000000;0.184099
9778.000000;0.182652
9777.000000;0.181014
9776.000000;0.179375
9775.000000;0.177954
9774.000000;0.176788
9773.000000;0.175703
9772.000000;0.174504
9771.000000;0.173147
9770.000000;0.171722
9769.000000;0.170317
9768.000000;0.168951
9767.000000;0.167626
9766.000000;0.166378
9765.000000;0.165251
9764.000000;0.164236
9763.000000;0.163266
9762.000000;0.162251
9761.000000;0.161120
9760.000000;0.159812
9759.000000;0.158283
9758.000000;0.156545
9757.000000;0.154723
9756.000000;0.153026
9755.000000;0.151621
9754.000000;0.150534
9753.000000;0.149682
9752.000000;0.148929
9751.000000;0.148087
9750.000000;0.146913
9749.000000;0.145271
9748.000000;0.143331
9747.000000;0.141495
9746.000000;0.140026
9745.000000;0.138801
9744.000000;0.137490
9743.000000;0.135956
9742.000000;0.134386
9741.000000;0.133044
9740.000000;0.131969
9739.000000;0.130917
9738.000000;0.129564
9737.000000;0.127769
9736.000000;0.125716
9735.000000;0.123795
9734.000000;0.122271
9733.000000;0.121065
9732.000000;0.119896
9731.000000;0.118605
9730.000000;0.117257
9729.000000;0.115951
9728.000000;0.114647
9727.000000;0.113240
9726.000000;0.111711
9725.000000;0.110127
9724.000000;0.108559
9723.000000;0.107069
9722.000000;0.105705
9721.000000;0.104418
9720.000000;0.103046
9719.000000;0.101462
9718.000000;0.099753
9717.000000;0.098146
9716.000000;0.096751
9715.000000;0.095447
9714.000000;0.094036
9713.000000;0.092438
9712.000000;0.090708
9711.000000;0.088939
9710.000000;0.087194
9709.000000;0.085512
9708.000000;0.083931
9707.000000;0.082488
9706.000000;0.081190
9705.000000;0.079959
9704.000000;0.078633
9703.000000;0.077068
9702.000000;0.075260
9701.000000;0.073346
9700.000000;0.071470
9699.000000;0.069702
9698.000000;0.068086
9697.000000;0.066648
9696.000000;0.065292
9695.000000;0.063788
9694.000000;0.062016
9693.000000;0.060178
9692.000000;0.058625
9691.000000;0.057429
9690.000000;0.056284
9689.000000;0.054884
9688.000000;0.053278
9687.000000;0.051738
9686.000000;0.050365
9685.000000;0.049004
9684.000000;0.047504
9683.000000;0.045880
9682.000000;0.044205
9681.000000;0.042476
9680.000000;0.040685
9679.000000;0.038928
9678.000000;0.037325
9677.000000;0.035843
9676.000000;0.034293
9675.000000;0.032506
9674.000000;0.030499
9673.000000;0.028462
9672.000000;0.026585
9671.000000;0.024912
9670.000000;0.023337
9669.000000;0.021750
9668.000000;0.020144
9667.000000;0.018558
9666.000000;0.016953
9665.000000;0.015239
9664.000000;0.013410
9663.000000;0.011576
9662.000000;0.009840
9661.000000;0.008219
9660.000000;0.006686
9659.000000;0.005172
9658.000000;0.003533
9657.000000;0.001631
9656.000000;-0.000486
9655.000000;-0.002590
9654.000000;-0.004514
9653.000000;-0.006298
9652.000000;-0.008053
9651.000000;-0.009799
9650.000000;-0.011545
9649.000000;-0.013389
9648.000000;-0.015369
9647.000000;-0.017306
9646.000000;-0.018989
9645.000000;-0.020484
9644.000000;-0.022081
9643.000000;-0.023936
9642.000000;-0.025904
9641.000000;-0.027762
9640.000000;-0.029447
9639.000000;-0.031038
9638.000000;-0.032623
9637.000000;-0.034263
9636.000000;-0.035994
9635.000000;-0.037787
9634.000000;-0.039573
9633.000000;-0.041340
9632.000000;-0.043134
9631.000000;-0.044970
9630.000000;-0.046824
9629.000000;-0.048740
9628.000000;-0.050808
9627.000000;-0.053001
9626.000000;-0.055129
9625.000000;-0.057035
9624.000000;-0.058735
9623.000000;-0.060310
9622.000000;-0.061788
9621.000000;-0.063232
9620.000000;-0.064833
9619.000000;-0.066752
9618.000000;-0.068910
9617.000000;-0.071063
9616.000000;-0.073064
9615.000000;-0.074966
9614.000000;-0.076883
9613.000000;-0.078870
9612.000000;-0.080932
9611.000000;-0.083044
9610.000000;-0.085137
9609.000000;-0.087145
9608.000000;-0.089077
9607.000000;-0.090988
9606.000000;-0.092871
9605.000000;-0.094655
9604.000000;-0.096347
9603.000000;-0.098086
9602.000000;-0.100030
9601.000000;-0.102194
9600.000000;-0.104422
9599.000000;-0.106513
9598.000000;-0.108369
9597.000000;-0.110087
9596.000000;-0.111897
9595.000000;-0.113972
9594.000000;-0.116255
9593.000000;-0.118512
9592.000000;-0.120574
9591.000000;-0.122499
9590.000000;-0.124471
9589.000000;-0.126563
9588.000000;-0.128650
9587.000000;-0.130553
9586.000000;-0.132248
9585.000000;-0.133908
9584.000000;-0.135747
9583.000000;-0.137845
9582.000000;-0.140128
9581.000000;-0.142437
9580.000000;-0.144584
9579.000000;-0.146398
9578.000000;-0.147862
9577.000000;-0.149233
9576.000000;-0.150919
9575.000000;-0.153108
9574.000000;-0.155583
9573.000000;-0.157965
9572.000000;-0.160100
9571.000000;-0.162132
9570.000000;-0.164248
9569.000000;-0.166468
9568.000000;-0.168702
9567.000000;-0.170869
9566.000000;-0.172913
9565.000000;-0.174790
9564.000000;-0.176524
9563.000000;-0.178245
9562.000000;-0.180107
9561.000000;-0.182173
9560.000000;-0.184381
9559.000000;-0.186594
9558.000000;-0.188676
9557.000000;-0.190560
9556.000000;-0.192284
9555.000000;-0.193947
9554.000000;-0.195626
9553.000000;-0.197376
9552.000000;-0.199271
9551.000000;-0.201363
9550.000000;-0.203554
9549.000000;-0.205610
9548.000000;-0.207393
9547.000000;-0.209009
9546.000000;-0.210646
9545.000000;-0.212307
9544.000000;-0.213850
9543.000000;-0.215268
9542.000000;-0.216809
9541.000000;-0.218721
9540.000000;-0.220960
9539.000000;-0.223223
9538.000000;-0.225257
9537.000000;-0.227060
9536.000000;-0.228800
9535.000000;-0.230614
9534.000000;-0.232523
9533.000000;-0.234499
9532.000000;-0.236533
9531.000000;-0.238605
9530.000000;-0.240598
9529.000000;-0.242350
9528.000000;-0.243812
9527.000000;-0.245148
9526.000000;-0.246591
9525.000000;-0.248222
9524.000000;-0.249946
9523.000000;-0.251685
9522.000000;-0.253496
9521.000000;-0.255444
9520.000000;-0.257452
9519.000000;-0.259347
9518.000000;-0.261054
9517.000000;-0.262639
9516.000000;-0.264182
9515.000000;-0.265692
9514.000000;-0.267165
9513.000000;-0.268619
9512.000000;-0.270054
9511.000000;-0.271447
9510.000000;-0.272837
9509.000000;-0.274347
9508.000000;-0.276042
9507.000000;-0.277808
9506.000000;-0.279448
9505.000000;-0.280873
9504.000000;-0.282150
9503.000000;-0.283391
9502.000000;-0.284665
9501.000000;-0.286010
9500.000000;-0.287445
9499.000000;-0.288958
9498.000000;-0.290516
9497.000000;-0.292094
9496.000000;-0.293649
9495.000000;-0.295074
9494.000000;-0.296257
9493.000000;-0.297192
9492.000000;-0.297990
9491.000000;-0.298768
9490.000000;-0.299606
9489.000000;-0.300601
9488.000000;-0.301839
9487.000000;-0.303245
9486.000000;-0.304553
9485.000000;-0.305514
9484.000000;-0.306113
9483.000000;-0.306545
9482.000000;-0.307014
9481.000000;-0.307602
9480.000000;-0.308276
9479.000000;-0.308962
9478.000000;-0.309624
9477.000000;-0.310320
9476.000000;-0.311142
9475.000000;-0.312069
9474.000000;-0.312934
9473.000000;-0.313583
9472.000000;-0.314023
9471.000000;-0.314370
9470.000000;-0.314725
9469.000000;-0.315186
9468.000000;-0.315887
9467.000000;-0.316849
9466.000000;-0.317828
9465.000000;-0.318466
9464.000000;-0.318635
9463.000000;-0.318560
9462.000000;-0.318584
9461.000000;-0.318906
9460.000000;-0.319536
9459.000000;-0.320322
9458.000000;-0.320990
9457.000000;-0.321310
9456.000000;-0.321327
9455.000000;-0.321318
9454.000000;-0.321449
9453.000000;-0.321561
9452.000000;-0.321440
9451.000000;-0.321174
9450.000000;-0.321069
9449.000000;-0.321233
9448.000000;-0.321438
9447.000000;-0.321416
9446.000000;-0.321146
9445.000000;-0.320769
9444.000000;-0.320361
9443.000000;-0.319923
9442.000000;-0.319551
9441.000000;-0.319442
9440.000000;-0.319666
9439.000000;-0.319983
9438.000000;-0.319990
9437.000000;-0.319462
9436.000000;-0.318558
9435.000000;-0.317668
9434.000000;-0.317048
9433.000000;-0.316625
9432.000000;-0.316160
9431.000000;-0.315550
9430.000000;-0.314923
9429.000000;-0.314423
9428.000000;-0.314015
9427.000000;-0.313530
9426.000000;-0.312888
9425.000000;-0.312163
9424.000000;-0.311450
9423.000000;-0.310730
9422.000000;-0.309926
9421.000000;-0.309028
9420.000000;-0.308113
9419.000000;-0.307251
9418.000000;-0.306458
9417.000000;-0.305738
9416.000000;-0.305108
9415.000000;-0.304538
9414.000000;-0.303898
9413.000000;-0.303045
9412.000000;-0.301983
9411.000000;-0.300918
9410.000000;-0.300092
9409.000000;-0.299544
9408.000000;-0.299053
9407.000000;-0.298336
9406.000000;-0.297287
9405.000000;-0.296017
9404.000000;-0.294680
9403.000000;-0.293327
9402.000000;-0.291928
9401.000000;-0.290494
9400.000000;-0.289132
9399.000000;-0.287972
9398.000000;-0.287056
9397.000000;-0.286263
9396.000000;-0.285358
9395.000000;-0.284168
9394.000000;-0.282767
9393.000000;-0.281406
9392.000000;-0.280211
9391.000000;-0.279037
9390.000000;-0.277722
9389.000000;-0.276400
9388.000000;-0.275362
9387.000000;-0.274601
9386.000000;-0.273698
9385.000000;-0.272280
9384.000000;-0.270456
9383.000000;-0.268672
9382.000000;-0.267208
9381.000000;-0.265977
9380.000000;-0.264783
9379.000000;-0.263599
9378.000000;-0.262524
9377.000000;-0.261559
9376.000000;-0.260514
9375.000000;-0.259152
9374.000000;-0.257416
9373.000000;-0.255514
9372.000000;-0.253740
9371.000000;-0.252217
9370.000000;-0.250832
9369.000000;-0.249438
9368.000000;-0.248033
9367.000000;-0.246682
9366.000000;-0.245366
9365.000000;-0.244005
9364.000000;-0.242624
9363.000000;-0.241346
9362.000000;-0.240197
9361.000000;-0.239005
9360.000000;-0.237551
9359.000000;-0.235777
9358.000000;-0.233851
9357.000000;-0.232067
9356.000000;-0.230644
9355.000000;-0.229541
9354.000000;-0.228447
9353.000000;-0.227030
9352.000000;-0.225277
9351.000000;-0.223510
9350.000000;-0.222042
9349.000000;-0.220838
9348.000000;-0.219588
9347.000000;-0.218059
9346.000000;-0.216316
9345.000000;-0.214602
9344.000000;-0.213078
9343.000000;-0.211698
9342.000000;-0.210316
9341.000000;-0.208859
9340.000000;-0.207389
9339.000000;-0.206008
9338.000000;-0.204738
9337.000000;-0.203520
9336.000000;-0.202284
9335.000000;-0.200972
9334.000000;-0.199512
9333.000000;-0.197860
9332.000000;-0.196110
9331.000000;-0.194483
9330.000000;-0.193146
9329.000000;-0.192067
9328.000000;-0.191066
9327.000000;-0.189988
9326.000000;-0.188763
9325.000000;-0.187337
9324.000000;-0.185673
9323.000000;-0.183825
9322.000000;-0.181973
9321.000000;-0.180306
9320.000000;-0.178890
9319.000000;-0.177656
9318.000000;-0.176494
9317.000000;-0.175321
9316.000000;-0.174073
9315.000000;-0.172711
9314.000000;-0.171245
9313.000000;-0.169745
9312.000000;-0.168277
9311.000000;-0.166844
9310.000000;-0.165414
9309.000000;-0.163983
9308.000000;-0.162581
9307.000000;-0.161212
9306.000000;-0.159829
9305.000000;-0.158394
9304.000000;-0.156925
9303.000000;-0.155475
9302.000000;-0.154076
9301.000000;-0.152744
9300.000000;-0.151486
9299.000000;-0.150257
9298.000000;-0.148941
9297.000000;-0.147465
9296.000000;-0.145907
9295.000000;-0.144439
9294.000000;-0.143146
9293.000000;-0.141971
9292.000000;-0.140833
9291.000000;-0.139688
9290.000000;-0.138463
9289.000000;-0.137042
9288.000000;-0.135415
9287.000000;-0.133760
9286.000000;-0.132280
9285.000000;-0.130970
9284.000000;-0.129666
9283.000000;-0.128274
9282.000000;-0.126867
9281.000000;-0.125534
9280.000000;-0.124265
9279.000000;-0.123023
9278.000000;-0.121827
9277.000000;-0.120704
9276.000000;-0.119610
9275.000000;-0.118477
9274.000000;-0.117307
9273.000000;-0.116157
9272.000000;-0.115043
9271.000000;-0.113899
9270.000000;-0.112635
9269.000000;-0.111213
9268.000000;-0.109685
9267.000000;-0.108184
9266.000000;-0.106848
9265.000000;-0.105711
9264.000000;-0.104669
9263.000000;-0.103567
9262.000000;-0.102319
9261.000000;-0.100956
9260.000000;-0.099584
9259.000000;-0.098315
9258.000000;-0.097200
9257.000000;-0.096176
9256.000000;-0.095112
9255.000000;-0.093950
9254.000000;-0.092782
9253.000000;-0.091736
9252.000000;-0.090803
9251.000000;-0.089848
9250.000000;-0.088777
9249.000000;-0.087630
9248.000000;-0.086483
9247.000000;-0.085335
9246.000000;-0.084146
9245.000000;-0.082924
9244.000000;-0.081719
9243.000000;-0.080548
9242.000000;-0.079411
9241.000000;-0.078330
9240.000000;-0.077328
9239.000000;-0.076373
9238.000000;-0.075403
9237.000000;-0.074413
9236.000000;-0.073457
9235.000000;-0.072534
9234.000000;-0.071559
9233.000000;-0.070462
9232.000000;-0.069263
9231.000000;-0.068010
9230.000000;-0.066717
9229.000000;-0.065397
9228.000000;-0.064112
9227.000000;-0.062907
9226.000000;-0.061755
9225.000000;-0.060647
9224.000000;-0.059677
9223.000000;-0.058915
9222.000000;-0.058219
9221.000000;-0.057324
9220.000000;-0.056158
9219.000000;-0.054952
9218.000000;-0.053951
9217.000000;-0.053145
9216.000000;-0.052356
9215.000000;-0.051497
9214.000000;-0.050607
9213.000000;-0.049688
9212.000000;-0.048679
9211.000000;-0.047573
9210.000000;-0.046438
9209.000000;-0.045289
9208.000000;-0.044063
9207.000000;-0.042768
9206.000000;-0.041551
9205.000000;-0.040560
9204.000000;-0.039789
9203.000000;-0.039129
9202.000000;-0.038476
9201.000000;-0.037773
9200.000000;-0.036973
9199.000000;-0.036071
9198.000000;-0.035107
9197.000000;-0.034126
9196.000000;-0.033128
9195.000000;-0.032095
9194.000000;-0.031021
9193.000000;-0.029905
9192.000000;-0.028753
9191.000000;-0.027633
9190.000000;-0.026656
9189.000000;-0.025859
9188.000000;-0.025136
9187.000000;-0.024360
9186.000000;-0.023513
9185.000000;-0.022646
9184.000000;-0.021767
9183.000000;-0.020846
9182.000000;-0.019915
9181.000000;-0.019056
9180.000000;-0.018284
9179.000000;-0.017496
9178.000000;-0.016579
9177.000000;-0.015515
9176.000000;-0.014371
9175.000000;-0.013244
9174.000000;-0.012219
9173.000000;-0.011370
9172.000000;-0.010741
9171.000000;-0.010311
9170.000000;-0.009990
9169.000000;-0.009648
9168.000000;-0.009182
9167.000000;-0.008543
9166.000000;-0.007688
9165.000000;-0.006555
9164.000000;-0.005150
9163.000000;-0.003657
9162.000000;-0.002386
9161.000000;-0.001544
9160.000000;-0.001076
9159.000000;-0.000759
9158.000000;-0.000376
9157.000000;0.000205
9156.000000;0.001013
9155.000000;0.001953
9154.000000;0.002845
9153.000000;0.003588
9152.000000;0.004258
9151.000000;0.004991
9150.000000;0.005799
9149.000000;0.006585
9148.000000;0.007301
9147.000000;0.007982
9146.000000;0.008633
9145.000000;0.009223
9144.000000;0.009795
9143.000000;0.010494
9142.000000;0.011405
9141.000000;0.012430
9140.000000;0.013378
9139.000000;0.014156
9138.000000;0.014814
9137.000000;0.015445
9136.000000;0.016083
9135.000000;0.016718
9134.000000;0.017361
9133.000000;0.018043
9132.000000;0.018747
9131.000000;0.019382
9130.000000;0.019890
9129.000000;0.020375
9128.000000;0.021057
9127.000000;0.022032
9126.000000;0.023127
9125.000000;0.024050
9124.000000;0.024671
9123.000000;0.025100
9122.000000;0.025525
9121.000000;0.026050
9120.000000;0.026664
9119.000000;0.027292
9118.000000;0.027868
9117.000000;0.028398
9116.000000;0.028948
9115.000000;0.029543
9114.000000;0.030099
9113.000000;0.030528
9112.000000;0.030888
9111.000000;0.031378
9110.000000;0.032157
9109.000000;0.033205
9108.000000;0.034328
9107.000000;0.035294
9106.000000;0.035977
9105.000000;0.036466
9104.000000;0.036984
9103.000000;0.037662
9102.000000;0.038389
9101.000000;0.038952
9100.000000;0.039293
9099.000000;0.039564
9098.000000;0.039943
9097.000000;0.040481
9096.000000;0.041119
9095.000000;0.041765
9094.000000;0.042344
9093.000000;0.042859
9092.000000;0.043414
9091.000000;0.044113
9090.000000;0.044929
9089.000000;0.045727
9088.000000;0.046403
9087.000000;0.046942
9086.000000;0.047362
9085.000000;0.047709
9084.000000;0.048102
9083.000000;0.048663
9082.000000;0.049372
9081.000000;0.050075
9080.000000;0.050650
9079.000000;0.051102
9078.000000;0.051486
9077.000000;0.051836
