Criado como novo conjunto de dados;"0307_DANIEL.spp","26103.3 Secs"
cm-1;Abs
10000.000000;1.077579
9999.000000;1.076680
9998.000000;1.075790
9997.000000;1.074888
9996.000000;1.074014
9995.000000;1.073089
9994.000000;1.072322
9993.000000;1.072133
9992.000000;1.072137
9991.000000;1.071816
9990.000000;1.070616
9989.000000;1.068453
9988.000000;1.065787
9987.000000;1.063282
9986.000000;1.061311
9985.000000;1.059900
9984.000000;1.058997
9983.000000;1.058547
9982.000000;1.058315
9981.000000;1.057920
9980.000000;1.057160
9979.000000;1.056158
9978.000000;1.055112
9977.000000;1.054061
9976.000000;1.052932
9975.000000;1.051620
9974.000000;1.050007
9973.000000;1.048103
9972.000000;1.046227
9971.000000;1.044805
9970.000000;1.043897
9969.000000;1.043124
9968.000000;1.042153
9967.000000;1.041019
9966.000000;1.039844
9965.000000;1.038544
9964.000000;1.037080
9963.000000;1.035731
9962.000000;1.034772
9961.000000;1.033993
9960.000000;1.032849
9959.000000;1.031124
9958.000000;1.029197
9957.000000;1.027563
9956.000000;1.026263
9955.000000;1.024940
9954.000000;1.023387
9953.000000;1.021900
9952.000000;1.020984
9951.000000;1.020699
9950.000000;1.020450
9949.000000;1.019556
9948.000000;1.017953
9947.000000;1.016110
9946.000000;1.014357
9945.000000;1.012671
9944.000000;1.011101
9943.000000;1.009928
9942.000000;1.009185
9941.000000;1.008400
9940.000000;1.007148
9939.000000;1.005577
9938.000000;1.004073
9937.000000;1.002662
9936.000000;1.001166
9935.000000;0.999727
9934.000000;0.998689
9933.000000;0.997986
9932.000000;0.997098
9931.000000;0.995678
9930.000000;0.993873
9929.000000;0.991964
9928.000000;0.990085
9927.000000;0.988417
9926.000000;0.987278
9925.000000;0.986738
9924.000000;0.986364
9923.000000;0.985613
9922.000000;0.984372
9921.000000;0.982924
9920.000000;0.981506
9919.000000;0.980118
9918.000000;0.978680
9917.000000;0.977186
9916.000000;0.975685
9915.000000;0.974245
9914.000000;0.972941
9913.000000;0.971804
9912.000000;0.970774
9911.000000;0.969756
9910.000000;0.968696
9909.000000;0.967552
9908.000000;0.966221
9907.000000;0.964590
9906.000000;0.962676
9905.000000;0.960676
9904.000000;0.958858
9903.000000;0.957398
9902.000000;0.956270
9901.000000;0.955267
9900.000000;0.954148
9899.000000;0.952849
9898.000000;0.951565
9897.000000;0.950582
9896.000000;0.949967
9895.000000;0.949384
9894.000000;0.948280
9893.000000;0.946367
9892.000000;0.943997
9891.000000;0.941978
9890.000000;0.940890
9889.000000;0.940528
9888.000000;0.940060
9887.000000;0.938777
9886.000000;0.936671
9885.000000;0.934269
9884.000000;0.932042
9883.000000;0.930106
9882.000000;0.928441
9881.000000;0.927166
9880.000000;0.926434
9879.000000;0.926105
9878.000000;0.925659
9877.000000;0.924523
9876.000000;0.922531
9875.000000;0.920064
9874.000000;0.917770
9873.000000;0.916116
9872.000000;0.915108
9871.000000;0.914359
9870.000000;0.913450
9869.000000;0.912260
9868.000000;0.910980
9867.000000;0.909835
9866.000000;0.908837
9865.000000;0.907823
9864.000000;0.906643
9863.000000;0.905244
9862.000000;0.903616
9861.000000;0.901730
9860.000000;0.899587
9859.000000;0.897300
9858.000000;0.895109
9857.000000;0.893268
9856.000000;0.891876
9855.000000;0.890800
9854.000000;0.889806
9853.000000;0.888766
9852.000000;0.887665
9851.000000;0.886434
9850.000000;0.884948
9849.000000;0.883264
9848.000000;0.881693
9847.000000;0.880465
9846.000000;0.879417
9845.000000;0.878197
9844.000000;0.876703
9843.000000;0.875073
9842.000000;0.873321
9841.000000;0.871316
9840.000000;0.869199
9839.000000;0.867464
9838.000000;0.866394
9837.000000;0.865640
9836.000000;0.864612
9835.000000;0.863165
9834.000000;0.861620
9833.000000;0.860186
9832.000000;0.858709
9831.000000;0.857017
9830.000000;0.855246
9829.000000;0.853688
9828.000000;0.852471
9827.000000;0.851502
9826.000000;0.850546
9825.000000;0.849295
9824.000000;0.847510
9823.000000;0.845300
9822.000000;0.843164
9821.000000;0.841588
9820.000000;0.840589
9819.000000;0.839725
9818.000000;0.838520
9817.000000;0.836833
9816.000000;0.834866
9815.000000;0.832953
9814.000000;0.831321
9813.000000;0.829937
9812.000000;0.828559
9811.000000;0.826984
9810.000000;0.825219
9809.000000;0.823371
9808.000000;0.821462
9807.000000;0.819492
9806.000000;0.817615
9805.000000;0.816076
9804.000000;0.814905
9803.000000;0.813812
9802.000000;0.812425
9801.000000;0.810561
9800.000000;0.808263
9799.000000;0.805762
9798.000000;0.803426
9797.000000;0.801570
9796.000000;0.800179
9795.000000;0.798938
9794.000000;0.797623
9793.000000;0.796275
9792.000000;0.794891
9791.000000;0.793191
9790.000000;0.790989
9789.000000;0.788666
9788.000000;0.786921
9787.000000;0.786018
9786.000000;0.785505
9785.000000;0.784739
9784.000000;0.783444
9783.000000;0.781691
9782.000000;0.779606
9781.000000;0.777348
9780.000000;0.775202
9779.000000;0.773414
9778.000000;0.771920
9777.000000;0.770392
9776.000000;0.768597
9775.000000;0.766625
9774.000000;0.764720
9773.000000;0.762962
9772.000000;0.761207
9771.000000;0.759333
9770.000000;0.757460
9769.000000;0.755854
9768.000000;0.754593
9767.000000;0.753439
9766.000000;0.752092
9765.000000;0.750506
9764.000000;0.748851
9763.000000;0.747248
9762.000000;0.745649
9761.000000;0.743964
9760.000000;0.742153
9759.000000;0.740190
9758.000000;0.738051
9757.000000;0.735799
9756.000000;0.733606
9755.000000;0.731698
9754.000000;0.730254
9753.000000;0.729285
9752.000000;0.728467
9751.000000;0.727203
9750.000000;0.725062
9749.000000;0.722214
9748.000000;0.719307
9747.000000;0.716870
9746.000000;0.714948
9745.000000;0.713257
9744.000000;0.711541
9743.000000;0.709744
9742.000000;0.708005
9741.000000;0.706511
9740.000000;0.705250
9739.000000;0.703925
9738.000000;0.702255
9737.000000;0.700328
9736.000000;0.698457
9735.000000;0.696713
9734.000000;0.694834
9733.000000;0.692666
9732.000000;0.690446
9731.000000;0.688539
9730.000000;0.687077
9729.000000;0.685927
9728.000000;0.684834
9727.000000;0.683520
9726.000000;0.681837
9725.000000;0.679950
9724.000000;0.678189
9723.000000;0.676604
9722.000000;0.674831
9721.000000;0.672508
9720.000000;0.669727
9719.000000;0.666955
9718.000000;0.664648
9717.000000;0.662964
9716.000000;0.661683
9715.000000;0.660340
9714.000000;0.658654
9713.000000;0.656859
9712.000000;0.655380
9711.000000;0.654131
9710.000000;0.652490
9709.000000;0.650121
9708.000000;0.647488
9707.000000;0.645283
9706.000000;0.643630
9705.000000;0.642157
9704.000000;0.640582
9703.000000;0.638846
9702.000000;0.636843
9701.000000;0.634439
9700.000000;0.631766
9699.000000;0.629165
9698.000000;0.626838
9697.000000;0.624753
9696.000000;0.622856
9695.000000;0.621099
9694.000000;0.619319
9693.000000;0.617346
9692.000000;0.615243
9691.000000;0.613236
9690.000000;0.611409
9689.000000;0.609662
9688.000000;0.607906
9687.000000;0.606075
9686.000000;0.603999
9685.000000;0.601561
9684.000000;0.598998
9683.000000;0.596788
9682.000000;0.595153
9681.000000;0.593857
9680.000000;0.592517
9679.000000;0.590934
9678.000000;0.589072
9677.000000;0.586929
9676.000000;0.584552
9675.000000;0.582081
9674.000000;0.579708
9673.000000;0.577601
9672.000000;0.575813
9671.000000;0.574171
9670.000000;0.572334
9669.000000;0.570131
9668.000000;0.567797
9667.000000;0.565677
9666.000000;0.563784
9665.000000;0.561842
9664.000000;0.559736
9663.000000;0.557638
9662.000000;0.555672
9661.000000;0.553686
9660.000000;0.551475
9659.000000;0.549041
9658.000000;0.546550
9657.000000;0.544151
9656.000000;0.541945
9655.000000;0.539992
9654.000000;0.538281
9653.000000;0.536729
9652.000000;0.535218
9651.000000;0.533586
9650.000000;0.531627
9649.000000;0.529238
9648.000000;0.526537
9647.000000;0.523739
9646.000000;0.520947
9645.000000;0.518216
9644.000000;0.515729
9643.000000;0.513683
9642.000000;0.511954
9641.000000;0.510109
9640.000000;0.507834
9639.000000;0.505250
9638.000000;0.502760
9637.000000;0.500693
9636.000000;0.499109
9635.000000;0.497785
9634.000000;0.496332
9633.000000;0.494433
9632.000000;0.492043
9631.000000;0.489332
9630.000000;0.486474
9629.000000;0.483618
9628.000000;0.480967
9627.000000;0.478668
9626.000000;0.476576
9625.000000;0.474343
9624.000000;0.471813
9623.000000;0.469214
9622.000000;0.466891
9621.000000;0.464959
9620.000000;0.463278
9619.000000;0.461587
9618.000000;0.459604
9617.000000;0.457131
9616.000000;0.454233
9615.000000;0.451267
9614.000000;0.448631
9613.000000;0.446469
9612.000000;0.444616
9611.000000;0.442781
9610.000000;0.440766
9609.000000;0.438555
9608.000000;0.436250
9607.000000;0.433904
9606.000000;0.431478
9605.000000;0.428972
9604.000000;0.426485
9603.000000;0.424070
9602.000000;0.421613
9601.000000;0.419027
9600.000000;0.416476
9599.000000;0.414196
9598.000000;0.412135
9597.000000;0.409987
9596.000000;0.407624
9595.000000;0.405267
9594.000000;0.403149
9593.000000;0.401183
9592.000000;0.399101
9591.000000;0.396809
9590.000000;0.394461
9589.000000;0.392235
9588.000000;0.390153
9587.000000;0.388067
9586.000000;0.385772
9585.000000;0.383176
9584.000000;0.380403
9583.000000;0.377712
9582.000000;0.375281
9581.000000;0.373089
9580.000000;0.370995
9579.000000;0.368865
9578.000000;0.366616
9577.000000;0.364255
9576.000000;0.361899
9575.000000;0.359682
9574.000000;0.357596
9573.000000;0.355463
9572.000000;0.353102
9571.000000;0.350500
9570.000000;0.347832
9569.000000;0.345344
9568.000000;0.343206
9567.000000;0.341373
9566.000000;0.339598
9565.000000;0.337616
9564.000000;0.335319
9563.000000;0.332725
9562.000000;0.329896
9561.000000;0.326989
9560.000000;0.324339
9559.000000;0.322269
9558.000000;0.320765
9557.000000;0.319429
9556.000000;0.317814
9555.000000;0.315735
9554.000000;0.313259
9553.000000;0.310514
9552.000000;0.307604
9551.000000;0.304669
9550.000000;0.301936
9549.000000;0.299635
9548.000000;0.297800
9547.000000;0.296137
9546.000000;0.294183
9545.000000;0.291705
9544.000000;0.288891
9543.000000;0.286099
9542.000000;0.283472
9541.000000;0.280923
9540.000000;0.278409
9539.000000;0.276029
9538.000000;0.273841
9537.000000;0.271745
9536.000000;0.269603
9535.000000;0.267392
9534.000000;0.265200
9533.000000;0.263119
9532.000000;0.261162
9531.000000;0.259231
9530.000000;0.257197
9529.000000;0.255052
9528.000000;0.252957
9527.000000;0.251049
9526.000000;0.249237
9525.000000;0.247286
9524.000000;0.245082
9523.000000;0.242745
9522.000000;0.240507
9521.000000;0.238554
9520.000000;0.236912
9519.000000;0.235376
9518.000000;0.233630
9517.000000;0.231569
9516.000000;0.229445
9515.000000;0.227532
9514.000000;0.225733
9513.000000;0.223731
9512.000000;0.221482
9511.000000;0.219292
9510.000000;0.217380
9509.000000;0.215622
9508.000000;0.213838
9507.000000;0.212114
9506.000000;0.210643
9505.000000;0.209367
9504.000000;0.207967
9503.000000;0.206212
9502.000000;0.204214
9501.000000;0.202320
9500.000000;0.200748
9499.000000;0.199360
9498.000000;0.197826
9497.000000;0.196035
9496.000000;0.194277
9495.000000;0.192903
9494.000000;0.191877
9493.000000;0.190786
9492.000000;0.189276
9491.000000;0.187349
9490.000000;0.185276
9489.000000;0.183387
9488.000000;0.181929
9487.000000;0.180891
9486.000000;0.179929
9485.000000;0.178647
9484.000000;0.177050
9483.000000;0.175539
9482.000000;0.174391
9481.000000;0.173430
9480.000000;0.172330
9479.000000;0.171058
9478.000000;0.169831
9477.000000;0.168750
9476.000000;0.167698
9475.000000;0.166575
9474.000000;0.165477
9473.000000;0.164558
9472.000000;0.163813
9471.000000;0.163040
9470.000000;0.162026
9469.000000;0.160763
9468.000000;0.159468
9467.000000;0.158345
9466.000000;0.157379
9465.000000;0.156434
9464.000000;0.155525
9463.000000;0.154814
9462.000000;0.154346
9461.000000;0.153944
9460.000000;0.153444
9459.000000;0.152892
9458.000000;0.152399
9457.000000;0.151950
9456.000000;0.151473
9455.000000;0.151004
9454.000000;0.150654
9453.000000;0.150452
9452.000000;0.150303
9451.000000;0.150058
9450.000000;0.149552
9449.000000;0.148712
9448.000000;0.147760
9447.000000;0.147195
9446.000000;0.147387
9445.000000;0.148178
9444.000000;0.149009
9443.000000;0.149434
9442.000000;0.149403
9441.000000;0.149087
9440.000000;0.148633
9439.000000;0.148162
9438.000000;0.147829
9437.000000;0.147768
9436.000000;0.147980
9435.000000;0.148358
9434.000000;0.148785
9433.000000;0.149178
9432.000000;0.149461
9431.000000;0.149566
9430.000000;0.149471
9429.000000;0.149278
9428.000000;0.149221
9427.000000;0.149559
9426.000000;0.150338
9425.000000;0.151275
9424.000000;0.151980
9423.000000;0.152336
9422.000000;0.152582
9421.000000;0.152999
9420.000000;0.153583
9419.000000;0.154109
9418.000000;0.154433
9417.000000;0.154626
9416.000000;0.154848
9415.000000;0.155219
9414.000000;0.155833
9413.000000;0.156748
9412.000000;0.157861
9411.000000;0.158901
9410.000000;0.159680
9409.000000;0.160290
9408.000000;0.160938
9407.000000;0.161623
9406.000000;0.162163
9405.000000;0.162552
9404.000000;0.163057
9403.000000;0.163884
9402.000000;0.164916
9401.000000;0.165944
9400.000000;0.167006
9399.000000;0.168260
9398.000000;0.169586
9397.000000;0.170593
9396.000000;0.171052
9395.000000;0.171152
9394.000000;0.171242
9393.000000;0.171491
9392.000000;0.171906
9391.000000;0.172525
9390.000000;0.173443
9389.000000;0.174692
9388.000000;0.176185
9387.000000;0.177774
9386.000000;0.179306
9385.000000;0.180668
9384.000000;0.181859
9383.000000;0.182954
9382.000000;0.183987
9381.000000;0.184913
9380.000000;0.185730
9379.000000;0.186572
9378.000000;0.187587
9377.000000;0.188798
9376.000000;0.190137
9375.000000;0.191537
9374.000000;0.192891
9373.000000;0.194004
9372.000000;0.194772
9371.000000;0.195396
9370.000000;0.196280
9369.000000;0.197635
9368.000000;0.199290
9367.000000;0.200896
9366.000000;0.202219
9365.000000;0.203170
9364.000000;0.203750
9363.000000;0.204106
9362.000000;0.204591
9361.000000;0.205552
9360.000000;0.207005
9359.000000;0.208610
9358.000000;0.210001
9357.000000;0.211057
9356.000000;0.211875
9355.000000;0.212622
9354.000000;0.213500
9353.000000;0.214708
9352.000000;0.216269
9351.000000;0.217919
9350.000000;0.219300
9349.000000;0.220286
9348.000000;0.221052
9347.000000;0.221860
9346.000000;0.222874
9345.000000;0.224149
9344.000000;0.225630
9343.000000;0.227135
9342.000000;0.228485
9341.000000;0.229707
9340.000000;0.230974
9339.000000;0.232297
9338.000000;0.233416
9337.000000;0.234124
9336.000000;0.234613
9335.000000;0.235351
9334.000000;0.236624
9333.000000;0.238304
9332.000000;0.240007
9331.000000;0.241418
9330.000000;0.242489
9329.000000;0.243429
9328.000000;0.244512
9327.000000;0.245830
9326.000000;0.247245
9325.000000;0.248581
9324.000000;0.249815
9323.000000;0.251020
9322.000000;0.252215
9321.000000;0.253360
9320.000000;0.254433
9319.000000;0.255424
9318.000000;0.256313
9317.000000;0.257134
9316.000000;0.258018
9315.000000;0.259049
9314.000000;0.260124
9313.000000;0.261092
9312.000000;0.261991
9311.000000;0.263025
9310.000000;0.264324
9309.000000;0.265835
9308.000000;0.267432
9307.000000;0.269000
9306.000000;0.270412
9305.000000;0.271565
9304.000000;0.272502
9303.000000;0.273402
9302.000000;0.274403
9301.000000;0.275498
9300.000000;0.276620
9299.000000;0.277731
9298.000000;0.278800
9297.000000;0.279772
9296.000000;0.280630
9295.000000;0.281445
9294.000000;0.282340
9293.000000;0.283412
9292.000000;0.284679
9291.000000;0.286040
9290.000000;0.287321
9289.000000;0.288423
9288.000000;0.289415
9287.000000;0.290418
9286.000000;0.291453
9285.000000;0.292493
9284.000000;0.293601
9283.000000;0.294855
9282.000000;0.296139
9281.000000;0.297175
9280.000000;0.297862
9279.000000;0.298472
9278.000000;0.299410
9277.000000;0.300798
9276.000000;0.302357
9275.000000;0.303665
9274.000000;0.304516
9273.000000;0.305089
9272.000000;0.305801
9271.000000;0.306948
9270.000000;0.308432
9269.000000;0.309864
9268.000000;0.310917
9267.000000;0.311581
9266.000000;0.312076
9265.000000;0.312623
9264.000000;0.313311
9263.000000;0.314133
9262.000000;0.315067
9261.000000;0.316113
9260.000000;0.317246
9259.000000;0.318370
9258.000000;0.319382
9257.000000;0.320298
9256.000000;0.321239
9255.000000;0.322255
9254.000000;0.323237
9253.000000;0.324098
9252.000000;0.324914
9251.000000;0.325797
9250.000000;0.326681
9249.000000;0.327403
9248.000000;0.327970
9247.000000;0.328573
9246.000000;0.329352
9245.000000;0.330289
9244.000000;0.331338
9243.000000;0.332508
9242.000000;0.333764
9241.000000;0.334975
9240.000000;0.336018
9239.000000;0.336877
9238.000000;0.337606
9237.000000;0.338288
9236.000000;0.339030
9235.000000;0.339873
9234.000000;0.340695
9233.000000;0.341315
9232.000000;0.341754
9231.000000;0.342260
9230.000000;0.343033
9229.000000;0.344045
9228.000000;0.345161
9227.000000;0.346290
9226.000000;0.347353
9225.000000;0.348251
9224.000000;0.348987
9223.000000;0.349705
9222.000000;0.350493
9221.000000;0.351238
9220.000000;0.351797
9219.000000;0.352256
9218.000000;0.352863
9217.000000;0.353761
9216.000000;0.354854
9215.000000;0.355908
9214.000000;0.356702
9213.000000;0.357136
9212.000000;0.357329
9211.000000;0.357587
9210.000000;0.358175
9209.000000;0.359085
9208.000000;0.360090
9207.000000;0.361002
9206.000000;0.361820
9205.000000;0.362638
9204.000000;0.363483
9203.000000;0.364279
9202.000000;0.364923
9201.000000;0.365414
9200.000000;0.365902
9199.000000;0.366575
9198.000000;0.367447
9197.000000;0.368308
9196.000000;0.368974
9195.000000;0.369529
9194.000000;0.370219
9193.000000;0.371107
9192.000000;0.371977
9191.000000;0.372608
9190.000000;0.373028
9189.000000;0.373425
9188.000000;0.373912
9187.000000;0.374514
9186.000000;0.375307
9185.000000;0.376373
9184.000000;0.377562
9183.000000;0.378494
9182.000000;0.378927
9181.000000;0.379057
9180.000000;0.379293
9179.000000;0.379788
9178.000000;0.380354
9177.000000;0.380838
9176.000000;0.381378
9175.000000;0.382183
9174.000000;0.383186
9173.000000;0.384086
9172.000000;0.384690
9171.000000;0.385068
9170.000000;0.385407
9169.000000;0.385846
9168.000000;0.386470
9167.000000;0.387310
9166.000000;0.388260
9165.000000;0.389078
9164.000000;0.389579
9163.000000;0.389826
9162.000000;0.390093
9161.000000;0.390618
9160.000000;0.391403
9159.000000;0.392242
9158.000000;0.392926
9157.000000;0.393411
9156.000000;0.393818
9155.000000;0.394273
9154.000000;0.394821
9153.000000;0.395441
9152.000000;0.396097
9151.000000;0.396727
9150.000000;0.397266
9149.000000;0.397727
9148.000000;0.398197
9147.000000;0.398720
9146.000000;0.399233
9145.000000;0.399669
9144.000000;0.400088
9143.000000;0.400607
9142.000000;0.401254
9141.000000;0.401937
9140.000000;0.402554
9139.000000;0.403055
9138.000000;0.403451
9137.000000;0.403805
9136.000000;0.404225
9135.000000;0.404774
9134.000000;0.405386
9133.000000;0.405918
9132.000000;0.406270
9131.000000;0.406427
9130.000000;0.406467
9129.000000;0.406572
9128.000000;0.406946
9127.000000;0.407610
9126.000000;0.408332
9125.000000;0.408873
9124.000000;0.409270
9123.000000;0.409755
9122.000000;0.410417
9121.000000;0.411095
9120.000000;0.411605
9119.000000;0.411951
9118.000000;0.412246
9117.000000;0.412562
9116.000000;0.412920
9115.000000;0.413343
9114.000000;0.413842
9113.000000;0.414375
9112.000000;0.414855
9111.000000;0.415229
9110.000000;0.415539
9109.000000;0.415933
9108.000000;0.416559
9107.000000;0.417375
9106.000000;0.418110
9105.000000;0.418487
9104.000000;0.418497
9103.000000;0.418383
9102.000000;0.418397
9101.000000;0.418647
9100.000000;0.419154
9099.000000;0.419913
9098.000000;0.420834
9097.000000;0.421716
9096.000000;0.422334
9095.000000;0.422567
9094.000000;0.422461
9093.000000;0.422222
9092.000000;0.422130
9091.000000;0.422354
9090.000000;0.422845
9089.000000;0.423436
9088.000000;0.424020
9087.000000;0.424561
9086.000000;0.424996
9085.000000;0.425271
9084.000000;0.425468
9083.000000;0.425773
9082.000000;0.426231
9081.000000;0.426672
9080.000000;0.426924
9079.000000;0.427053
9078.000000;0.427313
9077.000000;0.427880
9076.000000;0.428677
9075.000000;0.429442
9074.000000;0.429938
9073.000000;0.430138
9072.000000;0.430204
9071.000000;0.430297
9070.000000;0.430432
9069.000000;0.430532
9068.000000;0.430559
9067.000000;0.430552
9066.000000;0.430581
9065.000000;0.430729
9064.000000;0.431069
9063.000000;0.431571
9062.000000;0.432072
9061.000000;0.432424
9060.000000;0.432627
9059.000000;0.432756
9058.000000;0.432823
9057.000000;0.432850
9056.000000;0.432991
9055.000000;0.433410
9054.000000;0.434042
9053.000000;0.434638
