Criado como novo conjunto de dados;"0307_DANIEL.spp","8822.4 Secs"
cm-1;Abs
10000.000000;0.362562
9999.000000;0.361626
9998.000000;0.360691
9997.000000;0.359759
9996.000000;0.358829
9995.000000;0.357900
9994.000000;0.356975
9993.000000;0.356049
9992.000000;0.355130
9991.000000;0.354203
9990.000000;0.353299
9989.000000;0.352304
9988.000000;0.351195
9987.000000;0.350083
9986.000000;0.348929
9985.000000;0.347694
9984.000000;0.346422
9983.000000;0.345228
9982.000000;0.344152
9981.000000;0.343127
9980.000000;0.342076
9979.000000;0.341008
9978.000000;0.339989
9977.000000;0.339060
9976.000000;0.338178
9975.000000;0.337225
9974.000000;0.336091
9973.000000;0.334784
9972.000000;0.333451
9971.000000;0.332257
9970.000000;0.331236
9969.000000;0.330286
9968.000000;0.329297
9967.000000;0.328247
9966.000000;0.327158
9965.000000;0.326030
9964.000000;0.324840
9963.000000;0.323593
9962.000000;0.322346
9961.000000;0.321179
9960.000000;0.320140
9959.000000;0.319211
9958.000000;0.318329
9957.000000;0.317428
9956.000000;0.316451
9955.000000;0.315336
9954.000000;0.314039
9953.000000;0.312596
9952.000000;0.311132
9951.000000;0.309776
9950.000000;0.308578
9949.000000;0.307519
9948.000000;0.306537
9947.000000;0.305516
9946.000000;0.304322
9945.000000;0.302920
9944.000000;0.301446
9943.000000;0.300075
9942.000000;0.298837
9941.000000;0.297626
9940.000000;0.296371
9939.000000;0.295138
9938.000000;0.294034
9937.000000;0.293085
9936.000000;0.292209
9935.000000;0.291268
9934.000000;0.290142
9933.000000;0.288819
9932.000000;0.287432
9931.000000;0.286154
9930.000000;0.285043
9929.000000;0.284013
9928.000000;0.282966
9927.000000;0.281881
9926.000000;0.280772
9925.000000;0.279620
9924.000000;0.278389
9923.000000;0.277081
9922.000000;0.275733
9921.000000;0.274405
9920.000000;0.273172
9919.000000;0.272084
9918.000000;0.271088
9917.000000;0.270037
9916.000000;0.268822
9915.000000;0.267461
9914.000000;0.266055
9913.000000;0.264658
9912.000000;0.263258
9911.000000;0.261849
9910.000000;0.260480
9909.000000;0.259226
9908.000000;0.258126
9907.000000;0.257138
9906.000000;0.256168
9905.000000;0.255136
9904.000000;0.254030
9903.000000;0.252872
9902.000000;0.251635
9901.000000;0.250258
9900.000000;0.248766
9899.000000;0.247332
9898.000000;0.246133
9897.000000;0.245144
9896.000000;0.244134
9895.000000;0.242906
9894.000000;0.241500
9893.000000;0.240112
9892.000000;0.238838
9891.000000;0.237583
9890.000000;0.236221
9889.000000;0.234771
9888.000000;0.233346
9887.000000;0.232004
9886.000000;0.230715
9885.000000;0.229463
9884.000000;0.228274
9883.000000;0.227136
9882.000000;0.225974
9881.000000;0.224745
9880.000000;0.223481
9879.000000;0.222208
9878.000000;0.220879
9877.000000;0.219447
9876.000000;0.217946
9875.000000;0.216457
9874.000000;0.215025
9873.000000;0.213659
9872.000000;0.212364
9871.000000;0.211109
9870.000000;0.209839
9869.000000;0.208549
9868.000000;0.207295
9867.000000;0.206066
9866.000000;0.204736
9865.000000;0.203253
9864.000000;0.201795
9863.000000;0.200590
9862.000000;0.199609
9861.000000;0.198593
9860.000000;0.197370
9859.000000;0.196008
9858.000000;0.194642
9857.000000;0.193300
9856.000000;0.191957
9855.000000;0.190617
9854.000000;0.189266
9853.000000;0.187847
9852.000000;0.186358
9851.000000;0.184897
9850.000000;0.183527
9849.000000;0.182178
9848.000000;0.180765
9847.000000;0.179332
9846.000000;0.177993
9845.000000;0.176764
9844.000000;0.175558
9843.000000;0.174287
9842.000000;0.172921
9841.000000;0.171459
9840.000000;0.169936
9839.000000;0.168441
9838.000000;0.167048
9837.000000;0.165748
9836.000000;0.164479
9835.000000;0.163200
9834.000000;0.161886
9833.000000;0.160471
9832.000000;0.158910
9831.000000;0.157291
9830.000000;0.155793
9829.000000;0.154499
9828.000000;0.153283
9827.000000;0.151909
9826.000000;0.150252
9825.000000;0.148426
9824.000000;0.146702
9823.000000;0.145283
9822.000000;0.144120
9821.000000;0.142974
9820.000000;0.141664
9819.000000;0.140219
9818.000000;0.138769
9817.000000;0.137333
9816.000000;0.135804
9815.000000;0.134125
9814.000000;0.132390
9813.000000;0.130750
9812.000000;0.129266
9811.000000;0.127888
9810.000000;0.126553
9809.000000;0.125252
9808.000000;0.123988
9807.000000;0.122699
9806.000000;0.121266
9805.000000;0.119652
9804.000000;0.118000
9803.000000;0.116540
9802.000000;0.115341
9801.000000;0.114223
9800.000000;0.112943
9799.000000;0.111426
9798.000000;0.109750
9797.000000;0.107983
9796.000000;0.106123
9795.000000;0.104199
9794.000000;0.102319
9793.000000;0.100605
9792.000000;0.099141
9791.000000;0.097957
9790.000000;0.096974
9789.000000;0.095944
9788.000000;0.094569
9787.000000;0.092762
9786.000000;0.090751
9785.000000;0.088870
9784.000000;0.087273
9783.000000;0.085873
9782.000000;0.084486
9781.000000;0.082991
9780.000000;0.081391
9779.000000;0.079786
9778.000000;0.078287
9777.000000;0.076893
9776.000000;0.075478
9775.000000;0.073935
9774.000000;0.072298
9773.000000;0.070664
9772.000000;0.069051
9771.000000;0.067413
9770.000000;0.065773
9769.000000;0.064220
9768.000000;0.062765
9767.000000;0.061277
9766.000000;0.059621
9765.000000;0.057791
9764.000000;0.055879
9763.000000;0.053982
9762.000000;0.052175
9761.000000;0.050521
9760.000000;0.049013
9759.000000;0.047546
9758.000000;0.046025
9757.000000;0.044491
9756.000000;0.043069
9755.000000;0.041784
9754.000000;0.040501
9753.000000;0.039062
9752.000000;0.037424
9751.000000;0.035633
9750.000000;0.033725
9749.000000;0.031711
9748.000000;0.029653
9747.000000;0.027702
9746.000000;0.025998
9745.000000;0.024525
9744.000000;0.023095
9743.000000;0.021524
9742.000000;0.019839
9741.000000;0.018239
9740.000000;0.016815
9739.000000;0.015377
9738.000000;0.013647
9737.000000;0.011613
9736.000000;0.009565
9735.000000;0.007765
9734.000000;0.006184
9733.000000;0.004610
9732.000000;0.002914
9731.000000;0.001127
9730.000000;-0.000696
9729.000000;-0.002557
9728.000000;-0.004454
9727.000000;-0.006326
9726.000000;-0.008089
9725.000000;-0.009707
9724.000000;-0.011203
9723.000000;-0.012662
9722.000000;-0.014203
9721.000000;-0.015925
9720.000000;-0.017833
9719.000000;-0.019837
9718.000000;-0.021819
9717.000000;-0.023705
9716.000000;-0.025489
9715.000000;-0.027229
9714.000000;-0.029010
9713.000000;-0.030881
9712.000000;-0.032805
9711.000000;-0.034700
9710.000000;-0.036515
9709.000000;-0.038251
9708.000000;-0.039917
9707.000000;-0.041523
9706.000000;-0.043117
9705.000000;-0.044802
9704.000000;-0.046655
9703.000000;-0.048660
9702.000000;-0.050731
9701.000000;-0.052803
9700.000000;-0.054863
9699.000000;-0.056900
9698.000000;-0.058866
9697.000000;-0.060699
9696.000000;-0.062397
9695.000000;-0.064046
9694.000000;-0.065769
9693.000000;-0.067610
9692.000000;-0.069488
9691.000000;-0.071285
9690.000000;-0.072978
9689.000000;-0.074666
9688.000000;-0.076439
9687.000000;-0.078275
9686.000000;-0.080106
9685.000000;-0.081949
9684.000000;-0.083901
9683.000000;-0.085999
9682.000000;-0.088151
9681.000000;-0.090246
9680.000000;-0.092267
9679.000000;-0.094247
9678.000000;-0.096163
9677.000000;-0.097977
9676.000000;-0.099759
9675.000000;-0.101661
9674.000000;-0.103706
9673.000000;-0.105713
9672.000000;-0.107502
9671.000000;-0.109123
9670.000000;-0.110812
9669.000000;-0.112734
9668.000000;-0.114858
9667.000000;-0.117054
9666.000000;-0.119238
9665.000000;-0.121399
9664.000000;-0.123544
9663.000000;-0.125669
9662.000000;-0.127744
9661.000000;-0.129736
9660.000000;-0.131678
9659.000000;-0.133684
9658.000000;-0.135823
9657.000000;-0.138004
9656.000000;-0.140057
9655.000000;-0.141947
9654.000000;-0.143807
9653.000000;-0.145741
9652.000000;-0.147711
9651.000000;-0.149664
9650.000000;-0.151657
9649.000000;-0.153746
9648.000000;-0.155847
9647.000000;-0.157841
9646.000000;-0.159775
9645.000000;-0.161806
9644.000000;-0.163953
9643.000000;-0.166061
9642.000000;-0.168036
9641.000000;-0.169990
9640.000000;-0.172078
9639.000000;-0.174289
9638.000000;-0.176487
9637.000000;-0.178594
9636.000000;-0.180650
9635.000000;-0.182730
9634.000000;-0.184874
9633.000000;-0.187102
9632.000000;-0.189406
9631.000000;-0.191715
9630.000000;-0.193920
9629.000000;-0.195967
9628.000000;-0.197930
9627.000000;-0.199963
9626.000000;-0.202171
9625.000000;-0.204517
9624.000000;-0.206841
9623.000000;-0.208981
9622.000000;-0.210906
9621.000000;-0.212735
9620.000000;-0.214629
9619.000000;-0.216668
9618.000000;-0.218833
9617.000000;-0.221063
9616.000000;-0.223300
9615.000000;-0.225499
9614.000000;-0.227650
9613.000000;-0.229803
9612.000000;-0.232034
9611.000000;-0.234368
9610.000000;-0.236754
9609.000000;-0.239121
9608.000000;-0.241428
9607.000000;-0.243658
9606.000000;-0.245780
9605.000000;-0.247802
9604.000000;-0.249821
9603.000000;-0.251974
9602.000000;-0.254300
9601.000000;-0.256688
9600.000000;-0.258988
9599.000000;-0.261167
9598.000000;-0.263314
9597.000000;-0.265504
9596.000000;-0.267709
9595.000000;-0.269862
9594.000000;-0.271951
9593.000000;-0.274025
9592.000000;-0.276128
9591.000000;-0.278267
9590.000000;-0.280432
9589.000000;-0.282609
9588.000000;-0.284759
9587.000000;-0.286843
9586.000000;-0.288882
9585.000000;-0.290981
9584.000000;-0.293253
9583.000000;-0.295721
9582.000000;-0.298305
9581.000000;-0.300883
9580.000000;-0.303338
9579.000000;-0.305591
9578.000000;-0.307658
9577.000000;-0.309692
9576.000000;-0.311896
9575.000000;-0.314336
9574.000000;-0.316865
9573.000000;-0.319289
9572.000000;-0.321564
9571.000000;-0.323804
9570.000000;-0.326108
9569.000000;-0.328456
9568.000000;-0.330781
9567.000000;-0.333037
9566.000000;-0.335185
9565.000000;-0.337198
9564.000000;-0.339133
9563.000000;-0.341160
9562.000000;-0.343414
9561.000000;-0.345847
9560.000000;-0.348272
9559.000000;-0.350538
9558.000000;-0.352636
9557.000000;-0.354667
9556.000000;-0.356741
9555.000000;-0.358910
9554.000000;-0.361128
9553.000000;-0.363294
9552.000000;-0.365374
9551.000000;-0.367467
9550.000000;-0.369685
9549.000000;-0.371996
9548.000000;-0.374245
9547.000000;-0.376351
9546.000000;-0.378382
9545.000000;-0.380424
9544.000000;-0.382450
9543.000000;-0.384418
9542.000000;-0.386409
9541.000000;-0.388583
9540.000000;-0.390979
9539.000000;-0.393436
9538.000000;-0.395750
9537.000000;-0.397866
9536.000000;-0.399892
9535.000000;-0.401946
9534.000000;-0.404036
9533.000000;-0.406099
9532.000000;-0.408103
9531.000000;-0.410094
9530.000000;-0.412146
9529.000000;-0.414281
9528.000000;-0.416451
9527.000000;-0.418574
9526.000000;-0.420567
9525.000000;-0.422401
9524.000000;-0.424141
9523.000000;-0.425937
9522.000000;-0.427899
9521.000000;-0.429981
9520.000000;-0.432006
9519.000000;-0.433858
9518.000000;-0.435598
9517.000000;-0.437387
9516.000000;-0.439280
9515.000000;-0.441147
9514.000000;-0.442826
9513.000000;-0.444316
9512.000000;-0.445794
9511.000000;-0.447437
9510.000000;-0.449279
9509.000000;-0.451241
9508.000000;-0.453226
9507.000000;-0.455136
9506.000000;-0.456847
9505.000000;-0.458323
9504.000000;-0.459725
9503.000000;-0.461305
9502.000000;-0.463122
9501.000000;-0.464967
9500.000000;-0.466647
9499.000000;-0.468217
9498.000000;-0.469838
9497.000000;-0.471479
9496.000000;-0.472941
9495.000000;-0.474161
9494.000000;-0.475329
9493.000000;-0.476637
9492.000000;-0.478041
9491.000000;-0.479372
9490.000000;-0.480593
9489.000000;-0.481824
9488.000000;-0.483136
9487.000000;-0.484436
9486.000000;-0.485591
9485.000000;-0.486611
9484.000000;-0.487641
9483.000000;-0.488801
9482.000000;-0.490068
9481.000000;-0.491303
9480.000000;-0.492377
9479.000000;-0.493267
9478.000000;-0.494061
9477.000000;-0.494899
9476.000000;-0.495889
9475.000000;-0.497034
9474.000000;-0.498211
9473.000000;-0.499253
9472.000000;-0.500101
9471.000000;-0.500860
9470.000000;-0.501691
9469.000000;-0.502676
9468.000000;-0.503769
9467.000000;-0.504860
9466.000000;-0.505825
9465.000000;-0.506562
9464.000000;-0.507047
9463.000000;-0.507380
9462.000000;-0.507721
9461.000000;-0.508153
9460.000000;-0.508627
9459.000000;-0.509043
9458.000000;-0.509388
9457.000000;-0.509751
9456.000000;-0.510228
9455.000000;-0.510801
9454.000000;-0.511324
9453.000000;-0.511631
9452.000000;-0.511698
9451.000000;-0.511689
9450.000000;-0.511827
9449.000000;-0.512208
9448.000000;-0.512705
9447.000000;-0.513063
9446.000000;-0.513083
9445.000000;-0.512782
9444.000000;-0.512397
9443.000000;-0.512204
9442.000000;-0.512291
9441.000000;-0.512505
9440.000000;-0.512619
9439.000000;-0.512533
9438.000000;-0.512311
9437.000000;-0.512062
9436.000000;-0.511846
9435.000000;-0.511659
9434.000000;-0.511452
9433.000000;-0.511169
9432.000000;-0.510814
9431.000000;-0.510473
9430.000000;-0.510236
9429.000000;-0.510086
9428.000000;-0.509912
9427.000000;-0.509632
9426.000000;-0.509258
9425.000000;-0.508833
9424.000000;-0.508357
9423.000000;-0.507809
9422.000000;-0.507203
9421.000000;-0.506579
9420.000000;-0.505936
9419.000000;-0.505212
9418.000000;-0.504370
9417.000000;-0.503495
9416.000000;-0.502772
9415.000000;-0.502313
9414.000000;-0.502019
9413.000000;-0.501666
9412.000000;-0.501116
9411.000000;-0.500418
9410.000000;-0.499677
9409.000000;-0.498906
9408.000000;-0.498068
9407.000000;-0.497195
9406.000000;-0.496378
9405.000000;-0.495641
9404.000000;-0.494904
9403.000000;-0.494081
9402.000000;-0.493166
9401.000000;-0.492187
9400.000000;-0.491170
9399.000000;-0.490153
9398.000000;-0.489185
9397.000000;-0.488274
9396.000000;-0.487369
9395.000000;-0.486427
9394.000000;-0.485480
9393.000000;-0.484575
9392.000000;-0.483681
9391.000000;-0.482688
9390.000000;-0.481539
9389.000000;-0.480316
9388.000000;-0.479194
9387.000000;-0.478257
9386.000000;-0.477407
9385.000000;-0.476438
9384.000000;-0.475238
9383.000000;-0.473872
9382.000000;-0.472478
9381.000000;-0.471143
9380.000000;-0.469915
9379.000000;-0.468862
9378.000000;-0.468003
9377.000000;-0.467188
9376.000000;-0.466183
9375.000000;-0.464898
9374.000000;-0.463483
9373.000000;-0.462134
9372.000000;-0.460880
9371.000000;-0.459632
9370.000000;-0.458370
9369.000000;-0.457172
9368.000000;-0.456067
9367.000000;-0.454965
9366.000000;-0.453760
9365.000000;-0.452466
9364.000000;-0.451182
9363.000000;-0.449967
9362.000000;-0.448792
9361.000000;-0.447607
9360.000000;-0.446406
9359.000000;-0.445200
9358.000000;-0.443982
9357.000000;-0.442744
9356.000000;-0.441527
9355.000000;-0.440380
9354.000000;-0.439272
9353.000000;-0.438099
9352.000000;-0.436813
9351.000000;-0.435504
9350.000000;-0.434299
9349.000000;-0.433200
9348.000000;-0.432078
9347.000000;-0.430814
9346.000000;-0.429392
9345.000000;-0.427873
9344.000000;-0.426337
9343.000000;-0.424863
9342.000000;-0.423503
9341.000000;-0.422229
9340.000000;-0.420968
9339.000000;-0.419695
9338.000000;-0.418459
9337.000000;-0.417296
9336.000000;-0.416167
9335.000000;-0.415001
9334.000000;-0.413761
9333.000000;-0.412445
9332.000000;-0.411088
9331.000000;-0.409788
9330.000000;-0.408668
9329.000000;-0.407723
9328.000000;-0.406778
9327.000000;-0.405638
9326.000000;-0.404290
9325.000000;-0.402881
9324.000000;-0.401552
9323.000000;-0.400330
9322.000000;-0.399186
9321.000000;-0.398098
9320.000000;-0.397035
9319.000000;-0.395947
9318.000000;-0.394780
9317.000000;-0.393515
9316.000000;-0.392178
9315.000000;-0.390839
9314.000000;-0.389569
9313.000000;-0.388374
9312.000000;-0.387188
9311.000000;-0.385956
9310.000000;-0.384696
9309.000000;-0.383448
9308.000000;-0.382204
9307.000000;-0.380930
9306.000000;-0.379630
9305.000000;-0.378321
9304.000000;-0.376985
9303.000000;-0.375625
9302.000000;-0.374344
9301.000000;-0.373269
9300.000000;-0.372390
9299.000000;-0.371534
9298.000000;-0.370530
9297.000000;-0.369325
9296.000000;-0.367967
9295.000000;-0.366540
9294.000000;-0.365161
9293.000000;-0.363943
9292.000000;-0.362901
9291.000000;-0.361929
9290.000000;-0.360902
9289.000000;-0.359765
9288.000000;-0.358518
9287.000000;-0.357198
9286.000000;-0.355898
9285.000000;-0.354737
9284.000000;-0.353725
9283.000000;-0.352721
9282.000000;-0.351596
9281.000000;-0.350398
9280.000000;-0.349266
9279.000000;-0.348243
9278.000000;-0.347231
9277.000000;-0.346151
9276.000000;-0.345026
9275.000000;-0.343903
9274.000000;-0.342774
9273.000000;-0.341611
9272.000000;-0.340429
9271.000000;-0.339278
9270.000000;-0.338193
9269.000000;-0.337176
9268.000000;-0.336196
9267.000000;-0.335206
9266.000000;-0.334162
9265.000000;-0.333076
9264.000000;-0.332004
9263.000000;-0.330981
9262.000000;-0.329977
9261.000000;-0.328947
9260.000000;-0.327901
9259.000000;-0.326906
9258.000000;-0.326024
9257.000000;-0.325241
9256.000000;-0.324465
9255.000000;-0.323585
9254.000000;-0.322567
9253.000000;-0.321484
9252.000000;-0.320439
9251.000000;-0.319461
9250.000000;-0.318498
9249.000000;-0.317519
9248.000000;-0.316561
9247.000000;-0.315659
9246.000000;-0.314765
9245.000000;-0.313792
9244.000000;-0.312727
9243.000000;-0.311654
9242.000000;-0.310658
9241.000000;-0.309734
9240.000000;-0.308812
9239.000000;-0.307840
9238.000000;-0.306825
9237.000000;-0.305813
9236.000000;-0.304841
9235.000000;-0.303921
9234.000000;-0.303049
9233.000000;-0.302226
9232.000000;-0.301440
9231.000000;-0.300641
9230.000000;-0.299764
9229.000000;-0.298796
9228.000000;-0.297809
9227.000000;-0.296895
9226.000000;-0.296068
9225.000000;-0.295254
9224.000000;-0.294373
9223.000000;-0.293409
9222.000000;-0.292409
9221.000000;-0.291432
9220.000000;-0.290529
9219.000000;-0.289716
9218.000000;-0.288967
9217.000000;-0.288237
9216.000000;-0.287507
9215.000000;-0.286783
9214.000000;-0.286047
9213.000000;-0.285251
9212.000000;-0.284381
9211.000000;-0.283495
9210.000000;-0.282657
9209.000000;-0.281863
9208.000000;-0.281075
9207.000000;-0.280285
9206.000000;-0.279514
9205.000000;-0.278756
9204.000000;-0.277982
9203.000000;-0.277178
9202.000000;-0.276354
9201.000000;-0.275503
9200.000000;-0.274619
9199.000000;-0.273745
9198.000000;-0.272947
9197.000000;-0.272226
9196.000000;-0.271499
9195.000000;-0.270692
9194.000000;-0.269824
9193.000000;-0.268976
9192.000000;-0.268214
9191.000000;-0.267546
9190.000000;-0.266928
9189.000000;-0.266278
9188.000000;-0.265542
9187.000000;-0.264741
9186.000000;-0.263931
9185.000000;-0.263105
9184.000000;-0.262203
9183.000000;-0.261250
9182.000000;-0.260397
9181.000000;-0.259754
9180.000000;-0.259249
9179.000000;-0.258724
9178.000000;-0.258132
9177.000000;-0.257542
9176.000000;-0.256974
9175.000000;-0.256334
9174.000000;-0.255556
9173.000000;-0.254705
9172.000000;-0.253897
9171.000000;-0.253176
9170.000000;-0.252512
9169.000000;-0.251870
9168.000000;-0.251224
9167.000000;-0.250545
9166.000000;-0.249838
9165.000000;-0.249154
9164.000000;-0.248538
9163.000000;-0.247963
9162.000000;-0.247375
9161.000000;-0.246767
9160.000000;-0.246163
9159.000000;-0.245550
9158.000000;-0.244894
9157.000000;-0.244214
9156.000000;-0.243589
9155.000000;-0.243049
9154.000000;-0.242525
9153.000000;-0.241928
9152.000000;-0.241249
9151.000000;-0.240532
9150.000000;-0.239806
9149.000000;-0.239081
9148.000000;-0.238399
9147.000000;-0.237814
9146.000000;-0.237324
9145.000000;-0.236854
9144.000000;-0.236340
9143.000000;-0.235775
9142.000000;-0.235182
9141.000000;-0.234561
9140.000000;-0.233907
9139.000000;-0.233247
9138.000000;-0.232619
9137.000000;-0.232030
9136.000000;-0.231460
9135.000000;-0.230910
9134.000000;-0.230409
9133.000000;-0.229968
9132.000000;-0.229540
9131.000000;-0.229057
9130.000000;-0.228489
9129.000000;-0.227861
9128.000000;-0.227209
9127.000000;-0.226541
9126.000000;-0.225850
9125.000000;-0.225167
9124.000000;-0.224568
9123.000000;-0.224101
9122.000000;-0.223718
9121.000000;-0.223319
9120.000000;-0.222860
9119.000000;-0.222403
9118.000000;-0.222023
9117.000000;-0.221715
9116.000000;-0.221412
9115.000000;-0.221054
9114.000000;-0.220606
9113.000000;-0.220050
9112.000000;-0.219418
9111.000000;-0.218803
9110.000000;-0.218281
9109.000000;-0.217822
9108.000000;-0.217340
9107.000000;-0.216815
9106.000000;-0.216309
9105.000000;-0.215855
9104.000000;-0.215401
9103.000000;-0.214898
9102.000000;-0.214359
9101.000000;-0.213826
9100.000000;-0.213318
9099.000000;-0.212855
9098.000000;-0.212461
9097.000000;-0.212112
9096.000000;-0.211733
9095.000000;-0.211294
9094.000000;-0.210852
9093.000000;-0.210436
9092.000000;-0.209969
9091.000000;-0.209359
9090.000000;-0.208658
9089.000000;-0.208047
9088.000000;-0.207656
9087.000000;-0.207461
9086.000000;-0.207334
9085.000000;-0.207126
9084.000000;-0.206738
