Criado como novo conjunto de dados;"0307_DANIEL.spp","55085.1 Secs"
cm-1;Abs
10000.000000;0.453354
9999.000000;0.452302
9998.000000;0.451252
9997.000000;0.450204
9996.000000;0.449159
9995.000000;0.448116
9994.000000;0.447077
9993.000000;0.446038
9992.000000;0.445007
9991.000000;0.443966
9990.000000;0.442953
9989.000000;0.441822
9988.000000;0.440456
9987.000000;0.438982
9986.000000;0.437542
9985.000000;0.436206
9984.000000;0.434942
9983.000000;0.433735
9982.000000;0.432605
9981.000000;0.431558
9980.000000;0.430568
9979.000000;0.429616
9978.000000;0.428700
9977.000000;0.427777
9976.000000;0.426764
9975.000000;0.425607
9974.000000;0.424361
9973.000000;0.423153
9972.000000;0.422063
9971.000000;0.421040
9970.000000;0.419963
9969.000000;0.418775
9968.000000;0.417528
9967.000000;0.416303
9966.000000;0.415122
9965.000000;0.413954
9964.000000;0.412770
9963.000000;0.411549
9962.000000;0.410273
9961.000000;0.408983
9960.000000;0.407785
9959.000000;0.406739
9958.000000;0.405776
9957.000000;0.404766
9956.000000;0.403663
9955.000000;0.402517
9954.000000;0.401366
9953.000000;0.400198
9952.000000;0.399032
9951.000000;0.397927
9950.000000;0.396902
9949.000000;0.395907
9948.000000;0.394877
9947.000000;0.393772
9946.000000;0.392577
9945.000000;0.391315
9944.000000;0.390062
9943.000000;0.388870
9942.000000;0.387681
9941.000000;0.386385
9940.000000;0.384969
9939.000000;0.383531
9938.000000;0.382163
9937.000000;0.380888
9936.000000;0.379716
9935.000000;0.378654
9934.000000;0.377635
9933.000000;0.376544
9932.000000;0.375355
9931.000000;0.374155
9930.000000;0.372992
9929.000000;0.371810
9928.000000;0.370568
9927.000000;0.369310
9926.000000;0.368079
9925.000000;0.366843
9924.000000;0.365588
9923.000000;0.364366
9922.000000;0.363194
9921.000000;0.361984
9920.000000;0.360687
9919.000000;0.359390
9918.000000;0.358176
9917.000000;0.356968
9916.000000;0.355643
9915.000000;0.354237
9914.000000;0.352887
9913.000000;0.351612
9912.000000;0.350286
9911.000000;0.348838
9910.000000;0.347347
9909.000000;0.345923
9908.000000;0.344609
9907.000000;0.343416
9906.000000;0.342353
9905.000000;0.341362
9904.000000;0.340332
9903.000000;0.339214
9902.000000;0.338065
9901.000000;0.336934
9900.000000;0.335764
9899.000000;0.334473
9898.000000;0.333085
9897.000000;0.331720
9896.000000;0.330464
9895.000000;0.329283
9894.000000;0.328087
9893.000000;0.326824
9892.000000;0.325510
9891.000000;0.324184
9890.000000;0.322854
9889.000000;0.321502
9888.000000;0.320116
9887.000000;0.318721
9886.000000;0.317334
9885.000000;0.315926
9884.000000;0.314456
9883.000000;0.312946
9882.000000;0.311491
9881.000000;0.310179
9880.000000;0.309013
9879.000000;0.307909
9878.000000;0.306767
9877.000000;0.305540
9876.000000;0.304250
9875.000000;0.302963
9874.000000;0.301757
9873.000000;0.300667
9872.000000;0.299622
9871.000000;0.298457
9870.000000;0.297035
9869.000000;0.295381
9868.000000;0.293673
9867.000000;0.292074
9866.000000;0.290608
9865.000000;0.289217
9864.000000;0.287867
9863.000000;0.286557
9862.000000;0.285240
9861.000000;0.283839
9860.000000;0.282337
9859.000000;0.280811
9858.000000;0.279366
9857.000000;0.278067
9856.000000;0.276906
9855.000000;0.275806
9854.000000;0.274645
9853.000000;0.273351
9852.000000;0.271957
9851.000000;0.270531
9850.000000;0.269072
9849.000000;0.267525
9848.000000;0.265898
9847.000000;0.264275
9846.000000;0.262723
9845.000000;0.261229
9844.000000;0.259758
9843.000000;0.258309
9842.000000;0.256906
9841.000000;0.255595
9840.000000;0.254439
9839.000000;0.253428
9838.000000;0.252386
9837.000000;0.251083
9836.000000;0.249476
9835.000000;0.247761
9834.000000;0.246143
9833.000000;0.244638
9832.000000;0.243153
9831.000000;0.241657
9830.000000;0.240188
9829.000000;0.238758
9828.000000;0.237345
9827.000000;0.235961
9826.000000;0.234646
9825.000000;0.233392
9824.000000;0.232123
9823.000000;0.230753
9822.000000;0.229245
9821.000000;0.227632
9820.000000;0.226003
9819.000000;0.224440
9818.000000;0.222949
9817.000000;0.221478
9816.000000;0.220008
9815.000000;0.218585
9814.000000;0.217236
9813.000000;0.215913
9812.000000;0.214549
9811.000000;0.213116
9810.000000;0.211617
9809.000000;0.210065
9808.000000;0.208492
9807.000000;0.206931
9806.000000;0.205358
9805.000000;0.203734
9804.000000;0.202121
9803.000000;0.200666
9802.000000;0.199390
9801.000000;0.198092
9800.000000;0.196563
9799.000000;0.194839
9798.000000;0.193140
9797.000000;0.191591
9796.000000;0.190120
9795.000000;0.188601
9794.000000;0.186999
9793.000000;0.185361
9792.000000;0.183754
9791.000000;0.182231
9790.000000;0.180776
9789.000000;0.179284
9788.000000;0.177672
9787.000000;0.176010
9786.000000;0.174468
9785.000000;0.173101
9784.000000;0.171767
9783.000000;0.170275
9782.000000;0.168576
9781.000000;0.166770
9780.000000;0.164981
9779.000000;0.163260
9778.000000;0.161596
9777.000000;0.159960
9776.000000;0.158356
9775.000000;0.156809
9774.000000;0.155316
9773.000000;0.153816
9772.000000;0.152258
9771.000000;0.150676
9770.000000;0.149154
9769.000000;0.147691
9768.000000;0.146170
9767.000000;0.144500
9766.000000;0.142736
9765.000000;0.141028
9764.000000;0.139449
9763.000000;0.137928
9762.000000;0.136347
9761.000000;0.134655
9760.000000;0.132880
9759.000000;0.131074
9758.000000;0.129290
9757.000000;0.127586
9756.000000;0.126009
9755.000000;0.124527
9754.000000;0.123028
9753.000000;0.121426
9752.000000;0.119762
9751.000000;0.118150
9750.000000;0.116611
9749.000000;0.115013
9748.000000;0.113206
9747.000000;0.111181
9746.000000;0.109072
9745.000000;0.107041
9744.000000;0.105188
9743.000000;0.103538
9742.000000;0.102028
9741.000000;0.100531
9740.000000;0.098938
9739.000000;0.097240
9738.000000;0.095513
9737.000000;0.093818
9736.000000;0.092157
9735.000000;0.090512
9734.000000;0.088883
9733.000000;0.087260
9732.000000;0.085595
9731.000000;0.083833
9730.000000;0.081966
9729.000000;0.080050
9728.000000;0.078162
9727.000000;0.076351
9726.000000;0.074614
9725.000000;0.072921
9724.000000;0.071235
9723.000000;0.069519
9722.000000;0.067735
9721.000000;0.065886
9720.000000;0.064035
9719.000000;0.062245
9718.000000;0.060481
9717.000000;0.058640
9716.000000;0.056704
9715.000000;0.054811
9714.000000;0.053104
9713.000000;0.051540
9712.000000;0.049918
9711.000000;0.048103
9710.000000;0.046150
9709.000000;0.044220
9708.000000;0.042410
9707.000000;0.040691
9706.000000;0.038961
9705.000000;0.037143
9704.000000;0.035239
9703.000000;0.033336
9702.000000;0.031498
9701.000000;0.029671
9700.000000;0.027724
9699.000000;0.025610
9698.000000;0.023438
9697.000000;0.021350
9696.000000;0.019383
9695.000000;0.017487
9694.000000;0.015642
9693.000000;0.013871
9692.000000;0.012172
9691.000000;0.010492
9690.000000;0.008778
9689.000000;0.007009
9688.000000;0.005168
9687.000000;0.003248
9686.000000;0.001293
9685.000000;-0.000638
9684.000000;-0.002548
9683.000000;-0.004500
9682.000000;-0.006518
9681.000000;-0.008544
9680.000000;-0.010531
9679.000000;-0.012496
9678.000000;-0.014441
9677.000000;-0.016308
9676.000000;-0.018096
9675.000000;-0.019949
9674.000000;-0.022014
9673.000000;-0.024242
9672.000000;-0.026437
9671.000000;-0.028476
9670.000000;-0.030408
9669.000000;-0.032326
9668.000000;-0.034268
9667.000000;-0.036248
9666.000000;-0.038263
9665.000000;-0.040252
9664.000000;-0.042139
9663.000000;-0.043971
9662.000000;-0.045895
9661.000000;-0.047970
9660.000000;-0.050083
9659.000000;-0.052126
9658.000000;-0.054155
9657.000000;-0.056284
9656.000000;-0.058501
9655.000000;-0.060702
9654.000000;-0.062835
9653.000000;-0.064930
9652.000000;-0.067005
9651.000000;-0.069048
9650.000000;-0.071074
9649.000000;-0.073109
9648.000000;-0.075146
9647.000000;-0.077166
9646.000000;-0.079187
9645.000000;-0.081215
9644.000000;-0.083210
9643.000000;-0.085172
9642.000000;-0.087214
9641.000000;-0.089432
9640.000000;-0.091733
9639.000000;-0.093926
9638.000000;-0.095986
9637.000000;-0.098079
9636.000000;-0.100301
9635.000000;-0.102539
9634.000000;-0.104643
9633.000000;-0.106655
9632.000000;-0.108742
9631.000000;-0.110985
9630.000000;-0.113293
9629.000000;-0.115527
9628.000000;-0.117642
9627.000000;-0.119700
9626.000000;-0.121799
9625.000000;-0.123976
9624.000000;-0.126184
9623.000000;-0.128357
9622.000000;-0.130487
9621.000000;-0.132615
9620.000000;-0.134760
9619.000000;-0.136903
9618.000000;-0.139038
9617.000000;-0.141174
9616.000000;-0.143303
9615.000000;-0.145407
9614.000000;-0.147507
9613.000000;-0.149659
9612.000000;-0.151884
9611.000000;-0.154160
9610.000000;-0.156485
9609.000000;-0.158889
9608.000000;-0.161348
9607.000000;-0.163755
9606.000000;-0.166000
9605.000000;-0.168075
9604.000000;-0.170055
9603.000000;-0.172048
9602.000000;-0.174155
9601.000000;-0.176434
9600.000000;-0.178834
9599.000000;-0.181201
9598.000000;-0.183413
9597.000000;-0.185503
9596.000000;-0.187607
9595.000000;-0.189811
9594.000000;-0.192072
9593.000000;-0.194290
9592.000000;-0.196428
9591.000000;-0.198548
9590.000000;-0.200728
9589.000000;-0.202993
9588.000000;-0.205324
9587.000000;-0.207723
9586.000000;-0.210216
9585.000000;-0.212754
9584.000000;-0.215187
9583.000000;-0.217403
9582.000000;-0.219487
9581.000000;-0.221652
9580.000000;-0.223986
9579.000000;-0.226351
9578.000000;-0.228577
9577.000000;-0.230705
9576.000000;-0.232946
9575.000000;-0.235408
9574.000000;-0.237945
9573.000000;-0.240314
9572.000000;-0.242443
9571.000000;-0.244497
9570.000000;-0.246688
9569.000000;-0.249066
9568.000000;-0.251509
9567.000000;-0.253865
9566.000000;-0.256052
9565.000000;-0.258063
9564.000000;-0.259954
9563.000000;-0.261859
9562.000000;-0.263934
9561.000000;-0.266225
9560.000000;-0.268611
9559.000000;-0.270933
9558.000000;-0.273138
9557.000000;-0.275290
9556.000000;-0.277475
9555.000000;-0.279740
9554.000000;-0.282099
9553.000000;-0.284539
9552.000000;-0.287016
9551.000000;-0.289483
9550.000000;-0.291898
9549.000000;-0.294190
9548.000000;-0.296281
9547.000000;-0.298200
9546.000000;-0.300104
9545.000000;-0.302116
9544.000000;-0.304170
9543.000000;-0.306105
9542.000000;-0.307909
9541.000000;-0.309754
9540.000000;-0.311802
9539.000000;-0.314061
9538.000000;-0.316447
9537.000000;-0.318904
9536.000000;-0.321392
9535.000000;-0.323841
9534.000000;-0.326161
9533.000000;-0.328313
9532.000000;-0.330319
9531.000000;-0.332243
9530.000000;-0.334146
9529.000000;-0.336060
9528.000000;-0.337980
9527.000000;-0.339893
9526.000000;-0.341795
9525.000000;-0.343687
9524.000000;-0.345581
9523.000000;-0.347545
9522.000000;-0.349662
9521.000000;-0.351878
9520.000000;-0.353975
9519.000000;-0.355793
9518.000000;-0.357432
9517.000000;-0.359124
9516.000000;-0.360905
9515.000000;-0.362588
9514.000000;-0.364076
9513.000000;-0.365549
9512.000000;-0.367251
9511.000000;-0.369209
9510.000000;-0.371252
9509.000000;-0.373235
9508.000000;-0.375105
9507.000000;-0.376837
9506.000000;-0.378440
9505.000000;-0.380029
9504.000000;-0.381777
9503.000000;-0.383717
9502.000000;-0.385669
9501.000000;-0.387409
9500.000000;-0.388903
9499.000000;-0.390350
9498.000000;-0.391975
9497.000000;-0.393791
9496.000000;-0.395581
9495.000000;-0.397122
9494.000000;-0.398419
9493.000000;-0.399669
9492.000000;-0.401031
9491.000000;-0.402467
9490.000000;-0.403837
9489.000000;-0.405064
9488.000000;-0.406183
9487.000000;-0.407276
9486.000000;-0.408413
9485.000000;-0.409623
9484.000000;-0.410880
9483.000000;-0.412127
9482.000000;-0.413333
9481.000000;-0.414488
9480.000000;-0.415539
9479.000000;-0.416393
9478.000000;-0.417046
9477.000000;-0.417662
9476.000000;-0.418462
9475.000000;-0.419523
9474.000000;-0.420734
9473.000000;-0.421909
9472.000000;-0.422912
9471.000000;-0.423708
9470.000000;-0.424371
9469.000000;-0.425055
9468.000000;-0.425892
9467.000000;-0.426891
9466.000000;-0.427921
9465.000000;-0.428823
9464.000000;-0.429514
9463.000000;-0.430019
9462.000000;-0.430431
9461.000000;-0.430851
9460.000000;-0.431321
9459.000000;-0.431814
9458.000000;-0.432281
9457.000000;-0.432723
9456.000000;-0.433182
9455.000000;-0.433681
9454.000000;-0.434164
9453.000000;-0.434527
9452.000000;-0.434717
9451.000000;-0.434811
9450.000000;-0.434983
9449.000000;-0.435352
9448.000000;-0.435828
9447.000000;-0.436153
9446.000000;-0.436125
9445.000000;-0.435785
9444.000000;-0.435375
9443.000000;-0.435128
9442.000000;-0.435120
9441.000000;-0.435294
9440.000000;-0.435544
9439.000000;-0.435768
9438.000000;-0.435885
9437.000000;-0.435846
9436.000000;-0.435651
9435.000000;-0.435334
9434.000000;-0.434931
9433.000000;-0.434482
9432.000000;-0.434046
9431.000000;-0.433695
9430.000000;-0.433477
9429.000000;-0.433355
9428.000000;-0.433224
9427.000000;-0.432987
9426.000000;-0.432636
9425.000000;-0.432220
9424.000000;-0.431746
9423.000000;-0.431161
9422.000000;-0.430443
9421.000000;-0.429671
9420.000000;-0.428979
9419.000000;-0.428419
9418.000000;-0.427931
9417.000000;-0.427436
9416.000000;-0.426932
9415.000000;-0.426469
9414.000000;-0.426048
9413.000000;-0.425589
9412.000000;-0.425016
9411.000000;-0.424333
9410.000000;-0.423595
9409.000000;-0.422822
9408.000000;-0.422008
9407.000000;-0.421188
9406.000000;-0.420414
9405.000000;-0.419640
9404.000000;-0.418729
9403.000000;-0.417635
9402.000000;-0.416502
9401.000000;-0.415487
9400.000000;-0.414560
9399.000000;-0.413599
9398.000000;-0.412628
9397.000000;-0.411785
9396.000000;-0.411065
9395.000000;-0.410259
9394.000000;-0.409233
9393.000000;-0.408113
9392.000000;-0.407102
9391.000000;-0.406221
9390.000000;-0.405350
9389.000000;-0.404442
9388.000000;-0.403541
9387.000000;-0.402630
9386.000000;-0.401571
9385.000000;-0.400256
9384.000000;-0.398743
9383.000000;-0.397231
9382.000000;-0.395921
9381.000000;-0.394876
9380.000000;-0.393977
9379.000000;-0.393040
9378.000000;-0.392006
9377.000000;-0.390978
9376.000000;-0.390023
9375.000000;-0.389034
9374.000000;-0.387861
9373.000000;-0.386520
9372.000000;-0.385159
9371.000000;-0.383863
9370.000000;-0.382610
9369.000000;-0.381404
9368.000000;-0.380304
9367.000000;-0.379294
9366.000000;-0.378237
9365.000000;-0.377029
9364.000000;-0.375706
9363.000000;-0.374366
9362.000000;-0.373060
9361.000000;-0.371807
9360.000000;-0.370646
9359.000000;-0.369582
9358.000000;-0.368523
9357.000000;-0.367348
9356.000000;-0.366020
9355.000000;-0.364598
9354.000000;-0.363155
9353.000000;-0.361733
9352.000000;-0.360364
9351.000000;-0.359086
9350.000000;-0.357928
9349.000000;-0.356900
9348.000000;-0.355982
9347.000000;-0.355098
9346.000000;-0.354112
9345.000000;-0.352897
9344.000000;-0.351432
9343.000000;-0.349852
9342.000000;-0.348368
9341.000000;-0.347114
9340.000000;-0.346035
9339.000000;-0.344929
9338.000000;-0.343645
9337.000000;-0.342250
9336.000000;-0.340957
9335.000000;-0.339873
9334.000000;-0.338862
9333.000000;-0.337680
9332.000000;-0.336237
9331.000000;-0.334680
9330.000000;-0.333242
9329.000000;-0.332042
9328.000000;-0.331023
9327.000000;-0.330025
9326.000000;-0.328907
9325.000000;-0.327643
9324.000000;-0.326335
9323.000000;-0.325120
9322.000000;-0.324043
9321.000000;-0.323013
9320.000000;-0.321903
9319.000000;-0.320667
9318.000000;-0.319349
9317.000000;-0.317993
9316.000000;-0.316607
9315.000000;-0.315224
9314.000000;-0.313936
9313.000000;-0.312825
9312.000000;-0.311876
9311.000000;-0.310985
9310.000000;-0.310025
9309.000000;-0.308895
9308.000000;-0.307553
9307.000000;-0.306067
9306.000000;-0.304604
9305.000000;-0.303280
9304.000000;-0.302039
9303.000000;-0.300756
9302.000000;-0.299441
9301.000000;-0.298248
9300.000000;-0.297270
9299.000000;-0.296398
9298.000000;-0.295453
9297.000000;-0.294355
9296.000000;-0.293118
9295.000000;-0.291776
9294.000000;-0.290381
9293.000000;-0.289040
9292.000000;-0.287834
9291.000000;-0.286729
9290.000000;-0.285621
9289.000000;-0.284459
9288.000000;-0.283267
9287.000000;-0.282076
9286.000000;-0.280928
9285.000000;-0.279908
9284.000000;-0.279054
9283.000000;-0.278240
9282.000000;-0.277253
9281.000000;-0.276033
9280.000000;-0.274753
9279.000000;-0.273610
9278.000000;-0.272606
9277.000000;-0.271596
9276.000000;-0.270494
9275.000000;-0.269348
9274.000000;-0.268232
9273.000000;-0.267162
9272.000000;-0.266120
9271.000000;-0.265098
9270.000000;-0.264089
9269.000000;-0.263066
9268.000000;-0.262025
9267.000000;-0.261019
9266.000000;-0.260105
9265.000000;-0.259274
9264.000000;-0.258441
9263.000000;-0.257509
9262.000000;-0.256433
9261.000000;-0.255230
9260.000000;-0.253962
9259.000000;-0.252734
9258.000000;-0.251654
9257.000000;-0.250734
9256.000000;-0.249855
9255.000000;-0.248883
9254.000000;-0.247820
9253.000000;-0.246798
9252.000000;-0.245905
9251.000000;-0.245089
9250.000000;-0.244245
9249.000000;-0.243332
9248.000000;-0.242365
9247.000000;-0.241340
9246.000000;-0.240259
9245.000000;-0.239182
9244.000000;-0.238188
9243.000000;-0.237267
9242.000000;-0.236331
9241.000000;-0.235327
9240.000000;-0.234292
9239.000000;-0.233290
9238.000000;-0.232338
9237.000000;-0.231421
9236.000000;-0.230523
9235.000000;-0.229638
9234.000000;-0.228769
9233.000000;-0.227927
9232.000000;-0.227099
9231.000000;-0.226229
9230.000000;-0.225274
9229.000000;-0.224272
9228.000000;-0.223307
9227.000000;-0.222409
9226.000000;-0.221543
9225.000000;-0.220713
9224.000000;-0.219981
9223.000000;-0.219326
9222.000000;-0.218593
9221.000000;-0.217664
9220.000000;-0.216638
9219.000000;-0.215714
9218.000000;-0.214927
9217.000000;-0.214107
9216.000000;-0.213139
9215.000000;-0.212129
9214.000000;-0.211265
9213.000000;-0.210585
9212.000000;-0.209966
9211.000000;-0.209291
9210.000000;-0.208544
9209.000000;-0.207758
9208.000000;-0.206967
9207.000000;-0.206196
9206.000000;-0.205451
9205.000000;-0.204682
9204.000000;-0.203822
9203.000000;-0.202875
9202.000000;-0.201926
9201.000000;-0.201059
9200.000000;-0.200284
9199.000000;-0.199565
9198.000000;-0.198879
9197.000000;-0.198217
9196.000000;-0.197558
9195.000000;-0.196866
9194.000000;-0.196119
9193.000000;-0.195313
9192.000000;-0.194463
9191.000000;-0.193605
9190.000000;-0.192787
9189.000000;-0.192037
9188.000000;-0.191351
9187.000000;-0.190699
9186.000000;-0.190030
9185.000000;-0.189293
9184.000000;-0.188486
9183.000000;-0.187689
9182.000000;-0.186984
9181.000000;-0.186325
9180.000000;-0.185567
9179.000000;-0.184658
9178.000000;-0.183745
9177.000000;-0.183018
9176.000000;-0.182483
9175.000000;-0.181974
9174.000000;-0.181351
9173.000000;-0.180621
9172.000000;-0.179865
9171.000000;-0.179136
9170.000000;-0.178454
9169.000000;-0.177829
9168.000000;-0.177245
9167.000000;-0.176660
9166.000000;-0.176041
9165.000000;-0.175392
9164.000000;-0.174730
9163.000000;-0.174062
9162.000000;-0.173411
9161.000000;-0.172818
9160.000000;-0.172296
9159.000000;-0.171810
9158.000000;-0.171308
9157.000000;-0.170771
9156.000000;-0.170216
9155.000000;-0.169653
9154.000000;-0.169065
9153.000000;-0.168421
9152.000000;-0.167705
9151.000000;-0.166940
9150.000000;-0.166189
9149.000000;-0.165522
9148.000000;-0.164974
9147.000000;-0.164526
9146.000000;-0.164115
9145.000000;-0.163660
9144.000000;-0.163103
9143.000000;-0.162443
9142.000000;-0.161729
9141.000000;-0.160999
9140.000000;-0.160278
9139.000000;-0.159603
9138.000000;-0.159028
9137.000000;-0.158546
9136.000000;-0.158067
9135.000000;-0.157503
9134.000000;-0.156866
9133.000000;-0.156241
9132.000000;-0.155687
9131.000000;-0.155195
9130.000000;-0.154715
9129.000000;-0.154176
9128.000000;-0.153524
9127.000000;-0.152794
9126.000000;-0.152130
9125.000000;-0.151649
9124.000000;-0.151306
9123.000000;-0.150933
9122.000000;-0.150423
9121.000000;-0.149817
9120.000000;-0.149221
9119.000000;-0.148700
9118.000000;-0.148271
9117.000000;-0.147906
9116.000000;-0.147547
9115.000000;-0.147153
9114.000000;-0.146758
9113.000000;-0.146418
9112.000000;-0.146093
9111.000000;-0.145671
9110.000000;-0.145104
9109.000000;-0.144485
9108.000000;-0.143922
9107.000000;-0.143424
9106.000000;-0.142920
9105.000000;-0.142368
9104.000000;-0.141780
9103.000000;-0.141193
9102.000000;-0.140655
9101.000000;-0.140223
9100.000000;-0.139913
9099.000000;-0.139656
9098.000000;-0.139343
9097.000000;-0.138899
9096.000000;-0.138335
9095.000000;-0.137720
9094.000000;-0.137138
9093.000000;-0.136636
9092.000000;-0.136208
9091.000000;-0.135825
9090.000000;-0.135459
9089.000000;-0.135072
9088.000000;-0.134622
9087.000000;-0.134120
9086.000000;-0.133659
9085.000000;-0.133324
9084.000000;-0.133085
9083.000000;-0.132846
9082.000000;-0.132582
