Criado como novo conjunto de dados;"0307_DANIEL.spp","46084.7 Secs"
cm-1;Abs
10000.000000;1.132192
9999.000000;1.131750
9998.000000;1.130852
9997.000000;1.129244
9996.000000;1.127393
9995.000000;1.125919
9994.000000;1.124986
9993.000000;1.124317
9992.000000;1.123624
9991.000000;1.122794
9990.000000;1.121773
9989.000000;1.120524
9988.000000;1.119150
9987.000000;1.117913
9986.000000;1.117022
9985.000000;1.116402
9984.000000;1.115707
9983.000000;1.114544
9982.000000;1.112783
9981.000000;1.110713
9980.000000;1.108865
9979.000000;1.107597
9978.000000;1.106791
9977.000000;1.105965
9976.000000;1.104731
9975.000000;1.103147
9974.000000;1.101630
9973.000000;1.100512
9972.000000;1.099730
9971.000000;1.098958
9970.000000;1.098002
9969.000000;1.096970
9968.000000;1.096054
9967.000000;1.095253
9966.000000;1.094396
9965.000000;1.093352
9964.000000;1.092111
9963.000000;1.090755
9962.000000;1.089425
9961.000000;1.088211
9960.000000;1.086997
9959.000000;1.085511
9958.000000;1.083677
9957.000000;1.081795
9956.000000;1.080178
9955.000000;1.078750
9954.000000;1.077210
9953.000000;1.075503
9952.000000;1.073881
9951.000000;1.072570
9950.000000;1.071640
9949.000000;1.071157
9948.000000;1.071073
9947.000000;1.070932
9946.000000;1.070092
9945.000000;1.068387
9944.000000;1.066318
9943.000000;1.064425
9942.000000;1.062756
9941.000000;1.061109
9940.000000;1.059468
9939.000000;1.057988
9938.000000;1.056762
9937.000000;1.055816
9936.000000;1.055119
9935.000000;1.054411
9934.000000;1.053269
9933.000000;1.051642
9932.000000;1.050078
9931.000000;1.049111
9930.000000;1.048588
9929.000000;1.047900
9928.000000;1.046709
9927.000000;1.045089
9926.000000;1.043136
9925.000000;1.040918
9924.000000;1.038811
9923.000000;1.037370
9922.000000;1.036678
9921.000000;1.036179
9920.000000;1.035319
9919.000000;1.034118
9918.000000;1.032930
9917.000000;1.031897
9916.000000;1.030883
9915.000000;1.029768
9914.000000;1.028550
9913.000000;1.027209
9912.000000;1.025695
9911.000000;1.024074
9910.000000;1.022498
9909.000000;1.020992
9908.000000;1.019385
9907.000000;1.017541
9906.000000;1.015642
9905.000000;1.014126
9904.000000;1.013308
9903.000000;1.013081
9902.000000;1.013025
9901.000000;1.012750
9900.000000;1.012026
9899.000000;1.010658
9898.000000;1.008481
9897.000000;1.005635
9896.000000;1.002663
9895.000000;1.000153
9894.000000;0.998297
9893.000000;0.996909
9892.000000;0.995762
9891.000000;0.994764
9890.000000;0.993830
9889.000000;0.992792
9888.000000;0.991549
9887.000000;0.990194
9886.000000;0.988939
9885.000000;0.987892
9884.000000;0.986916
9883.000000;0.985682
9882.000000;0.983930
9881.000000;0.981731
9880.000000;0.979464
9879.000000;0.977468
9878.000000;0.975806
9877.000000;0.974393
9876.000000;0.973205
9875.000000;0.972225
9874.000000;0.971268
9873.000000;0.970084
9872.000000;0.968644
9871.000000;0.967204
9870.000000;0.966013
9869.000000;0.965063
9868.000000;0.964160
9867.000000;0.963166
9866.000000;0.962076
9865.000000;0.960874
9864.000000;0.959370
9863.000000;0.957347
9862.000000;0.954922
9861.000000;0.952680
9860.000000;0.951237
9859.000000;0.950648
9858.000000;0.950340
9857.000000;0.949651
9856.000000;0.948296
9855.000000;0.946333
9854.000000;0.943979
9853.000000;0.941626
9852.000000;0.939785
9851.000000;0.938701
9850.000000;0.938036
9849.000000;0.937137
9848.000000;0.935585
9847.000000;0.933450
9846.000000;0.931132
9845.000000;0.929101
9844.000000;0.927631
9843.000000;0.926590
9842.000000;0.925549
9841.000000;0.924262
9840.000000;0.922889
9839.000000;0.921594
9838.000000;0.920158
9837.000000;0.918281
9836.000000;0.916110
9835.000000;0.914101
9834.000000;0.912419
9833.000000;0.910870
9832.000000;0.909378
9831.000000;0.908154
9830.000000;0.907271
9829.000000;0.906400
9828.000000;0.905167
9827.000000;0.903565
9826.000000;0.901852
9825.000000;0.900224
9824.000000;0.898721
9823.000000;0.897338
9822.000000;0.896030
9821.000000;0.894679
9820.000000;0.893144
9819.000000;0.891349
9818.000000;0.889345
9817.000000;0.887373
9816.000000;0.885806
9815.000000;0.884798
9814.000000;0.883986
9813.000000;0.882716
9812.000000;0.880667
9811.000000;0.878151
9810.000000;0.875806
9809.000000;0.874124
9808.000000;0.873208
9807.000000;0.872711
9806.000000;0.871978
9805.000000;0.870543
9804.000000;0.868612
9803.000000;0.866816
9802.000000;0.865381
9801.000000;0.863832
9800.000000;0.861672
9799.000000;0.859098
9798.000000;0.856752
9797.000000;0.854958
9796.000000;0.853490
9795.000000;0.852043
9794.000000;0.850586
9793.000000;0.849249
9792.000000;0.848073
9791.000000;0.846953
9790.000000;0.845631
9789.000000;0.843732
9788.000000;0.840990
9787.000000;0.837634
9786.000000;0.834444
9785.000000;0.832257
9784.000000;0.831305
9783.000000;0.831011
9782.000000;0.830465
9781.000000;0.829159
9780.000000;0.827305
9779.000000;0.825489
9778.000000;0.824075
9777.000000;0.822994
9776.000000;0.821951
9775.000000;0.820687
9774.000000;0.819044
9773.000000;0.817017
9772.000000;0.814869
9771.000000;0.813017
9770.000000;0.811639
9769.000000;0.810446
9768.000000;0.809015
9767.000000;0.807285
9766.000000;0.805525
9765.000000;0.803860
9764.000000;0.802071
9763.000000;0.799974
9762.000000;0.797774
9761.000000;0.795849
9760.000000;0.794243
9759.000000;0.792583
9758.000000;0.790535
9757.000000;0.788224
9756.000000;0.786127
9755.000000;0.784602
9754.000000;0.783585
9753.000000;0.782686
9752.000000;0.781504
9751.000000;0.779892
9750.000000;0.777989
9749.000000;0.776061
9748.000000;0.774296
9747.000000;0.772690
9746.000000;0.771078
9745.000000;0.769263
9744.000000;0.767147
9743.000000;0.764809
9742.000000;0.762497
9741.000000;0.760483
9740.000000;0.758820
9739.000000;0.757261
9738.000000;0.755442
9737.000000;0.753197
9736.000000;0.750711
9735.000000;0.748424
9734.000000;0.746744
9733.000000;0.745736
9732.000000;0.744985
9731.000000;0.743841
9730.000000;0.741933
9729.000000;0.739423
9728.000000;0.736712
9727.000000;0.734036
9726.000000;0.731519
9725.000000;0.729428
9724.000000;0.728027
9723.000000;0.727155
9722.000000;0.726235
9721.000000;0.724852
9720.000000;0.723099
9719.000000;0.721260
9718.000000;0.719381
9717.000000;0.717348
9716.000000;0.715161
9715.000000;0.712910
9714.000000;0.710628
9713.000000;0.708402
9712.000000;0.706487
9711.000000;0.705041
9710.000000;0.703814
9709.000000;0.702341
9708.000000;0.700443
9707.000000;0.698350
9706.000000;0.696369
9705.000000;0.694618
9704.000000;0.693062
9703.000000;0.691559
9702.000000;0.689850
9701.000000;0.687728
9700.000000;0.685275
9699.000000;0.682769
9698.000000;0.680352
9697.000000;0.678014
9696.000000;0.675913
9695.000000;0.674373
9694.000000;0.673384
9693.000000;0.672299
9692.000000;0.670340
9691.000000;0.667419
9690.000000;0.664250
9689.000000;0.661634
9688.000000;0.659765
9687.000000;0.658248
9686.000000;0.656638
9685.000000;0.654820
9684.000000;0.652920
9683.000000;0.651011
9682.000000;0.649038
9681.000000;0.646992
9680.000000;0.644994
9679.000000;0.643161
9678.000000;0.641451
9677.000000;0.639691
9676.000000;0.637716
9675.000000;0.635472
9674.000000;0.633036
9673.000000;0.630594
9672.000000;0.628325
9671.000000;0.626268
9670.000000;0.624312
9669.000000;0.622338
9668.000000;0.620270
9667.000000;0.618005
9666.000000;0.615476
9665.000000;0.612851
9664.000000;0.610502
9663.000000;0.608586
9662.000000;0.606805
9661.000000;0.604729
9660.000000;0.602308
9659.000000;0.599860
9658.000000;0.597661
9657.000000;0.595754
9656.000000;0.594086
9655.000000;0.592566
9654.000000;0.590953
9653.000000;0.588916
9652.000000;0.586349
9651.000000;0.583505
9650.000000;0.580779
9649.000000;0.578448
9648.000000;0.576617
9647.000000;0.575205
9646.000000;0.573893
9645.000000;0.572247
9644.000000;0.570061
9643.000000;0.567534
9642.000000;0.565026
9641.000000;0.562683
9640.000000;0.560405
9639.000000;0.558136
9638.000000;0.556016
9637.000000;0.554164
9636.000000;0.552385
9635.000000;0.550289
9634.000000;0.547737
9633.000000;0.545058
9632.000000;0.542652
9631.000000;0.540483
9630.000000;0.538182
9629.000000;0.535647
9628.000000;0.533226
9627.000000;0.531188
9626.000000;0.529291
9625.000000;0.527131
9624.000000;0.524723
9623.000000;0.522429
9622.000000;0.520404
9621.000000;0.518439
9620.000000;0.516327
9619.000000;0.514070
9618.000000;0.511680
9617.000000;0.509074
9616.000000;0.506315
9615.000000;0.503717
9614.000000;0.501530
9613.000000;0.499616
9612.000000;0.497576
9611.000000;0.495121
9610.000000;0.492270
9609.000000;0.489308
9608.000000;0.486623
9607.000000;0.484494
9606.000000;0.482889
9605.000000;0.481490
9604.000000;0.479915
9603.000000;0.477921
9602.000000;0.475469
9601.000000;0.472734
9600.000000;0.470047
9599.000000;0.467672
9598.000000;0.465555
9597.000000;0.463395
9596.000000;0.460980
9595.000000;0.458379
9594.000000;0.455802
9593.000000;0.453401
9592.000000;0.451211
9591.000000;0.449124
9590.000000;0.446923
9589.000000;0.444498
9588.000000;0.442085
9587.000000;0.440046
9586.000000;0.438340
9585.000000;0.436433
9584.000000;0.433905
9583.000000;0.430974
9582.000000;0.428190
9581.000000;0.425788
9580.000000;0.423588
9579.000000;0.421425
9578.000000;0.419322
9577.000000;0.417196
9576.000000;0.414746
9575.000000;0.411858
9574.000000;0.408920
9573.000000;0.406446
9572.000000;0.404418
9571.000000;0.402259
9570.000000;0.399516
9569.000000;0.396376
9568.000000;0.393397
9567.000000;0.390875
9566.000000;0.388666
9565.000000;0.386578
9564.000000;0.384645
9563.000000;0.382951
9562.000000;0.381339
9561.000000;0.379480
9560.000000;0.377185
9559.000000;0.374543
9558.000000;0.371792
9557.000000;0.369135
9556.000000;0.366665
9555.000000;0.364329
9554.000000;0.361986
9553.000000;0.359548
9552.000000;0.357098
9551.000000;0.354774
9550.000000;0.352578
9549.000000;0.350349
9548.000000;0.347971
9547.000000;0.345534
9546.000000;0.343303
9545.000000;0.341503
9544.000000;0.340088
9543.000000;0.338687
9542.000000;0.336881
9541.000000;0.334614
9540.000000;0.332231
9539.000000;0.330003
9538.000000;0.327766
9537.000000;0.325217
9536.000000;0.322437
9535.000000;0.319827
9534.000000;0.317524
9533.000000;0.315210
9532.000000;0.312618
9531.000000;0.309986
9530.000000;0.307781
9529.000000;0.306135
9528.000000;0.304759
9527.000000;0.303331
9526.000000;0.301739
9525.000000;0.299944
9524.000000;0.297818
9523.000000;0.295284
9522.000000;0.292510
9521.000000;0.289870
9520.000000;0.287653
9519.000000;0.285861
9518.000000;0.284290
9517.000000;0.282771
9516.000000;0.281286
9515.000000;0.279852
9514.000000;0.278378
9513.000000;0.276709
9512.000000;0.274800
9511.000000;0.272777
9510.000000;0.270803
9509.000000;0.268933
9508.000000;0.267084
9507.000000;0.265122
9506.000000;0.262981
9505.000000;0.260752
9504.000000;0.258602
9503.000000;0.256601
9502.000000;0.254651
9501.000000;0.252656
9500.000000;0.250694
9499.000000;0.248915
9498.000000;0.247328
9497.000000;0.245832
9496.000000;0.244415
9495.000000;0.243137
9494.000000;0.241918
9493.000000;0.240546
9492.000000;0.239016
9491.000000;0.237651
9490.000000;0.236698
9489.000000;0.235899
9488.000000;0.234669
9487.000000;0.232749
9486.000000;0.230539
9485.000000;0.228741
9484.000000;0.227694
9483.000000;0.227110
9482.000000;0.226424
9481.000000;0.225390
9480.000000;0.224285
9479.000000;0.223482
9478.000000;0.222912
9477.000000;0.222098
9476.000000;0.220749
9475.000000;0.219103
9474.000000;0.217597
9473.000000;0.216340
9472.000000;0.215142
9471.000000;0.213920
9470.000000;0.212830
9469.000000;0.211955
9468.000000;0.211120
9467.000000;0.210145
9466.000000;0.209126
9465.000000;0.208329
9464.000000;0.207872
9463.000000;0.207627
9462.000000;0.207404
9461.000000;0.207106
9460.000000;0.206685
9459.000000;0.206044
9458.000000;0.205078
9457.000000;0.203820
9456.000000;0.202535
9455.000000;0.201610
9454.000000;0.201255
9453.000000;0.201282
9452.000000;0.201257
9451.000000;0.200921
9450.000000;0.200418
9449.000000;0.200049
9448.000000;0.199901
9447.000000;0.199816
9446.000000;0.199656
9445.000000;0.199469
9444.000000;0.199369
9443.000000;0.199401
9442.000000;0.199582
9441.000000;0.199958
9440.000000;0.200523
9439.000000;0.201143
9438.000000;0.201608
9437.000000;0.201745
9436.000000;0.201451
9435.000000;0.200727
9434.000000;0.199784
9433.000000;0.199045
9432.000000;0.198894
9431.000000;0.199377
9430.000000;0.200223
9429.000000;0.201131
9428.000000;0.201962
9427.000000;0.202667
9426.000000;0.203135
9425.000000;0.203224
9424.000000;0.202935
9423.000000;0.202521
9422.000000;0.202394
9421.000000;0.202821
9420.000000;0.203675
9419.000000;0.204526
9418.000000;0.205103
9417.000000;0.205601
9416.000000;0.206410
9415.000000;0.207550
9414.000000;0.208558
9413.000000;0.209001
9412.000000;0.208957
9411.000000;0.208897
9410.000000;0.209200
9409.000000;0.209892
9408.000000;0.210768
9407.000000;0.211633
9406.000000;0.212437
9405.000000;0.213294
9404.000000;0.214352
9403.000000;0.215604
9402.000000;0.216827
9401.000000;0.217783
9400.000000;0.218465
9399.000000;0.219055
9398.000000;0.219674
9397.000000;0.220243
9396.000000;0.220633
9395.000000;0.220899
9394.000000;0.221337
9393.000000;0.222287
9392.000000;0.223852
9391.000000;0.225749
9390.000000;0.227460
9389.000000;0.228588
9388.000000;0.229131
9387.000000;0.229449
9386.000000;0.230010
9385.000000;0.231094
9384.000000;0.232622
9383.000000;0.234216
9382.000000;0.235491
9381.000000;0.236382
9380.000000;0.237147
9379.000000;0.238046
9378.000000;0.239076
9377.000000;0.240062
9376.000000;0.240922
9375.000000;0.241723
9374.000000;0.242559
9373.000000;0.243478
9372.000000;0.244532
9371.000000;0.245772
9370.000000;0.247172
9369.000000;0.248610
9368.000000;0.249973
9367.000000;0.251221
9366.000000;0.252369
9365.000000;0.253432
9364.000000;0.254412
9363.000000;0.255326
9362.000000;0.256223
9361.000000;0.257180
9360.000000;0.258255
9359.000000;0.259433
9358.000000;0.260645
9357.000000;0.261853
9356.000000;0.263054
9355.000000;0.264212
9354.000000;0.265273
9353.000000;0.266290
9352.000000;0.267429
9351.000000;0.268756
9350.000000;0.270115
9349.000000;0.271304
9348.000000;0.272307
9347.000000;0.273267
9346.000000;0.274279
9345.000000;0.275353
9344.000000;0.276517
9343.000000;0.277802
9342.000000;0.279137
9341.000000;0.280400
9340.000000;0.281602
9339.000000;0.282866
9338.000000;0.284173
9337.000000;0.285292
9336.000000;0.286079
9335.000000;0.286750
9334.000000;0.287686
9333.000000;0.288991
9332.000000;0.290357
9331.000000;0.291444
9330.000000;0.292327
9329.000000;0.293465
9328.000000;0.295205
9327.000000;0.297361
9326.000000;0.299341
9325.000000;0.300709
9324.000000;0.301551
9323.000000;0.302278
9322.000000;0.303139
9321.000000;0.304012
9320.000000;0.304680
9319.000000;0.305179
9318.000000;0.305820
9317.000000;0.306875
9316.000000;0.308304
9315.000000;0.309819
9314.000000;0.311183
9313.000000;0.312395
9312.000000;0.313566
9311.000000;0.314722
9310.000000;0.315819
9309.000000;0.316903
9308.000000;0.318092
9307.000000;0.319360
9306.000000;0.320506
9305.000000;0.321424
9304.000000;0.322302
9303.000000;0.323433
9302.000000;0.324870
9301.000000;0.326371
9300.000000;0.327673
9299.000000;0.328738
9298.000000;0.329740
9297.000000;0.330848
9296.000000;0.332039
9295.000000;0.333109
9294.000000;0.333929
9293.000000;0.334633
9292.000000;0.335486
9291.000000;0.336575
9290.000000;0.337778
9289.000000;0.339042
9288.000000;0.340477
9287.000000;0.342063
9286.000000;0.343475
9285.000000;0.344417
9284.000000;0.345032
9283.000000;0.345755
9282.000000;0.346804
9281.000000;0.348004
9280.000000;0.349064
9279.000000;0.349868
9278.000000;0.350485
9277.000000;0.351099
9276.000000;0.351918
9275.000000;0.352998
9274.000000;0.354140
9273.000000;0.355108
9272.000000;0.355954
9271.000000;0.356960
9270.000000;0.358229
9269.000000;0.359544
9268.000000;0.360676
9267.000000;0.361650
9266.000000;0.362609
9265.000000;0.363543
9264.000000;0.364342
9263.000000;0.365013
9262.000000;0.365715
9261.000000;0.366559
9260.000000;0.367490
9259.000000;0.368398
9258.000000;0.369285
9257.000000;0.370282
9256.000000;0.371438
9255.000000;0.372549
9254.000000;0.373283
9253.000000;0.373539
9252.000000;0.373641
9251.000000;0.374086
9250.000000;0.375144
9249.000000;0.376719
9248.000000;0.378490
9247.000000;0.380082
9246.000000;0.381233
9245.000000;0.381984
9244.000000;0.382677
9243.000000;0.383629
9242.000000;0.384810
9241.000000;0.385970
9240.000000;0.386996
9239.000000;0.387946
9238.000000;0.388803
9237.000000;0.389452
9236.000000;0.389937
9235.000000;0.390483
9234.000000;0.391153
9233.000000;0.391725
9232.000000;0.392030
9231.000000;0.392251
9230.000000;0.392744
9229.000000;0.393687
9228.000000;0.395020
9227.000000;0.396574
9226.000000;0.398113
9225.000000;0.399376
9224.000000;0.400266
9223.000000;0.400925
9222.000000;0.401525
9221.000000;0.402066
9220.000000;0.402498
9219.000000;0.402916
9218.000000;0.403467
9217.000000;0.404151
9216.000000;0.404885
9215.000000;0.405697
9214.000000;0.406661
9213.000000;0.407660
9212.000000;0.408400
9211.000000;0.408736
9210.000000;0.408865
9209.000000;0.409151
9208.000000;0.409818
9207.000000;0.410813
9206.000000;0.411858
9205.000000;0.412621
9204.000000;0.412979
9203.000000;0.413168
9202.000000;0.413612
9201.000000;0.414533
9200.000000;0.415774
9199.000000;0.417000
9198.000000;0.418004
9197.000000;0.418790
9196.000000;0.419485
9195.000000;0.420247
9194.000000;0.421187
9193.000000;0.422244
9192.000000;0.423161
9191.000000;0.423687
9190.000000;0.423850
9189.000000;0.423973
9188.000000;0.424366
9187.000000;0.425077
9186.000000;0.425949
9185.000000;0.426844
9184.000000;0.427705
9183.000000;0.428453
9182.000000;0.429001
9181.000000;0.429390
9180.000000;0.429810
9179.000000;0.430397
9178.000000;0.431091
9177.000000;0.431752
9176.000000;0.432329
9175.000000;0.432830
9174.000000;0.433209
9173.000000;0.433456
9172.000000;0.433730
9171.000000;0.434253
9170.000000;0.435047
9169.000000;0.435926
9168.000000;0.436769
9167.000000;0.437660
9166.000000;0.438695
9165.000000;0.439789
9164.000000;0.440755
9163.000000;0.441477
9162.000000;0.441942
9161.000000;0.442173
9160.000000;0.442249
9159.000000;0.442332
9158.000000;0.442575
9157.000000;0.443020
9156.000000;0.443636
9155.000000;0.444398
9154.000000;0.445230
9153.000000;0.445928
9152.000000;0.446301
9151.000000;0.446428
9150.000000;0.446662
9149.000000;0.447276
9148.000000;0.448149
9147.000000;0.448878
9146.000000;0.449214
9145.000000;0.449356
9144.000000;0.449742
9143.000000;0.450561
9142.000000;0.451540
9141.000000;0.452250
9140.000000;0.452569
9139.000000;0.452748
9138.000000;0.453056
9137.000000;0.453502
9136.000000;0.453960
9135.000000;0.454429
9134.000000;0.455037
9133.000000;0.455808
9132.000000;0.456534
9131.000000;0.456946
9130.000000;0.456984
9129.000000;0.456904
9128.000000;0.457104
9127.000000;0.457796
9126.000000;0.458818
9125.000000;0.459781
9124.000000;0.460392
9123.000000;0.460641
9122.000000;0.460682
9121.000000;0.460669
9120.000000;0.460736
9119.000000;0.461026
9118.000000;0.461589
9117.000000;0.462277
9116.000000;0.462849
9115.000000;0.463195
9114.000000;0.463392
9113.000000;0.463563
9112.000000;0.463799
9111.000000;0.464189
9110.000000;0.464805
9109.000000;0.465598
9108.000000;0.466392
9107.000000;0.467033
9106.000000;0.467494
9105.000000;0.467800
9104.000000;0.467956
9103.000000;0.468015
9102.000000;0.468122
9101.000000;0.468396
9100.000000;0.468799
9099.000000;0.469223
9098.000000;0.469674
9097.000000;0.470229
9096.000000;0.470834
9095.000000;0.471297
9094.000000;0.471521
9093.000000;0.471631
9092.000000;0.471818
9091.000000;0.472155
9090.000000;0.472622
9089.000000;0.473182
9088.000000;0.473751
9087.000000;0.474183
9086.000000;0.474445
9085.000000;0.474723
9084.000000;0.475218
9083.000000;0.475879
9082.000000;0.476476
9081.000000;0.476904
9080.000000;0.477231
9079.000000;0.477487
9078.000000;0.477610
9077.000000;0.477652
9076.000000;0.477819
9075.000000;0.478206
9074.000000;0.478632
9073.000000;0.478868
9072.000000;0.478922
9071.000000;0.478986
9070.000000;0.479197
9069.000000;0.479574
9068.000000;0.480100
9067.000000;0.480709
9066.000000;0.481236
9065.000000;0.481511
9064.000000;0.481528
9063.000000;0.481439
9062.000000;0.481413
9061.000000;0.481560
9060.000000;0.481918
9059.000000;0.482416
9058.000000;0.482887
9057.000000;0.483214
9056.000000;0.483449
9055.000000;0.483706
9054.000000;0.483982
9053.000000;0.484189
