Criado como novo conjunto de dados;"0307_DANIEL.spp","1622.1 Secs"
cm-1;Abs
10000.000000;0.310239
9999.000000;0.309214
9998.000000;0.308192
9997.000000;0.307171
9996.000000;0.306154
9995.000000;0.305139
9994.000000;0.304125
9993.000000;0.303115
9992.000000;0.302106
9991.000000;0.301112
9990.000000;0.300092
9989.000000;0.299010
9988.000000;0.297869
9987.000000;0.296735
9986.000000;0.295682
9985.000000;0.294685
9984.000000;0.293641
9983.000000;0.292486
9982.000000;0.291270
9981.000000;0.290072
9980.000000;0.288904
9979.000000;0.287737
9978.000000;0.286560
9977.000000;0.285372
9976.000000;0.284163
9975.000000;0.282946
9974.000000;0.281781
9973.000000;0.280713
9972.000000;0.279720
9971.000000;0.278767
9970.000000;0.277853
9969.000000;0.276953
9968.000000;0.275949
9967.000000;0.274707
9966.000000;0.273236
9965.000000;0.271729
9964.000000;0.270406
9963.000000;0.269356
9962.000000;0.268510
9961.000000;0.267717
9960.000000;0.266816
9959.000000;0.265696
9958.000000;0.264354
9957.000000;0.262908
9956.000000;0.261534
9955.000000;0.260352
9954.000000;0.259366
9953.000000;0.258477
9952.000000;0.257546
9951.000000;0.256464
9950.000000;0.255192
9949.000000;0.253788
9948.000000;0.252386
9947.000000;0.251108
9946.000000;0.249971
9945.000000;0.248879
9944.000000;0.247737
9943.000000;0.246549
9942.000000;0.245363
9941.000000;0.244163
9940.000000;0.242878
9939.000000;0.241516
9938.000000;0.240205
9937.000000;0.239061
9936.000000;0.238034
9935.000000;0.236954
9934.000000;0.235729
9933.000000;0.234443
9932.000000;0.233252
9931.000000;0.232220
9930.000000;0.231276
9929.000000;0.230304
9928.000000;0.229238
9927.000000;0.228073
9926.000000;0.226821
9925.000000;0.225478
9924.000000;0.224047
9923.000000;0.222576
9922.000000;0.221158
9921.000000;0.219878
9920.000000;0.218741
9919.000000;0.217676
9918.000000;0.216594
9917.000000;0.215452
9916.000000;0.214259
9915.000000;0.213044
9914.000000;0.211847
9913.000000;0.210721
9912.000000;0.209688
9911.000000;0.208681
9910.000000;0.207561
9909.000000;0.206241
9908.000000;0.204780
9907.000000;0.203332
9906.000000;0.202004
9905.000000;0.200795
9904.000000;0.199646
9903.000000;0.198487
9902.000000;0.197231
9901.000000;0.195806
9900.000000;0.194249
9899.000000;0.192733
9898.000000;0.191432
9897.000000;0.190368
9896.000000;0.189418
9895.000000;0.188448
9894.000000;0.187401
9893.000000;0.186252
9892.000000;0.184975
9891.000000;0.183566
9890.000000;0.182078
9889.000000;0.180594
9888.000000;0.179161
9887.000000;0.177787
9886.000000;0.176475
9885.000000;0.175226
9884.000000;0.174014
9883.000000;0.172787
9882.000000;0.171523
9881.000000;0.170270
9880.000000;0.169090
9879.000000;0.167954
9878.000000;0.166725
9877.000000;0.165283
9876.000000;0.163658
9875.000000;0.162016
9874.000000;0.160501
9873.000000;0.159137
9872.000000;0.157873
9871.000000;0.156666
9870.000000;0.155491
9869.000000;0.154309
9868.000000;0.153071
9867.000000;0.151749
9866.000000;0.150343
9865.000000;0.148871
9864.000000;0.147376
9863.000000;0.145915
9862.000000;0.144518
9861.000000;0.143145
9860.000000;0.141733
9859.000000;0.140272
9858.000000;0.138833
9857.000000;0.137483
9856.000000;0.136208
9855.000000;0.134930
9854.000000;0.133593
9853.000000;0.132219
9852.000000;0.130875
9851.000000;0.129583
9850.000000;0.128303
9849.000000;0.126998
9848.000000;0.125683
9847.000000;0.124380
9846.000000;0.123037
9845.000000;0.121572
9844.000000;0.119987
9843.000000;0.118395
9842.000000;0.116889
9841.000000;0.115468
9840.000000;0.114096
9839.000000;0.112783
9838.000000;0.111533
9837.000000;0.110279
9836.000000;0.108952
9835.000000;0.107567
9834.000000;0.106184
9833.000000;0.104797
9832.000000;0.103348
9831.000000;0.101851
9830.000000;0.100384
9829.000000;0.098971
9828.000000;0.097551
9827.000000;0.096095
9826.000000;0.094667
9825.000000;0.093307
9824.000000;0.091955
9823.000000;0.090545
9822.000000;0.089120
9821.000000;0.087759
9820.000000;0.086433
9819.000000;0.085028
9818.000000;0.083494
9817.000000;0.081890
9816.000000;0.080286
9815.000000;0.078676
9814.000000;0.077032
9813.000000;0.075360
9812.000000;0.073690
9811.000000;0.072068
9810.000000;0.070563
9809.000000;0.069226
9808.000000;0.068003
9807.000000;0.066743
9806.000000;0.065335
9805.000000;0.063802
9804.000000;0.062225
9803.000000;0.060633
9802.000000;0.059019
9801.000000;0.057417
9800.000000;0.055882
9799.000000;0.054414
9798.000000;0.052973
9797.000000;0.051562
9796.000000;0.050214
9795.000000;0.048884
9794.000000;0.047440
9793.000000;0.045811
9792.000000;0.044071
9791.000000;0.042357
9790.000000;0.040726
9789.000000;0.039166
9788.000000;0.037658
9787.000000;0.036183
9786.000000;0.034693
9785.000000;0.033150
9784.000000;0.031589
9783.000000;0.030087
9782.000000;0.028666
9781.000000;0.027279
9780.000000;0.025871
9779.000000;0.024402
9778.000000;0.022817
9777.000000;0.021059
9776.000000;0.019144
9775.000000;0.017189
9774.000000;0.015355
9773.000000;0.013743
9772.000000;0.012341
9771.000000;0.011039
9770.000000;0.009677
9769.000000;0.008150
9768.000000;0.006466
9767.000000;0.004719
9766.000000;0.003000
9765.000000;0.001339
9764.000000;-0.000283
9763.000000;-0.001893
9762.000000;-0.003506
9761.000000;-0.005098
9760.000000;-0.006629
9759.000000;-0.008101
9758.000000;-0.009582
9757.000000;-0.011136
9756.000000;-0.012744
9755.000000;-0.014347
9754.000000;-0.015958
9753.000000;-0.017664
9752.000000;-0.019494
9751.000000;-0.021374
9750.000000;-0.023221
9749.000000;-0.025043
9748.000000;-0.026871
9747.000000;-0.028666
9746.000000;-0.030356
9745.000000;-0.031950
9744.000000;-0.033535
9743.000000;-0.035163
9742.000000;-0.036788
9741.000000;-0.038359
9740.000000;-0.039903
9739.000000;-0.041482
9738.000000;-0.043108
9737.000000;-0.044753
9736.000000;-0.046439
9735.000000;-0.048245
9734.000000;-0.050185
9733.000000;-0.052132
9732.000000;-0.053934
9731.000000;-0.055589
9730.000000;-0.057231
9729.000000;-0.058932
9728.000000;-0.060623
9727.000000;-0.062252
9726.000000;-0.063912
9725.000000;-0.065721
9724.000000;-0.067629
9723.000000;-0.069452
9722.000000;-0.071118
9721.000000;-0.072767
9720.000000;-0.074568
9719.000000;-0.076517
9718.000000;-0.078467
9717.000000;-0.080303
9716.000000;-0.082047
9715.000000;-0.083811
9714.000000;-0.085696
9713.000000;-0.087698
9712.000000;-0.089696
9711.000000;-0.091537
9710.000000;-0.093171
9709.000000;-0.094688
9708.000000;-0.096230
9707.000000;-0.097897
9706.000000;-0.099720
9705.000000;-0.101678
9704.000000;-0.103713
9703.000000;-0.105752
9702.000000;-0.107741
9701.000000;-0.109664
9700.000000;-0.111522
9699.000000;-0.113333
9698.000000;-0.115144
9697.000000;-0.116999
9696.000000;-0.118875
9695.000000;-0.120708
9694.000000;-0.122484
9693.000000;-0.124269
9692.000000;-0.126119
9691.000000;-0.128004
9690.000000;-0.129845
9689.000000;-0.131611
9688.000000;-0.133350
9687.000000;-0.135145
9686.000000;-0.137073
9685.000000;-0.139147
9684.000000;-0.141271
9683.000000;-0.143292
9682.000000;-0.145139
9681.000000;-0.146913
9680.000000;-0.148785
9679.000000;-0.150805
9678.000000;-0.152847
9677.000000;-0.154759
9676.000000;-0.156544
9675.000000;-0.158360
9674.000000;-0.160356
9673.000000;-0.162511
9672.000000;-0.164659
9671.000000;-0.166671
9670.000000;-0.168592
9669.000000;-0.170559
9668.000000;-0.172615
9667.000000;-0.174653
9666.000000;-0.176566
9665.000000;-0.178376
9664.000000;-0.180187
9663.000000;-0.182061
9662.000000;-0.183995
9661.000000;-0.186004
9660.000000;-0.188145
9659.000000;-0.190422
9658.000000;-0.192718
9657.000000;-0.194860
9656.000000;-0.196790
9655.000000;-0.198642
9654.000000;-0.200620
9653.000000;-0.202787
9652.000000;-0.205004
9651.000000;-0.207096
9650.000000;-0.209039
9649.000000;-0.210939
9648.000000;-0.212866
9647.000000;-0.214793
9646.000000;-0.216700
9645.000000;-0.218635
9644.000000;-0.220649
9643.000000;-0.222732
9642.000000;-0.224869
9641.000000;-0.227094
9640.000000;-0.229413
9639.000000;-0.231719
9638.000000;-0.233862
9637.000000;-0.235811
9636.000000;-0.237694
9635.000000;-0.239676
9634.000000;-0.241828
9633.000000;-0.244105
9632.000000;-0.246409
9631.000000;-0.248646
9630.000000;-0.250767
9629.000000;-0.252797
9628.000000;-0.254814
9627.000000;-0.256892
9626.000000;-0.259060
9625.000000;-0.261285
9624.000000;-0.263503
9623.000000;-0.265667
9622.000000;-0.267787
9621.000000;-0.269903
9620.000000;-0.272030
9619.000000;-0.274149
9618.000000;-0.276260
9617.000000;-0.278423
9616.000000;-0.280693
9615.000000;-0.283036
9614.000000;-0.285333
9613.000000;-0.287493
9612.000000;-0.289541
9611.000000;-0.291592
9610.000000;-0.293735
9609.000000;-0.295955
9608.000000;-0.298161
9607.000000;-0.300305
9606.000000;-0.302444
9605.000000;-0.304677
9604.000000;-0.307039
9603.000000;-0.309477
9602.000000;-0.311906
9601.000000;-0.314261
9600.000000;-0.316497
9599.000000;-0.318611
9598.000000;-0.320670
9597.000000;-0.322779
9596.000000;-0.324978
9595.000000;-0.327214
9594.000000;-0.329426
9593.000000;-0.331627
9592.000000;-0.333861
9591.000000;-0.336110
9590.000000;-0.338309
9589.000000;-0.340448
9588.000000;-0.342584
9587.000000;-0.344768
9586.000000;-0.346989
9585.000000;-0.349207
9584.000000;-0.351418
9583.000000;-0.353643
9582.000000;-0.355897
9581.000000;-0.358190
9580.000000;-0.360536
9579.000000;-0.362923
9578.000000;-0.365293
9577.000000;-0.367597
9576.000000;-0.369863
9575.000000;-0.372180
9574.000000;-0.374574
9573.000000;-0.376957
9572.000000;-0.379220
9571.000000;-0.381362
9570.000000;-0.383480
9569.000000;-0.385651
9568.000000;-0.387873
9567.000000;-0.390107
9566.000000;-0.392311
9565.000000;-0.394441
9564.000000;-0.396479
9563.000000;-0.398512
9562.000000;-0.400700
9561.000000;-0.403120
9560.000000;-0.405666
9559.000000;-0.408144
9558.000000;-0.410436
9557.000000;-0.412545
9556.000000;-0.414541
9555.000000;-0.416522
9554.000000;-0.418593
9553.000000;-0.420791
9552.000000;-0.423045
9551.000000;-0.425270
9550.000000;-0.427481
9549.000000;-0.429758
9548.000000;-0.432114
9547.000000;-0.434467
9546.000000;-0.436732
9545.000000;-0.438877
9544.000000;-0.440890
9543.000000;-0.442795
9542.000000;-0.444695
9541.000000;-0.446718
9540.000000;-0.448890
9539.000000;-0.451125
9538.000000;-0.453352
9537.000000;-0.455573
9536.000000;-0.457785
9535.000000;-0.459925
9534.000000;-0.461955
9533.000000;-0.463928
9532.000000;-0.465927
9531.000000;-0.467980
9530.000000;-0.470077
9529.000000;-0.472189
9528.000000;-0.474247
9527.000000;-0.476170
9526.000000;-0.477973
9525.000000;-0.479795
9524.000000;-0.481754
9523.000000;-0.483828
9522.000000;-0.485918
9521.000000;-0.487969
9520.000000;-0.489962
9519.000000;-0.491861
9518.000000;-0.493642
9517.000000;-0.495340
9516.000000;-0.497012
9515.000000;-0.498672
9514.000000;-0.500343
9513.000000;-0.502101
9512.000000;-0.504000
9511.000000;-0.505966
9510.000000;-0.507867
9509.000000;-0.509661
9508.000000;-0.511389
9507.000000;-0.513056
9506.000000;-0.514635
9505.000000;-0.516175
9504.000000;-0.517798
9503.000000;-0.519541
9502.000000;-0.521307
9501.000000;-0.523005
9500.000000;-0.524673
9499.000000;-0.526391
9498.000000;-0.528120
9497.000000;-0.529709
9496.000000;-0.531054
9495.000000;-0.532216
9494.000000;-0.533377
9493.000000;-0.534683
9492.000000;-0.536117
9491.000000;-0.537539
9490.000000;-0.538847
9489.000000;-0.540079
9488.000000;-0.541330
9487.000000;-0.542603
9486.000000;-0.543826
9485.000000;-0.544978
9484.000000;-0.546123
9483.000000;-0.547309
9482.000000;-0.548492
9481.000000;-0.549591
9480.000000;-0.550552
9479.000000;-0.551355
9478.000000;-0.552042
9477.000000;-0.552766
9476.000000;-0.553718
9475.000000;-0.554928
9474.000000;-0.556200
9473.000000;-0.557309
9472.000000;-0.558220
9471.000000;-0.559047
9470.000000;-0.559863
9469.000000;-0.560647
9468.000000;-0.561401
9467.000000;-0.562200
9466.000000;-0.563076
9465.000000;-0.563925
9464.000000;-0.564597
9463.000000;-0.565070
9462.000000;-0.565483
9461.000000;-0.565981
9460.000000;-0.566555
9459.000000;-0.567068
9458.000000;-0.567437
9457.000000;-0.567758
9456.000000;-0.568209
9455.000000;-0.568840
9454.000000;-0.569493
9453.000000;-0.569948
9452.000000;-0.570115
9451.000000;-0.570087
9450.000000;-0.570051
9449.000000;-0.570132
9448.000000;-0.570299
9447.000000;-0.570389
9446.000000;-0.570279
9445.000000;-0.570053
9444.000000;-0.569948
9443.000000;-0.570122
9442.000000;-0.570491
9441.000000;-0.570834
9440.000000;-0.570992
9439.000000;-0.570954
9438.000000;-0.570786
9437.000000;-0.570563
9436.000000;-0.570331
9435.000000;-0.570088
9434.000000;-0.569794
9433.000000;-0.569427
9432.000000;-0.569021
9431.000000;-0.568634
9430.000000;-0.568296
9429.000000;-0.568020
9428.000000;-0.567813
9427.000000;-0.567622
9426.000000;-0.567327
9425.000000;-0.566839
9424.000000;-0.566203
9423.000000;-0.565540
9422.000000;-0.564917
9421.000000;-0.564310
9420.000000;-0.563677
9419.000000;-0.563009
9418.000000;-0.562317
9417.000000;-0.561640
9416.000000;-0.561055
9415.000000;-0.560609
9414.000000;-0.560244
9413.000000;-0.559836
9412.000000;-0.559311
9411.000000;-0.558677
9410.000000;-0.557948
9409.000000;-0.557131
9408.000000;-0.556290
9407.000000;-0.555534
9406.000000;-0.554872
9405.000000;-0.554159
9404.000000;-0.553258
9403.000000;-0.552215
9402.000000;-0.551198
9401.000000;-0.550289
9400.000000;-0.549410
9399.000000;-0.548466
9398.000000;-0.547480
9397.000000;-0.546542
9396.000000;-0.545672
9395.000000;-0.544787
9394.000000;-0.543810
9393.000000;-0.542762
9392.000000;-0.541737
9391.000000;-0.540793
9390.000000;-0.539907
9389.000000;-0.539012
9388.000000;-0.538065
9387.000000;-0.537045
9386.000000;-0.535917
9385.000000;-0.534657
9384.000000;-0.533303
9383.000000;-0.531951
9382.000000;-0.530685
9381.000000;-0.529532
9380.000000;-0.528484
9379.000000;-0.527528
9378.000000;-0.526606
9377.000000;-0.525596
9376.000000;-0.524391
9375.000000;-0.523014
9374.000000;-0.521614
9373.000000;-0.520335
9372.000000;-0.519195
9371.000000;-0.518101
9370.000000;-0.516944
9369.000000;-0.515670
9368.000000;-0.514302
9367.000000;-0.512926
9366.000000;-0.511660
9365.000000;-0.510558
9364.000000;-0.509544
9363.000000;-0.508471
9362.000000;-0.507258
9361.000000;-0.505976
9360.000000;-0.504757
9359.000000;-0.503641
9358.000000;-0.502530
9357.000000;-0.501301
9356.000000;-0.499918
9355.000000;-0.498440
9354.000000;-0.496961
9353.000000;-0.495555
9352.000000;-0.494260
9351.000000;-0.493066
9350.000000;-0.491922
9349.000000;-0.490777
9348.000000;-0.489608
9347.000000;-0.488392
9346.000000;-0.487067
9345.000000;-0.485590
9344.000000;-0.484034
9343.000000;-0.482574
9342.000000;-0.481315
9341.000000;-0.480181
9340.000000;-0.479008
9339.000000;-0.477739
9338.000000;-0.476470
9337.000000;-0.475311
9336.000000;-0.474253
9335.000000;-0.473179
9334.000000;-0.471974
9333.000000;-0.470615
9332.000000;-0.469187
9331.000000;-0.467841
9330.000000;-0.466698
9329.000000;-0.465746
9328.000000;-0.464843
9327.000000;-0.463841
9326.000000;-0.462691
9325.000000;-0.461433
9324.000000;-0.460107
9323.000000;-0.458720
9322.000000;-0.457293
9321.000000;-0.455894
9320.000000;-0.454599
9319.000000;-0.453438
9318.000000;-0.452354
9317.000000;-0.451234
9316.000000;-0.449983
9315.000000;-0.448605
9314.000000;-0.447194
9313.000000;-0.445856
9312.000000;-0.444633
9311.000000;-0.443513
9310.000000;-0.442470
9309.000000;-0.441447
9308.000000;-0.440352
9307.000000;-0.439117
9306.000000;-0.437778
9305.000000;-0.436428
9304.000000;-0.435121
9303.000000;-0.433845
9302.000000;-0.432584
9301.000000;-0.431357
9300.000000;-0.430183
9299.000000;-0.429037
9298.000000;-0.427873
9297.000000;-0.426655
9296.000000;-0.425384
9295.000000;-0.424121
9294.000000;-0.422978
9293.000000;-0.422010
9292.000000;-0.421123
9291.000000;-0.420137
9290.000000;-0.418961
9289.000000;-0.417668
9288.000000;-0.416389
9287.000000;-0.415202
9286.000000;-0.414126
9285.000000;-0.413136
9284.000000;-0.412136
9283.000000;-0.411003
9282.000000;-0.409709
9281.000000;-0.408381
9280.000000;-0.407167
9279.000000;-0.406089
9278.000000;-0.405088
9277.000000;-0.404143
9276.000000;-0.403265
9275.000000;-0.402394
9274.000000;-0.401398
9273.000000;-0.400221
9272.000000;-0.398943
9271.000000;-0.397692
9270.000000;-0.396522
9269.000000;-0.395405
9268.000000;-0.394302
9267.000000;-0.393207
9266.000000;-0.392151
9265.000000;-0.391177
9264.000000;-0.390288
9263.000000;-0.389404
9262.000000;-0.388411
9261.000000;-0.387273
9260.000000;-0.386080
9259.000000;-0.384977
9258.000000;-0.384042
9257.000000;-0.383226
9256.000000;-0.382396
9255.000000;-0.381438
9254.000000;-0.380362
9253.000000;-0.379282
9252.000000;-0.378293
9251.000000;-0.377370
9250.000000;-0.376402
9249.000000;-0.375338
9248.000000;-0.374245
9247.000000;-0.373227
9246.000000;-0.372315
9245.000000;-0.371448
9244.000000;-0.370537
9243.000000;-0.369540
9242.000000;-0.368488
9241.000000;-0.367465
9240.000000;-0.366537
9239.000000;-0.365684
9238.000000;-0.364804
9237.000000;-0.363808
9236.000000;-0.362701
9235.000000;-0.361578
9234.000000;-0.360550
9233.000000;-0.359669
9232.000000;-0.358896
9231.000000;-0.358133
9230.000000;-0.357283
9229.000000;-0.356332
9228.000000;-0.355354
9227.000000;-0.354439
9226.000000;-0.353606
9225.000000;-0.352818
9224.000000;-0.352043
9223.000000;-0.351283
9222.000000;-0.350522
9221.000000;-0.349701
9220.000000;-0.348766
9219.000000;-0.347748
9218.000000;-0.346757
9217.000000;-0.345883
9216.000000;-0.345115
9215.000000;-0.344356
9214.000000;-0.343518
9213.000000;-0.342600
9212.000000;-0.341681
9211.000000;-0.340845
9210.000000;-0.340107
9209.000000;-0.339411
9208.000000;-0.338690
9207.000000;-0.337932
9206.000000;-0.337172
9205.000000;-0.336429
9204.000000;-0.335680
9203.000000;-0.334884
9202.000000;-0.334023
9201.000000;-0.333111
9200.000000;-0.332181
9199.000000;-0.331287
9198.000000;-0.330483
9197.000000;-0.329773
9196.000000;-0.329087
9195.000000;-0.328336
9194.000000;-0.327496
9193.000000;-0.326623
9192.000000;-0.325796
9191.000000;-0.325062
9190.000000;-0.324411
9189.000000;-0.323774
9188.000000;-0.323067
9187.000000;-0.322266
9186.000000;-0.321441
9185.000000;-0.320696
9184.000000;-0.320056
9183.000000;-0.319467
9182.000000;-0.318866
9181.000000;-0.318221
9180.000000;-0.317499
9179.000000;-0.316675
9178.000000;-0.315797
9177.000000;-0.314978
9176.000000;-0.314289
9175.000000;-0.313676
9174.000000;-0.313033
9173.000000;-0.312318
9172.000000;-0.311567
9171.000000;-0.310817
9170.000000;-0.310065
9169.000000;-0.309305
9168.000000;-0.308553
9167.000000;-0.307826
9166.000000;-0.307128
9165.000000;-0.306451
9164.000000;-0.305794
9163.000000;-0.305153
9162.000000;-0.304525
9161.000000;-0.303913
9160.000000;-0.303322
9159.000000;-0.302735
9158.000000;-0.302113
9157.000000;-0.301446
9156.000000;-0.300783
9155.000000;-0.300187
9154.000000;-0.299664
9153.000000;-0.299140
9152.000000;-0.298535
9151.000000;-0.297849
9150.000000;-0.297160
9149.000000;-0.296534
9148.000000;-0.295976
9147.000000;-0.295448
9146.000000;-0.294921
9145.000000;-0.294378
9144.000000;-0.293808
9143.000000;-0.293218
9142.000000;-0.292627
9141.000000;-0.292037
9140.000000;-0.291410
9139.000000;-0.290727
9138.000000;-0.290045
9137.000000;-0.289449
9136.000000;-0.288962
9135.000000;-0.288517
9134.000000;-0.288027
9133.000000;-0.287453
9132.000000;-0.286825
9131.000000;-0.286213
9130.000000;-0.285682
9129.000000;-0.285222
9128.000000;-0.284740
9127.000000;-0.284156
9126.000000;-0.283497
9125.000000;-0.282867
9124.000000;-0.282321
9123.000000;-0.281815
9122.000000;-0.281294
9121.000000;-0.280774
9120.000000;-0.280318
9119.000000;-0.279961
9118.000000;-0.279666
9117.000000;-0.279341
9116.000000;-0.278884
9115.000000;-0.278254
9114.000000;-0.277532
9113.000000;-0.276866
9112.000000;-0.276340
9111.000000;-0.275904
9110.000000;-0.275454
9109.000000;-0.274942
9108.000000;-0.274394
9107.000000;-0.273858
9106.000000;-0.273374
9105.000000;-0.272962
9104.000000;-0.272605
9103.000000;-0.272241
9102.000000;-0.271804
9101.000000;-0.271285
9100.000000;-0.270726
9099.000000;-0.270175
9098.000000;-0.269662
9097.000000;-0.269208
9096.000000;-0.268821
9095.000000;-0.268465
9094.000000;-0.268057
9093.000000;-0.267527
9092.000000;-0.266900
9091.000000;-0.266296
9090.000000;-0.265819
9089.000000;-0.265456
9088.000000;-0.265105
9087.000000;-0.264707
9086.000000;-0.264303
9085.000000;-0.263939
