Criado como novo conjunto de dados;"0307_DANIEL.spp","18182.7 Secs"
cm-1;Abs
10000.000000;0.944679
9999.000000;0.943271
9998.000000;0.942167
9997.000000;0.941228
9996.000000;0.940240
9995.000000;0.939189
9994.000000;0.938259
9993.000000;0.937505
9992.000000;0.936646
9991.000000;0.935411
9990.000000;0.934016
9989.000000;0.932967
9988.000000;0.932320
9987.000000;0.931446
9986.000000;0.929765
9985.000000;0.927519
9984.000000;0.925514
9983.000000;0.924196
9982.000000;0.923279
9981.000000;0.922285
9980.000000;0.921124
9979.000000;0.919975
9978.000000;0.918873
9977.000000;0.917683
9976.000000;0.916440
9975.000000;0.915411
9974.000000;0.914722
9973.000000;0.914098
9972.000000;0.913133
9971.000000;0.911730
9970.000000;0.910179
9969.000000;0.908818
9968.000000;0.907738
9967.000000;0.906793
9966.000000;0.905762
9965.000000;0.904479
9964.000000;0.902927
9963.000000;0.901260
9962.000000;0.899694
9961.000000;0.898360
9960.000000;0.897281
9959.000000;0.896434
9958.000000;0.895675
9957.000000;0.894678
9956.000000;0.893173
9955.000000;0.891332
9954.000000;0.889732
9953.000000;0.888763
9952.000000;0.888203
9951.000000;0.887498
9950.000000;0.886386
9949.000000;0.885067
9948.000000;0.883845
9947.000000;0.882792
9946.000000;0.881767
9945.000000;0.880589
9944.000000;0.879157
9943.000000;0.877489
9942.000000;0.875712
9941.000000;0.873977
9940.000000;0.872424
9939.000000;0.871202
9938.000000;0.870402
9937.000000;0.869867
9936.000000;0.869213
9935.000000;0.868192
9934.000000;0.866949
9933.000000;0.865746
9932.000000;0.864543
9931.000000;0.863097
9930.000000;0.861424
9929.000000;0.859893
9928.000000;0.858778
9927.000000;0.857940
9926.000000;0.857035
9925.000000;0.855861
9924.000000;0.854424
9923.000000;0.852798
9922.000000;0.851088
9921.000000;0.849444
9920.000000;0.847975
9919.000000;0.846666
9918.000000;0.845418
9917.000000;0.844129
9916.000000;0.842733
9915.000000;0.841248
9914.000000;0.839827
9913.000000;0.838663
9912.000000;0.837786
9911.000000;0.837014
9910.000000;0.836145
9909.000000;0.835110
9908.000000;0.833928
9907.000000;0.832613
9906.000000;0.831202
9905.000000;0.829795
9904.000000;0.828476
9903.000000;0.827216
9902.000000;0.825907
9901.000000;0.824446
9900.000000;0.822794
9899.000000;0.821024
9898.000000;0.819309
9897.000000;0.817782
9896.000000;0.816402
9895.000000;0.815041
9894.000000;0.813686
9893.000000;0.812414
9892.000000;0.811186
9891.000000;0.809834
9890.000000;0.808337
9889.000000;0.806923
9888.000000;0.805769
9887.000000;0.804710
9886.000000;0.803425
9885.000000;0.801844
9884.000000;0.800232
9883.000000;0.798851
9882.000000;0.797668
9881.000000;0.796410
9880.000000;0.794870
9879.000000;0.793101
9878.000000;0.791338
9877.000000;0.789746
9876.000000;0.788288
9875.000000;0.786894
9874.000000;0.785651
9873.000000;0.784699
9872.000000;0.783948
9871.000000;0.783088
9870.000000;0.781930
9869.000000;0.780586
9868.000000;0.779222
9867.000000;0.777799
9866.000000;0.776219
9865.000000;0.774584
9864.000000;0.773108
9863.000000;0.771822
9862.000000;0.770511
9861.000000;0.768929
9860.000000;0.766972
9859.000000;0.764717
9858.000000;0.762472
9857.000000;0.760701
9856.000000;0.759695
9855.000000;0.759234
9854.000000;0.758723
9853.000000;0.757713
9852.000000;0.756197
9851.000000;0.754421
9850.000000;0.752609
9849.000000;0.750949
9848.000000;0.749590
9847.000000;0.748458
9846.000000;0.747173
9845.000000;0.745391
9844.000000;0.743245
9843.000000;0.741258
9842.000000;0.739787
9841.000000;0.738695
9840.000000;0.737630
9839.000000;0.736448
9838.000000;0.735231
9837.000000;0.734020
9836.000000;0.732731
9835.000000;0.731335
9834.000000;0.729930
9833.000000;0.728580
9832.000000;0.727192
9831.000000;0.725651
9830.000000;0.723976
9829.000000;0.722261
9828.000000;0.720534
9827.000000;0.718777
9826.000000;0.717015
9825.000000;0.715299
9824.000000;0.713638
9823.000000;0.712048
9822.000000;0.710617
9821.000000;0.709404
9820.000000;0.708287
9819.000000;0.707031
9818.000000;0.705532
9817.000000;0.703886
9816.000000;0.702243
9815.000000;0.700677
9814.000000;0.699192
9813.000000;0.697720
9812.000000;0.696121
9811.000000;0.694314
9810.000000;0.692444
9809.000000;0.690777
9808.000000;0.689358
9807.000000;0.687917
9806.000000;0.686171
9805.000000;0.684126
9804.000000;0.682025
9803.000000;0.680112
9802.000000;0.678512
9801.000000;0.677199
9800.000000;0.675963
9799.000000;0.674513
9798.000000;0.672759
9797.000000;0.670934
9796.000000;0.669349
9795.000000;0.668087
9794.000000;0.667015
9793.000000;0.665951
9792.000000;0.664701
9791.000000;0.663062
9790.000000;0.661033
9789.000000;0.658974
9788.000000;0.657335
9787.000000;0.656203
9786.000000;0.655246
9785.000000;0.654084
9784.000000;0.652570
9783.000000;0.650724
9782.000000;0.648629
9781.000000;0.646463
9780.000000;0.644450
9779.000000;0.642668
9778.000000;0.641008
9777.000000;0.639397
9776.000000;0.637917
9775.000000;0.636628
9774.000000;0.635378
9773.000000;0.633952
9772.000000;0.632309
9771.000000;0.630536
9770.000000;0.628656
9769.000000;0.626635
9768.000000;0.624565
9767.000000;0.622693
9766.000000;0.621217
9765.000000;0.620125
9764.000000;0.619217
9763.000000;0.618189
9762.000000;0.616727
9761.000000;0.614681
9760.000000;0.612229
9759.000000;0.609789
9758.000000;0.607681
9757.000000;0.605906
9756.000000;0.604293
9755.000000;0.602767
9754.000000;0.601381
9753.000000;0.600079
9752.000000;0.598565
9751.000000;0.596503
9750.000000;0.593871
9749.000000;0.591090
9748.000000;0.588754
9747.000000;0.587166
9746.000000;0.586094
9745.000000;0.584971
9744.000000;0.583363
9743.000000;0.581299
9742.000000;0.579148
9741.000000;0.577216
9740.000000;0.575504
9739.000000;0.573838
9738.000000;0.572151
9737.000000;0.570559
9736.000000;0.569170
9735.000000;0.567915
9734.000000;0.566601
9733.000000;0.565061
9732.000000;0.563199
9731.000000;0.560976
9730.000000;0.558468
9729.000000;0.555967
9728.000000;0.553862
9727.000000;0.552313
9726.000000;0.551069
9725.000000;0.549702
9724.000000;0.548015
9723.000000;0.546147
9722.000000;0.544289
9721.000000;0.542409
9720.000000;0.540348
9719.000000;0.538112
9718.000000;0.535934
9717.000000;0.534012
9716.000000;0.532282
9715.000000;0.530523
9714.000000;0.528624
9713.000000;0.526680
9712.000000;0.524829
9711.000000;0.523122
9710.000000;0.521558
9709.000000;0.520127
9708.000000;0.518690
9707.000000;0.516926
9706.000000;0.514576
9705.000000;0.511777
9704.000000;0.509027
9703.000000;0.506736
9702.000000;0.504918
9701.000000;0.503340
9700.000000;0.501845
9699.000000;0.500400
9698.000000;0.498935
9697.000000;0.497306
9696.000000;0.495462
9695.000000;0.493488
9694.000000;0.491456
9693.000000;0.489330
9692.000000;0.487086
9691.000000;0.484833
9690.000000;0.482748
9689.000000;0.480938
9688.000000;0.479371
9687.000000;0.477870
9686.000000;0.476175
9685.000000;0.474115
9684.000000;0.471773
9683.000000;0.469407
9682.000000;0.467151
9681.000000;0.464891
9680.000000;0.462516
9679.000000;0.460158
9678.000000;0.458045
9677.000000;0.456168
9676.000000;0.454267
9675.000000;0.452155
9674.000000;0.449924
9673.000000;0.447797
9672.000000;0.445886
9671.000000;0.444142
9670.000000;0.442466
9669.000000;0.440782
9668.000000;0.439023
9667.000000;0.437126
9666.000000;0.435063
9665.000000;0.432885
9664.000000;0.430727
9663.000000;0.428726
9662.000000;0.426879
9661.000000;0.425005
9660.000000;0.422909
9659.000000;0.420580
9658.000000;0.418213
9657.000000;0.416033
9656.000000;0.414137
9655.000000;0.412437
9654.000000;0.410707
9653.000000;0.408733
9652.000000;0.406494
9651.000000;0.404174
9650.000000;0.401932
9649.000000;0.399718
9648.000000;0.397409
9647.000000;0.395054
9646.000000;0.392844
9645.000000;0.390848
9644.000000;0.388922
9643.000000;0.386877
9642.000000;0.384615
9641.000000;0.382089
9640.000000;0.379319
9639.000000;0.376504
9638.000000;0.373972
9637.000000;0.371900
9636.000000;0.370154
9635.000000;0.368464
9634.000000;0.366632
9633.000000;0.364553
9632.000000;0.362192
9631.000000;0.359677
9630.000000;0.357305
9629.000000;0.355310
9628.000000;0.353628
9627.000000;0.351979
9626.000000;0.350104
9625.000000;0.347875
9624.000000;0.345288
9623.000000;0.342499
9622.000000;0.339798
9621.000000;0.337413
9620.000000;0.335339
9619.000000;0.333417
9618.000000;0.331516
9617.000000;0.329545
9616.000000;0.327404
9615.000000;0.325059
9614.000000;0.322642
9613.000000;0.320325
9612.000000;0.318108
9611.000000;0.315832
9610.000000;0.313413
9609.000000;0.310943
9608.000000;0.308589
9607.000000;0.306447
9606.000000;0.304483
9605.000000;0.302523
9604.000000;0.300327
9603.000000;0.297815
9602.000000;0.295209
9601.000000;0.292829
9600.000000;0.290742
9599.000000;0.288716
9598.000000;0.286542
9597.000000;0.284248
9596.000000;0.281990
9595.000000;0.279804
9594.000000;0.277564
9593.000000;0.275119
9592.000000;0.272428
9591.000000;0.269600
9590.000000;0.266827
9589.000000;0.264275
9588.000000;0.262001
9587.000000;0.259956
9586.000000;0.258005
9585.000000;0.255942
9584.000000;0.253592
9583.000000;0.250983
9582.000000;0.248350
9581.000000;0.245895
9580.000000;0.243614
9579.000000;0.241408
9578.000000;0.239248
9577.000000;0.237091
9576.000000;0.234762
9575.000000;0.232137
9574.000000;0.229402
9573.000000;0.226902
9572.000000;0.224722
9571.000000;0.222617
9570.000000;0.220388
9569.000000;0.218128
9568.000000;0.216027
9567.000000;0.214089
9566.000000;0.212130
9565.000000;0.209952
9564.000000;0.207450
9563.000000;0.204684
9562.000000;0.201917
9561.000000;0.199441
9560.000000;0.197310
9559.000000;0.195329
9558.000000;0.193350
9557.000000;0.191432
9556.000000;0.189629
9555.000000;0.187798
9554.000000;0.185740
9553.000000;0.183437
9552.000000;0.181025
9551.000000;0.178629
9550.000000;0.176304
9549.000000;0.174041
9548.000000;0.171730
9547.000000;0.169201
9546.000000;0.166437
9545.000000;0.163666
9544.000000;0.161152
9543.000000;0.158955
9542.000000;0.156971
9541.000000;0.155076
9540.000000;0.153158
9539.000000;0.151106
9538.000000;0.148914
9537.000000;0.146684
9536.000000;0.144432
9535.000000;0.142003
9534.000000;0.139340
9533.000000;0.136700
9532.000000;0.134415
9531.000000;0.132508
9530.000000;0.130759
9529.000000;0.129054
9528.000000;0.127422
9527.000000;0.125778
9526.000000;0.123905
9525.000000;0.121748
9524.000000;0.119469
9523.000000;0.117145
9522.000000;0.114671
9521.000000;0.112100
9520.000000;0.109824
9519.000000;0.108181
9518.000000;0.107001
9517.000000;0.105762
9516.000000;0.104162
9515.000000;0.102342
9514.000000;0.100568
9513.000000;0.098882
9512.000000;0.097108
9511.000000;0.095075
9510.000000;0.092762
9509.000000;0.090314
9508.000000;0.087999
9507.000000;0.086059
9506.000000;0.084526
9505.000000;0.083169
9504.000000;0.081673
9503.000000;0.079927
9502.000000;0.078114
9501.000000;0.076523
9500.000000;0.075250
9499.000000;0.074085
9498.000000;0.072717
9497.000000;0.071031
9496.000000;0.069185
9495.000000;0.067412
9494.000000;0.065808
9493.000000;0.064348
9492.000000;0.063001
9491.000000;0.061748
9490.000000;0.060510
9489.000000;0.059152
9488.000000;0.057606
9487.000000;0.055943
9486.000000;0.054326
9485.000000;0.052905
9484.000000;0.051729
9483.000000;0.050685
9482.000000;0.049552
9481.000000;0.048210
9480.000000;0.046822
9479.000000;0.045692
9478.000000;0.044889
9477.000000;0.044116
9476.000000;0.043049
9475.000000;0.041720
9474.000000;0.040460
9473.000000;0.039511
9472.000000;0.038834
9471.000000;0.038257
9470.000000;0.037631
9469.000000;0.036818
9468.000000;0.035727
9467.000000;0.034473
9466.000000;0.033391
9465.000000;0.032755
9464.000000;0.032523
9463.000000;0.032380
9462.000000;0.031989
9461.000000;0.031146
9460.000000;0.029864
9459.000000;0.028441
9458.000000;0.027348
9457.000000;0.026856
9456.000000;0.026772
9455.000000;0.026679
9454.000000;0.026379
9453.000000;0.025984
9452.000000;0.025600
9451.000000;0.025148
9450.000000;0.024555
9449.000000;0.023948
9448.000000;0.023529
9447.000000;0.023376
9446.000000;0.023450
9445.000000;0.023690
9444.000000;0.023971
9443.000000;0.024070
9442.000000;0.023850
9441.000000;0.023469
9440.000000;0.023282
9439.000000;0.023484
9438.000000;0.023930
9437.000000;0.024325
9436.000000;0.024516
9435.000000;0.024570
9434.000000;0.024633
9433.000000;0.024808
9432.000000;0.025131
9431.000000;0.025564
9430.000000;0.025972
9429.000000;0.026199
9428.000000;0.026217
9427.000000;0.026186
9426.000000;0.026297
9425.000000;0.026586
9424.000000;0.026956
9423.000000;0.027371
9422.000000;0.027913
9421.000000;0.028622
9420.000000;0.029395
9419.000000;0.030098
9418.000000;0.030726
9417.000000;0.031341
9416.000000;0.031921
9415.000000;0.032385
9414.000000;0.032747
9413.000000;0.033142
9412.000000;0.033688
9411.000000;0.034404
9410.000000;0.035269
9409.000000;0.036238
9408.000000;0.037185
9407.000000;0.037902
9406.000000;0.038286
9405.000000;0.038497
9404.000000;0.038857
9403.000000;0.039562
9402.000000;0.040514
9401.000000;0.041459
9400.000000;0.042261
9399.000000;0.043020
9398.000000;0.043908
9397.000000;0.044950
9396.000000;0.046019
9395.000000;0.047006
9394.000000;0.047916
9393.000000;0.048792
9392.000000;0.049656
9391.000000;0.050548
9390.000000;0.051538
9389.000000;0.052612
9388.000000;0.053640
9387.000000;0.054548
9386.000000;0.055449
9385.000000;0.056507
9384.000000;0.057723
9383.000000;0.058966
9382.000000;0.060172
9381.000000;0.061364
9380.000000;0.062524
9379.000000;0.063577
9378.000000;0.064539
9377.000000;0.065528
9376.000000;0.066597
9375.000000;0.067674
9374.000000;0.068701
9373.000000;0.069737
9372.000000;0.070840
9371.000000;0.071961
9370.000000;0.073027
9369.000000;0.074052
9368.000000;0.075093
9367.000000;0.076154
9366.000000;0.077218
9365.000000;0.078318
9364.000000;0.079497
9363.000000;0.080733
9362.000000;0.081980
9361.000000;0.083262
9360.000000;0.084640
9359.000000;0.086071
9358.000000;0.087392
9357.000000;0.088482
9356.000000;0.089403
9355.000000;0.090356
9354.000000;0.091504
9353.000000;0.092861
9352.000000;0.094305
9351.000000;0.095662
9350.000000;0.096806
9349.000000;0.097726
9348.000000;0.098540
9347.000000;0.099442
9346.000000;0.100587
9345.000000;0.101987
9344.000000;0.103518
9343.000000;0.105022
9342.000000;0.106413
9341.000000;0.107692
9340.000000;0.108907
9339.000000;0.110100
9338.000000;0.111263
9337.000000;0.112347
9336.000000;0.113333
9335.000000;0.114295
9334.000000;0.115348
9333.000000;0.116510
9332.000000;0.117670
9331.000000;0.118742
9330.000000;0.119802
9329.000000;0.120996
9328.000000;0.122342
9327.000000;0.123678
9326.000000;0.124839
9325.000000;0.125820
9324.000000;0.126779
9323.000000;0.127898
9322.000000;0.129248
9321.000000;0.130746
9320.000000;0.132211
9319.000000;0.133486
9318.000000;0.134519
9317.000000;0.135360
9316.000000;0.136105
9315.000000;0.136876
9314.000000;0.137785
9313.000000;0.138861
9312.000000;0.140025
9311.000000;0.141191
9310.000000;0.142388
9309.000000;0.143744
9308.000000;0.145311
9307.000000;0.146957
9306.000000;0.148441
9305.000000;0.149616
9304.000000;0.150565
9303.000000;0.151509
9302.000000;0.152588
9301.000000;0.153740
9300.000000;0.154830
9299.000000;0.155849
9298.000000;0.156914
9297.000000;0.158083
9296.000000;0.159289
9295.000000;0.160470
9294.000000;0.161654
9293.000000;0.162859
9292.000000;0.164005
9291.000000;0.165014
9290.000000;0.165929
9289.000000;0.166852
9288.000000;0.167826
9287.000000;0.168835
9286.000000;0.169845
9285.000000;0.170786
9284.000000;0.171601
9283.000000;0.172387
9282.000000;0.173377
9281.000000;0.174655
9280.000000;0.175983
9279.000000;0.177071
9278.000000;0.177927
9277.000000;0.178809
9276.000000;0.179870
9275.000000;0.181057
9274.000000;0.182292
9273.000000;0.183549
9272.000000;0.184735
9271.000000;0.185730
9270.000000;0.186566
9269.000000;0.187425
9268.000000;0.188382
9267.000000;0.189328
9266.000000;0.190196
9265.000000;0.191079
9264.000000;0.192036
9263.000000;0.192962
9262.000000;0.193784
9261.000000;0.194648
9260.000000;0.195740
9259.000000;0.196979
9258.000000;0.198080
9257.000000;0.198888
9256.000000;0.199547
9255.000000;0.200315
9254.000000;0.201323
9253.000000;0.202519
9252.000000;0.203778
9251.000000;0.205000
9250.000000;0.206106
9249.000000;0.206997
9248.000000;0.207578
9247.000000;0.207903
9246.000000;0.208246
9245.000000;0.208910
9244.000000;0.209934
9243.000000;0.211065
9242.000000;0.212045
9241.000000;0.212855
9240.000000;0.213637
9239.000000;0.214470
9238.000000;0.215312
9237.000000;0.216127
9236.000000;0.216980
9235.000000;0.217988
9234.000000;0.219192
9233.000000;0.220459
9232.000000;0.221542
9231.000000;0.222288
9230.000000;0.222802
9229.000000;0.223356
9228.000000;0.224131
9227.000000;0.225106
9226.000000;0.226167
9225.000000;0.227204
9224.000000;0.228110
9223.000000;0.228814
9222.000000;0.229397
9221.000000;0.230075
9220.000000;0.230976
9219.000000;0.231999
9218.000000;0.232953
9217.000000;0.233793
9216.000000;0.234622
9215.000000;0.235530
9214.000000;0.236468
9213.000000;0.237291
9212.000000;0.237881
9211.000000;0.238264
9210.000000;0.238625
9209.000000;0.239163
9208.000000;0.239918
9207.000000;0.240794
9206.000000;0.241716
9205.000000;0.242668
9204.000000;0.243570
9203.000000;0.244278
9202.000000;0.244773
9201.000000;0.245252
9200.000000;0.245909
9199.000000;0.246724
9198.000000;0.247550
9197.000000;0.248323
9196.000000;0.249087
9195.000000;0.249865
9194.000000;0.250632
9193.000000;0.251372
9192.000000;0.252072
9191.000000;0.252683
9190.000000;0.253174
9189.000000;0.253600
9188.000000;0.254045
9187.000000;0.254542
9186.000000;0.255101
9185.000000;0.255759
9184.000000;0.256510
9183.000000;0.257248
9182.000000;0.257901
9181.000000;0.258582
9180.000000;0.259480
9179.000000;0.260570
9178.000000;0.261576
9177.000000;0.262248
9176.000000;0.262627
9175.000000;0.262997
9174.000000;0.263616
9173.000000;0.264499
9172.000000;0.265421
9171.000000;0.266105
9170.000000;0.266460
9169.000000;0.266637
9168.000000;0.266855
9167.000000;0.267209
9166.000000;0.267674
9165.000000;0.268235
9164.000000;0.268926
9163.000000;0.269755
9162.000000;0.270659
9161.000000;0.271541
9160.000000;0.272338
9159.000000;0.273046
9158.000000;0.273708
9157.000000;0.274356
9156.000000;0.274948
9155.000000;0.275402
9154.000000;0.275735
9153.000000;0.276089
9152.000000;0.276563
9151.000000;0.277087
9150.000000;0.277515
9149.000000;0.277791
9148.000000;0.277970
9147.000000;0.278133
9146.000000;0.278402
9145.000000;0.278951
9144.000000;0.279858
9143.000000;0.280954
9142.000000;0.281932
9141.000000;0.282633
9140.000000;0.283139
9139.000000;0.283600
9138.000000;0.284089
9137.000000;0.284609
9136.000000;0.285122
9135.000000;0.285546
9134.000000;0.285832
9133.000000;0.286087
9132.000000;0.286501
9131.000000;0.287121
9130.000000;0.287797
9129.000000;0.288393
9128.000000;0.288948
9127.000000;0.289565
9126.000000;0.290222
9125.000000;0.290797
9124.000000;0.291222
9123.000000;0.291538
9122.000000;0.291820
9121.000000;0.292108
9120.000000;0.292410
9119.000000;0.292730
9118.000000;0.293091
9117.000000;0.293540
9116.000000;0.294101
9115.000000;0.294713
9114.000000;0.295254
9113.000000;0.295632
9112.000000;0.295843
9111.000000;0.295963
9110.000000;0.296118
9109.000000;0.296452
9108.000000;0.297037
9107.000000;0.297784
9106.000000;0.298520
9105.000000;0.299158
9104.000000;0.299726
9103.000000;0.300215
9102.000000;0.300513
9101.000000;0.300572
9100.000000;0.300546
9099.000000;0.300680
9098.000000;0.301080
9097.000000;0.301658
9096.000000;0.302270
9095.000000;0.302825
9094.000000;0.303271
9093.000000;0.303574
9092.000000;0.303739
9091.000000;0.303852
9090.000000;0.304077
9089.000000;0.304572
9088.000000;0.305345
9087.000000;0.306172
9086.000000;0.306738
9085.000000;0.306926
9084.000000;0.306940
9083.000000;0.307093
9082.000000;0.307492
9081.000000;0.307990
9080.000000;0.308389
9079.000000;0.308635
9078.000000;0.308822
9077.000000;0.309069
9076.000000;0.309419
9075.000000;0.309805
9074.000000;0.310123
9073.000000;0.310354
9072.000000;0.310608
9071.000000;0.311009
9070.000000;0.311542
9069.000000;0.312058
9068.000000;0.312433
9067.000000;0.312671
9066.000000;0.312848
9065.000000;0.313015
9064.000000;0.313186
9063.000000;0.313395
9062.000000;0.313696
9061.000000;0.314106
9060.000000;0.314559
9059.000000;0.314949
9058.000000;0.315210
9057.000000;0.315381
9056.000000;0.315558
9055.000000;0.315800
9054.000000;0.316079
9053.000000;0.316321
