Criado como novo conjunto de dados;"0307_DANIEL.spp","57604.8 Secs"
cm-1;Abs
10000.000000;0.358030
9999.000000;0.357636
9998.000000;0.357243
9997.000000;0.356849
9996.000000;0.356457
9995.000000;0.356064
9994.000000;0.355673
9993.000000;0.355278
9992.000000;0.354892
9991.000000;0.354491
9990.000000;0.354122
9989.000000;0.353606
9988.000000;0.352844
9987.000000;0.351988
9986.000000;0.351094
9985.000000;0.350152
9984.000000;0.349144
9983.000000;0.348162
9982.000000;0.347342
9981.000000;0.346711
9980.000000;0.346148
9979.000000;0.345487
9978.000000;0.344654
9977.000000;0.343716
9976.000000;0.342836
9975.000000;0.342140
9974.000000;0.341593
9973.000000;0.341035
9972.000000;0.340367
9971.000000;0.339678
9970.000000;0.339101
9969.000000;0.338585
9968.000000;0.337920
9967.000000;0.337005
9966.000000;0.336005
9965.000000;0.335175
9964.000000;0.334584
9963.000000;0.334063
9962.000000;0.333400
9961.000000;0.332523
9960.000000;0.331518
9959.000000;0.330533
9958.000000;0.329657
9957.000000;0.328868
9956.000000;0.328088
9955.000000;0.327276
9954.000000;0.326434
9953.000000;0.325534
9952.000000;0.324534
9951.000000;0.323485
9950.000000;0.322557
9949.000000;0.321868
9948.000000;0.321341
9947.000000;0.320774
9946.000000;0.320036
9945.000000;0.319134
9944.000000;0.318127
9943.000000;0.317071
9942.000000;0.316039
9941.000000;0.315090
9940.000000;0.314236
9939.000000;0.313462
9938.000000;0.312798
9937.000000;0.312265
9936.000000;0.311787
9935.000000;0.311220
9934.000000;0.310501
9933.000000;0.309689
9932.000000;0.308839
9931.000000;0.307943
9930.000000;0.306997
9929.000000;0.306048
9928.000000;0.305118
9927.000000;0.304169
9926.000000;0.303193
9925.000000;0.302253
9924.000000;0.301362
9923.000000;0.300416
9922.000000;0.299340
9921.000000;0.298240
9920.000000;0.297278
9919.000000;0.296451
9918.000000;0.295605
9917.000000;0.294652
9916.000000;0.293671
9915.000000;0.292769
9914.000000;0.291963
9913.000000;0.291221
9912.000000;0.290515
9911.000000;0.289784
9910.000000;0.288910
9909.000000;0.287828
9908.000000;0.286633
9907.000000;0.285528
9906.000000;0.284650
9905.000000;0.283964
9904.000000;0.283302
9903.000000;0.282506
9902.000000;0.281561
9901.000000;0.280592
9900.000000;0.279711
9899.000000;0.278881
9898.000000;0.277969
9897.000000;0.276911
9896.000000;0.275767
9895.000000;0.274637
9894.000000;0.273588
9893.000000;0.272679
9892.000000;0.271958
9891.000000;0.271378
9890.000000;0.270782
9889.000000;0.270027
9888.000000;0.269096
9887.000000;0.268065
9886.000000;0.266990
9885.000000;0.265878
9884.000000;0.264745
9883.000000;0.263672
9882.000000;0.262788
9881.000000;0.262163
9880.000000;0.261655
9879.000000;0.260916
9878.000000;0.259673
9877.000000;0.258042
9876.000000;0.256465
9875.000000;0.255285
9874.000000;0.254472
9873.000000;0.253787
9872.000000;0.253087
9871.000000;0.252352
9870.000000;0.251539
9869.000000;0.250579
9868.000000;0.249490
9867.000000;0.248365
9866.000000;0.247249
9865.000000;0.246141
9864.000000;0.245076
9863.000000;0.244091
9862.000000;0.243111
9861.000000;0.242005
9860.000000;0.240780
9859.000000;0.239593
9858.000000;0.238557
9857.000000;0.237649
9856.000000;0.236836
9855.000000;0.236135
9854.000000;0.235486
9853.000000;0.234694
9852.000000;0.233611
9851.000000;0.232301
9850.000000;0.230956
9849.000000;0.229696
9848.000000;0.228531
9847.000000;0.227440
9846.000000;0.226399
9845.000000;0.225361
9844.000000;0.224324
9843.000000;0.223349
9842.000000;0.222453
9841.000000;0.221527
9840.000000;0.220459
9839.000000;0.219306
9838.000000;0.218214
9837.000000;0.217194
9836.000000;0.216090
9835.000000;0.214795
9834.000000;0.213378
9833.000000;0.211982
9832.000000;0.210694
9831.000000;0.209556
9830.000000;0.208589
9829.000000;0.207736
9828.000000;0.206828
9827.000000;0.205720
9826.000000;0.204447
9825.000000;0.203208
9824.000000;0.202197
9823.000000;0.201450
9822.000000;0.200813
9821.000000;0.200037
9820.000000;0.198976
9819.000000;0.197736
9818.000000;0.196568
9817.000000;0.195572
9816.000000;0.194556
9815.000000;0.193263
9814.000000;0.191695
9813.000000;0.190098
9812.000000;0.188668
9811.000000;0.187418
9810.000000;0.186319
9809.000000;0.185419
9808.000000;0.184719
9807.000000;0.184044
9806.000000;0.183164
9805.000000;0.182028
9804.000000;0.180763
9803.000000;0.179478
9802.000000;0.178165
9801.000000;0.176814
9800.000000;0.175511
9799.000000;0.174360
9798.000000;0.173332
9797.000000;0.172261
9796.000000;0.170994
9795.000000;0.169525
9794.000000;0.168018
9793.000000;0.166657
9792.000000;0.165476
9791.000000;0.164347
9790.000000;0.163151
9789.000000;0.161941
9788.000000;0.160850
9787.000000;0.159875
9786.000000;0.158874
9785.000000;0.157771
9784.000000;0.156650
9783.000000;0.155569
9782.000000;0.154423
9781.000000;0.153098
9780.000000;0.151680
9779.000000;0.150366
9778.000000;0.149187
9777.000000;0.147976
9776.000000;0.146598
9775.000000;0.145111
9774.000000;0.143666
9773.000000;0.142351
9772.000000;0.141180
9771.000000;0.140113
9770.000000;0.139038
9769.000000;0.137799
9768.000000;0.136315
9767.000000;0.134668
9766.000000;0.133025
9765.000000;0.131526
9764.000000;0.130247
9763.000000;0.129219
9762.000000;0.128390
9761.000000;0.127593
9760.000000;0.126605
9759.000000;0.125281
9758.000000;0.123651
9757.000000;0.121896
9756.000000;0.120253
9755.000000;0.118847
9754.000000;0.117588
9753.000000;0.116250
9752.000000;0.114711
9751.000000;0.113082
9750.000000;0.111594
9749.000000;0.110369
9748.000000;0.109329
9747.000000;0.108293
9746.000000;0.107106
9745.000000;0.105720
9744.000000;0.104198
9743.000000;0.102683
9742.000000;0.101299
9741.000000;0.100062
9740.000000;0.098856
9739.000000;0.097495
9738.000000;0.095848
9737.000000;0.093975
9736.000000;0.092144
9735.000000;0.090635
9734.000000;0.089491
9733.000000;0.088475
9732.000000;0.087287
9731.000000;0.085800
9730.000000;0.084068
9729.000000;0.082218
9728.000000;0.080402
9727.000000;0.078780
9726.000000;0.077426
9725.000000;0.076226
9724.000000;0.074976
9723.000000;0.073591
9722.000000;0.072200
9721.000000;0.070990
9720.000000;0.070009
9719.000000;0.069109
9718.000000;0.068047
9717.000000;0.066644
9716.000000;0.064900
9715.000000;0.062982
9714.000000;0.061088
9713.000000;0.059320
9712.000000;0.057691
9711.000000;0.056191
9710.000000;0.054789
9709.000000;0.053390
9708.000000;0.051884
9707.000000;0.050254
9706.000000;0.048579
9705.000000;0.046939
9704.000000;0.045373
9703.000000;0.043919
9702.000000;0.042600
9701.000000;0.041329
9700.000000;0.039933
9699.000000;0.038338
9698.000000;0.036673
9697.000000;0.035110
9696.000000;0.033646
9695.000000;0.032151
9694.000000;0.030586
9693.000000;0.029063
9692.000000;0.027651
9691.000000;0.026241
9690.000000;0.024657
9689.000000;0.022870
9688.000000;0.021031
9687.000000;0.019312
9686.000000;0.017751
9685.000000;0.016244
9684.000000;0.014632
9683.000000;0.012824
9682.000000;0.010868
9681.000000;0.008928
9680.000000;0.007175
9679.000000;0.005682
9678.000000;0.004405
9677.000000;0.003225
9676.000000;0.002004
9675.000000;0.000625
9674.000000;-0.000951
9673.000000;-0.002650
9672.000000;-0.004340
9671.000000;-0.005944
9670.000000;-0.007513
9669.000000;-0.009181
9668.000000;-0.011055
9667.000000;-0.013129
9666.000000;-0.015249
9665.000000;-0.017181
9664.000000;-0.018773
9663.000000;-0.020108
9662.000000;-0.021479
9661.000000;-0.023171
9660.000000;-0.025252
9659.000000;-0.027558
9658.000000;-0.029849
9657.000000;-0.031936
9656.000000;-0.033738
9655.000000;-0.035319
9654.000000;-0.036863
9653.000000;-0.038517
9652.000000;-0.040241
9651.000000;-0.041873
9650.000000;-0.043376
9649.000000;-0.044927
9648.000000;-0.046715
9647.000000;-0.048716
9646.000000;-0.050725
9645.000000;-0.052567
9644.000000;-0.054216
9643.000000;-0.055762
9642.000000;-0.057343
9641.000000;-0.059056
9640.000000;-0.060865
9639.000000;-0.062607
9638.000000;-0.064176
9637.000000;-0.065687
9636.000000;-0.067351
9635.000000;-0.069208
9634.000000;-0.071092
9633.000000;-0.072902
9632.000000;-0.074760
9631.000000;-0.076800
9630.000000;-0.078906
9629.000000;-0.080802
9628.000000;-0.082387
9627.000000;-0.083867
9626.000000;-0.085526
9625.000000;-0.087447
9624.000000;-0.089490
9623.000000;-0.091476
9622.000000;-0.093331
9621.000000;-0.095078
9620.000000;-0.096755
9619.000000;-0.098402
9618.000000;-0.100114
9617.000000;-0.102063
9616.000000;-0.104387
9615.000000;-0.107007
9614.000000;-0.109574
9613.000000;-0.111699
9612.000000;-0.113299
9611.000000;-0.114702
9610.000000;-0.116357
9609.000000;-0.118415
9608.000000;-0.120612
9607.000000;-0.122568
9606.000000;-0.124174
9605.000000;-0.125663
9604.000000;-0.127328
9603.000000;-0.129244
9602.000000;-0.131277
9601.000000;-0.133303
9600.000000;-0.135329
9599.000000;-0.137415
9598.000000;-0.139551
9597.000000;-0.141644
9596.000000;-0.143606
9595.000000;-0.145438
9594.000000;-0.147242
9593.000000;-0.149160
9592.000000;-0.151257
9591.000000;-0.153439
9590.000000;-0.155526
9589.000000;-0.157412
9588.000000;-0.159162
9587.000000;-0.160932
9586.000000;-0.162824
9585.000000;-0.164823
9584.000000;-0.166838
9583.000000;-0.168780
9582.000000;-0.170632
9581.000000;-0.172497
9580.000000;-0.174535
9579.000000;-0.176813
9578.000000;-0.179200
9577.000000;-0.181449
9576.000000;-0.183389
9575.000000;-0.185027
9574.000000;-0.186513
9573.000000;-0.188049
9572.000000;-0.189795
9571.000000;-0.191787
9570.000000;-0.193929
9569.000000;-0.196099
9568.000000;-0.198254
9567.000000;-0.200399
9566.000000;-0.202476
9565.000000;-0.204369
9564.000000;-0.206057
9563.000000;-0.207691
9562.000000;-0.209452
9561.000000;-0.211384
9560.000000;-0.213386
9559.000000;-0.215345
9558.000000;-0.217221
9557.000000;-0.219028
9556.000000;-0.220809
9555.000000;-0.222647
9554.000000;-0.224631
9553.000000;-0.226793
9552.000000;-0.229090
9551.000000;-0.231439
9550.000000;-0.233760
9549.000000;-0.235976
9548.000000;-0.238015
9547.000000;-0.239850
9546.000000;-0.241529
9545.000000;-0.243144
9544.000000;-0.244783
9543.000000;-0.246503
9542.000000;-0.248341
9541.000000;-0.250293
9540.000000;-0.252266
9539.000000;-0.254110
9538.000000;-0.255753
9537.000000;-0.257292
9536.000000;-0.258923
9535.000000;-0.260773
9534.000000;-0.262825
9533.000000;-0.264968
9532.000000;-0.267058
9531.000000;-0.268951
9530.000000;-0.270573
9529.000000;-0.272019
9528.000000;-0.273504
9527.000000;-0.275160
9526.000000;-0.276914
9525.000000;-0.278610
9524.000000;-0.280186
9523.000000;-0.281700
9522.000000;-0.283268
9521.000000;-0.285030
9520.000000;-0.287077
9519.000000;-0.289289
9518.000000;-0.291322
9517.000000;-0.292903
9516.000000;-0.294133
9515.000000;-0.295352
9514.000000;-0.296731
9513.000000;-0.298154
9512.000000;-0.299503
9511.000000;-0.300841
9510.000000;-0.302264
9509.000000;-0.303724
9508.000000;-0.305151
9507.000000;-0.306598
9506.000000;-0.308161
9505.000000;-0.309827
9504.000000;-0.311511
9503.000000;-0.313150
9502.000000;-0.314655
9501.000000;-0.315884
9500.000000;-0.316817
9499.000000;-0.317689
9498.000000;-0.318800
9497.000000;-0.320198
9496.000000;-0.321672
9495.000000;-0.323040
9494.000000;-0.324313
9493.000000;-0.325581
9492.000000;-0.326864
9491.000000;-0.328134
9490.000000;-0.329354
9489.000000;-0.330475
9488.000000;-0.331437
9487.000000;-0.332221
9486.000000;-0.332869
9485.000000;-0.333456
9484.000000;-0.334060
9483.000000;-0.334742
9482.000000;-0.335487
9481.000000;-0.336212
9480.000000;-0.336878
9479.000000;-0.337575
9478.000000;-0.338412
9477.000000;-0.339356
9476.000000;-0.340282
9475.000000;-0.341161
9474.000000;-0.342079
9473.000000;-0.343065
9472.000000;-0.343974
9471.000000;-0.344613
9470.000000;-0.344942
9469.000000;-0.345131
9468.000000;-0.345460
9467.000000;-0.346093
9466.000000;-0.346893
9465.000000;-0.347489
9464.000000;-0.347635
9463.000000;-0.347512
9462.000000;-0.347563
9461.000000;-0.348014
9460.000000;-0.348655
9459.000000;-0.349117
9458.000000;-0.349277
9457.000000;-0.349324
9456.000000;-0.349521
9455.000000;-0.349960
9454.000000;-0.350513
9453.000000;-0.350947
9452.000000;-0.351101
9451.000000;-0.350989
9450.000000;-0.350737
9449.000000;-0.350456
9448.000000;-0.350217
9447.000000;-0.350079
9446.000000;-0.350052
9445.000000;-0.350018
9444.000000;-0.349831
9443.000000;-0.349514
9442.000000;-0.349250
9441.000000;-0.349133
9440.000000;-0.349025
9439.000000;-0.348728
9438.000000;-0.348208
9437.000000;-0.347586
9436.000000;-0.346967
9435.000000;-0.346373
9434.000000;-0.345794
9433.000000;-0.345216
9432.000000;-0.344634
9431.000000;-0.344088
9430.000000;-0.343654
9429.000000;-0.343330
9428.000000;-0.342952
9427.000000;-0.342319
9426.000000;-0.341418
9425.000000;-0.340458
9424.000000;-0.339657
9423.000000;-0.339027
9422.000000;-0.338413
9421.000000;-0.337709
9420.000000;-0.336998
9419.000000;-0.336436
9418.000000;-0.336026
9417.000000;-0.335547
9416.000000;-0.334763
9415.000000;-0.333656
9414.000000;-0.332408
9413.000000;-0.331208
9412.000000;-0.330140
9411.000000;-0.329208
9410.000000;-0.328334
9409.000000;-0.327350
9408.000000;-0.326140
9407.000000;-0.324833
9406.000000;-0.323729
9405.000000;-0.322947
9404.000000;-0.322289
9403.000000;-0.321505
9402.000000;-0.320557
9401.000000;-0.319477
9400.000000;-0.318159
9399.000000;-0.316509
9398.000000;-0.314737
9397.000000;-0.313239
9396.000000;-0.312149
9395.000000;-0.311222
9394.000000;-0.310212
9393.000000;-0.309171
9392.000000;-0.308242
9391.000000;-0.307332
9390.000000;-0.306188
9389.000000;-0.304740
9388.000000;-0.303208
9387.000000;-0.301839
9386.000000;-0.300660
9385.000000;-0.299532
9384.000000;-0.298353
9383.000000;-0.297125
9382.000000;-0.295848
9381.000000;-0.294453
9380.000000;-0.292891
9379.000000;-0.291243
9378.000000;-0.289682
9377.000000;-0.288291
9376.000000;-0.286969
9375.000000;-0.285556
9374.000000;-0.284020
9373.000000;-0.282475
9372.000000;-0.281023
9371.000000;-0.279644
9370.000000;-0.278237
9369.000000;-0.276723
9368.000000;-0.275099
9367.000000;-0.273451
9366.000000;-0.271910
9365.000000;-0.270557
9364.000000;-0.269319
9363.000000;-0.268009
9362.000000;-0.266503
9361.000000;-0.264838
9360.000000;-0.263142
9359.000000;-0.261507
9358.000000;-0.259981
9357.000000;-0.258625
9356.000000;-0.257470
9355.000000;-0.256397
9354.000000;-0.255153
9353.000000;-0.253580
9352.000000;-0.251819
9351.000000;-0.250224
9350.000000;-0.249048
9349.000000;-0.248214
9348.000000;-0.247416
9347.000000;-0.246351
9346.000000;-0.244866
9345.000000;-0.242964
9344.000000;-0.240815
9343.000000;-0.238718
9342.000000;-0.236914
9341.000000;-0.235400
9340.000000;-0.233995
9339.000000;-0.232594
9338.000000;-0.231269
9337.000000;-0.230071
9336.000000;-0.228874
9335.000000;-0.227521
9334.000000;-0.226013
9333.000000;-0.224457
9332.000000;-0.222897
9331.000000;-0.221329
9330.000000;-0.219818
9329.000000;-0.218456
9328.000000;-0.217204
9327.000000;-0.215915
9326.000000;-0.214518
9325.000000;-0.213051
9324.000000;-0.211537
9323.000000;-0.209957
9322.000000;-0.208393
9321.000000;-0.207029
9320.000000;-0.205921
9319.000000;-0.204854
9318.000000;-0.203548
9317.000000;-0.201928
9316.000000;-0.200143
9315.000000;-0.198364
9314.000000;-0.196659
9313.000000;-0.195057
9312.000000;-0.193608
9311.000000;-0.192343
9310.000000;-0.191180
9309.000000;-0.189928
9308.000000;-0.188423
9307.000000;-0.186686
9306.000000;-0.184928
9305.000000;-0.183353
9304.000000;-0.182002
9303.000000;-0.180798
9302.000000;-0.179687
9301.000000;-0.178612
9300.000000;-0.177423
9299.000000;-0.175977
9298.000000;-0.174352
9297.000000;-0.172804
9296.000000;-0.171449
9295.000000;-0.170122
9294.000000;-0.168649
9293.000000;-0.167105
9292.000000;-0.165682
9291.000000;-0.164394
9290.000000;-0.163086
9289.000000;-0.161693
9288.000000;-0.160320
9287.000000;-0.159047
9286.000000;-0.157833
9285.000000;-0.156642
9284.000000;-0.155536
9283.000000;-0.154553
9282.000000;-0.153584
9281.000000;-0.152470
9280.000000;-0.151187
9279.000000;-0.149852
9278.000000;-0.148557
9277.000000;-0.147282
9276.000000;-0.145964
9275.000000;-0.144581
9274.000000;-0.143128
9273.000000;-0.141592
9272.000000;-0.139995
9271.000000;-0.138442
9270.000000;-0.137043
9269.000000;-0.135801
9268.000000;-0.134645
9267.000000;-0.133572
9266.000000;-0.132660
9265.000000;-0.131892
9264.000000;-0.131044
9263.000000;-0.129857
9262.000000;-0.128294
9261.000000;-0.126561
9260.000000;-0.124910
9259.000000;-0.123503
9258.000000;-0.122400
9257.000000;-0.121543
9256.000000;-0.120741
9255.000000;-0.119784
9254.000000;-0.118648
9253.000000;-0.117469
9252.000000;-0.116303
9251.000000;-0.115034
9250.000000;-0.113594
9249.000000;-0.112156
9248.000000;-0.110994
9247.000000;-0.110175
9246.000000;-0.109481
9245.000000;-0.108620
9244.000000;-0.107448
9243.000000;-0.106042
9242.000000;-0.104651
9241.000000;-0.103543
9240.000000;-0.102775
9239.000000;-0.102106
9238.000000;-0.101191
9237.000000;-0.099892
9236.000000;-0.098360
9235.000000;-0.096858
9234.000000;-0.095558
9233.000000;-0.094492
9232.000000;-0.093574
9231.000000;-0.092650
9230.000000;-0.091595
9229.000000;-0.090418
9228.000000;-0.089256
9227.000000;-0.088231
9226.000000;-0.087341
9225.000000;-0.086476
9224.000000;-0.085514
9223.000000;-0.084391
9222.000000;-0.083158
9221.000000;-0.081963
9220.000000;-0.080934
9219.000000;-0.080032
9218.000000;-0.079062
9217.000000;-0.077869
9216.000000;-0.076502
9215.000000;-0.075183
9214.000000;-0.074109
9213.000000;-0.073322
9212.000000;-0.072697
9211.000000;-0.072035
9210.000000;-0.071174
9209.000000;-0.070084
9208.000000;-0.068876
9207.000000;-0.067711
9206.000000;-0.066689
9205.000000;-0.065825
9204.000000;-0.065094
9203.000000;-0.064442
9202.000000;-0.063772
9201.000000;-0.062974
9200.000000;-0.062016
9199.000000;-0.060975
9198.000000;-0.059945
9197.000000;-0.058931
9196.000000;-0.057868
9195.000000;-0.056726
9194.000000;-0.055565
9193.000000;-0.054484
9192.000000;-0.053535
9191.000000;-0.052681
9190.000000;-0.051811
9189.000000;-0.050819
9188.000000;-0.049721
9187.000000;-0.048682
9186.000000;-0.047865
9185.000000;-0.047217
9184.000000;-0.046487
9183.000000;-0.045501
9182.000000;-0.044383
9181.000000;-0.043418
9180.000000;-0.042719
9179.000000;-0.042105
9178.000000;-0.041314
9177.000000;-0.040277
9176.000000;-0.039155
9175.000000;-0.038138
9174.000000;-0.037263
9173.000000;-0.036396
9172.000000;-0.035404
9171.000000;-0.034316
9170.000000;-0.033291
9169.000000;-0.032430
9168.000000;-0.031647
9167.000000;-0.030800
9166.000000;-0.029884
9165.000000;-0.029035
9164.000000;-0.028342
9163.000000;-0.027745
9162.000000;-0.027157
9161.000000;-0.026604
9160.000000;-0.026174
9159.000000;-0.025851
9158.000000;-0.025455
9157.000000;-0.024778
9156.000000;-0.023755
9155.000000;-0.022543
9154.000000;-0.021423
9153.000000;-0.020615
9152.000000;-0.020112
9151.000000;-0.019680
9150.000000;-0.019038
9149.000000;-0.018089
9148.000000;-0.017002
9147.000000;-0.016070
9146.000000;-0.015462
9145.000000;-0.015084
9144.000000;-0.014697
9143.000000;-0.014147
9142.000000;-0.013455
9141.000000;-0.012702
9140.000000;-0.011879
9139.000000;-0.010922
9138.000000;-0.009841
9137.000000;-0.008755
9136.000000;-0.007779
9135.000000;-0.006937
9134.000000;-0.006170
9133.000000;-0.005431
9132.000000;-0.004729
9131.000000;-0.004117
9130.000000;-0.003628
9129.000000;-0.003212
9128.000000;-0.002771
9127.000000;-0.002267
9126.000000;-0.001746
9125.000000;-0.001240
9124.000000;-0.000669
9123.000000;0.000081
9122.000000;0.001016
9121.000000;0.002031
9120.000000;0.003025
9119.000000;0.003951
9118.000000;0.004748
9117.000000;0.005339
9116.000000;0.005738
9115.000000;0.006111
9114.000000;0.006666
9113.000000;0.007465
9112.000000;0.008356
9111.000000;0.009100
9110.000000;0.009590
9109.000000;0.009963
9108.000000;0.010462
9107.000000;0.011158
9106.000000;0.011888
9105.000000;0.012494
9104.000000;0.013042
9103.000000;0.013699
9102.000000;0.014428
9101.000000;0.014989
9100.000000;0.015269
9099.000000;0.015479
9098.000000;0.015940
9097.000000;0.016758
9096.000000;0.017769
9095.000000;0.018740
9094.000000;0.019532
9093.000000;0.020114
9092.000000;0.020513
9091.000000;0.020781
9090.000000;0.021006
9089.000000;0.021335
9088.000000;0.021939
9087.000000;0.022873
9086.000000;0.023966
9085.000000;0.024941
9084.000000;0.025663
9083.000000;0.026206
9082.000000;0.026651
9081.000000;0.026951
9080.000000;0.027067
9079.000000;0.027148
