Criado como novo conjunto de dados;"0307_DANIEL.spp","13862.7 Secs"
cm-1;Abs
10000.000000;0.825640
9999.000000;0.824092
9998.000000;0.822750
9997.000000;0.821765
9996.000000;0.820912
9995.000000;0.819785
9994.000000;0.818178
9993.000000;0.816305
9992.000000;0.814603
9991.000000;0.813277
9990.000000;0.812180
9989.000000;0.811193
9988.000000;0.810498
9987.000000;0.810251
9986.000000;0.810141
9985.000000;0.809583
9984.000000;0.808358
9983.000000;0.806795
9982.000000;0.805323
9981.000000;0.804076
9980.000000;0.802967
9979.000000;0.801871
9978.000000;0.800666
9977.000000;0.799308
9976.000000;0.797947
9975.000000;0.796791
9974.000000;0.795794
9973.000000;0.794646
9972.000000;0.793173
9971.000000;0.791567
9970.000000;0.790141
9969.000000;0.788989
9968.000000;0.787959
9967.000000;0.786851
9966.000000;0.785572
9965.000000;0.784186
9964.000000;0.782875
9963.000000;0.781785
9962.000000;0.780886
9961.000000;0.780004
9960.000000;0.778969
9959.000000;0.777700
9958.000000;0.776238
9957.000000;0.774792
9956.000000;0.773620
9955.000000;0.772705
9954.000000;0.771650
9953.000000;0.770123
9952.000000;0.768342
9951.000000;0.766865
9950.000000;0.765923
9949.000000;0.765166
9948.000000;0.764142
9947.000000;0.762788
9946.000000;0.761378
9945.000000;0.760154
9944.000000;0.759119
9943.000000;0.758083
9942.000000;0.756818
9941.000000;0.755251
9940.000000;0.753552
9939.000000;0.752039
9938.000000;0.750952
9937.000000;0.750278
9936.000000;0.749698
9935.000000;0.748716
9934.000000;0.747053
9933.000000;0.744991
9932.000000;0.743158
9931.000000;0.741863
9930.000000;0.740817
9929.000000;0.739661
9928.000000;0.738478
9927.000000;0.737538
9926.000000;0.736780
9925.000000;0.735900
9924.000000;0.734794
9923.000000;0.733570
9922.000000;0.732229
9921.000000;0.730716
9920.000000;0.729205
9919.000000;0.727952
9918.000000;0.726881
9917.000000;0.725706
9916.000000;0.724446
9915.000000;0.723416
9914.000000;0.722664
9913.000000;0.721786
9912.000000;0.720433
9911.000000;0.718682
9910.000000;0.716819
9909.000000;0.715037
9908.000000;0.713438
9907.000000;0.712042
9906.000000;0.710671
9905.000000;0.709101
9904.000000;0.707403
9903.000000;0.705900
9902.000000;0.704703
9901.000000;0.703592
9900.000000;0.702407
9899.000000;0.701264
9898.000000;0.700247
9897.000000;0.699180
9896.000000;0.697895
9895.000000;0.696473
9894.000000;0.695070
9893.000000;0.693700
9892.000000;0.692320
9891.000000;0.690956
9890.000000;0.689587
9889.000000;0.688095
9888.000000;0.686440
9887.000000;0.684731
9886.000000;0.683052
9885.000000;0.681424
9884.000000;0.679993
9883.000000;0.678993
9882.000000;0.678398
9881.000000;0.677801
9880.000000;0.676791
9879.000000;0.675298
9878.000000;0.673462
9877.000000;0.671406
9876.000000;0.669307
9875.000000;0.667479
9874.000000;0.666182
9873.000000;0.665397
9872.000000;0.664888
9871.000000;0.664376
9870.000000;0.663582
9869.000000;0.662281
9868.000000;0.660473
9867.000000;0.658429
9866.000000;0.656473
9865.000000;0.654763
9864.000000;0.653288
9863.000000;0.651948
9862.000000;0.650619
9861.000000;0.649272
9860.000000;0.648042
9859.000000;0.647040
9858.000000;0.646108
9857.000000;0.644941
9856.000000;0.643463
9855.000000;0.641872
9854.000000;0.640304
9853.000000;0.638686
9852.000000;0.636990
9851.000000;0.635349
9850.000000;0.633844
9849.000000;0.632357
9848.000000;0.630764
9847.000000;0.629087
9846.000000;0.627390
9845.000000;0.625715
9844.000000;0.624167
9843.000000;0.622852
9842.000000;0.621648
9841.000000;0.620261
9840.000000;0.618641
9839.000000;0.617104
9838.000000;0.615904
9837.000000;0.614861
9836.000000;0.613569
9835.000000;0.611823
9834.000000;0.609757
9833.000000;0.607692
9832.000000;0.605963
9831.000000;0.604705
9830.000000;0.603696
9829.000000;0.602550
9828.000000;0.601147
9827.000000;0.599691
9826.000000;0.598320
9825.000000;0.596885
9824.000000;0.595251
9823.000000;0.593575
9822.000000;0.592110
9821.000000;0.590878
9820.000000;0.589692
9819.000000;0.588372
9818.000000;0.586823
9817.000000;0.585060
9816.000000;0.583276
9815.000000;0.581737
9814.000000;0.580474
9813.000000;0.579231
9812.000000;0.577806
9811.000000;0.576270
9810.000000;0.574729
9809.000000;0.573086
9808.000000;0.571227
9807.000000;0.569275
9806.000000;0.567436
9805.000000;0.565715
9804.000000;0.563982
9803.000000;0.562239
9802.000000;0.560646
9801.000000;0.559297
9800.000000;0.558125
9799.000000;0.556973
9798.000000;0.555698
9797.000000;0.554247
9796.000000;0.552737
9795.000000;0.551341
9794.000000;0.550036
9793.000000;0.548555
9792.000000;0.546700
9791.000000;0.544621
9790.000000;0.542657
9789.000000;0.540994
9788.000000;0.539549
9787.000000;0.538099
9786.000000;0.536443
9785.000000;0.534531
9784.000000;0.532538
9783.000000;0.530729
9782.000000;0.529163
9781.000000;0.527619
9780.000000;0.525907
9779.000000;0.524132
9778.000000;0.522527
9777.000000;0.521121
9776.000000;0.519713
9775.000000;0.518141
9774.000000;0.516445
9773.000000;0.514777
9772.000000;0.513244
9771.000000;0.511838
9770.000000;0.510438
9769.000000;0.508902
9768.000000;0.507165
9767.000000;0.505246
9766.000000;0.503204
9765.000000;0.501132
9764.000000;0.499197
9763.000000;0.497553
9762.000000;0.496178
9761.000000;0.494863
9760.000000;0.493402
9759.000000;0.491718
9758.000000;0.489839
9757.000000;0.487862
9756.000000;0.485973
9755.000000;0.484354
9754.000000;0.483006
9753.000000;0.481742
9752.000000;0.480377
9751.000000;0.478832
9750.000000;0.477081
9749.000000;0.475124
9748.000000;0.473067
9747.000000;0.471067
9746.000000;0.469160
9745.000000;0.467236
9744.000000;0.465260
9743.000000;0.463361
9742.000000;0.461657
9741.000000;0.460094
9740.000000;0.458533
9739.000000;0.456921
9738.000000;0.455281
9737.000000;0.453623
9736.000000;0.451925
9735.000000;0.450146
9734.000000;0.448238
9733.000000;0.446195
9732.000000;0.444125
9731.000000;0.442191
9730.000000;0.440440
9729.000000;0.438748
9728.000000;0.436945
9727.000000;0.434943
9726.000000;0.432788
9725.000000;0.430646
9724.000000;0.428696
9723.000000;0.426953
9722.000000;0.425246
9721.000000;0.423473
9720.000000;0.421782
9719.000000;0.420366
9718.000000;0.419148
9717.000000;0.417855
9716.000000;0.416335
9715.000000;0.414597
9714.000000;0.412604
9713.000000;0.410306
9712.000000;0.407909
9711.000000;0.405800
9710.000000;0.404100
9709.000000;0.402495
9708.000000;0.400618
9707.000000;0.398430
9706.000000;0.396142
9705.000000;0.393920
9704.000000;0.391808
9703.000000;0.389792
9702.000000;0.387822
9701.000000;0.385855
9700.000000;0.383931
9699.000000;0.382127
9698.000000;0.380398
9697.000000;0.378589
9696.000000;0.376616
9695.000000;0.374534
9694.000000;0.372419
9693.000000;0.370332
9692.000000;0.368396
9691.000000;0.366695
9690.000000;0.365049
9689.000000;0.363102
9688.000000;0.360746
9687.000000;0.358312
9686.000000;0.356235
9685.000000;0.354635
9684.000000;0.353294
9683.000000;0.351911
9682.000000;0.350281
9681.000000;0.348369
9680.000000;0.346294
9679.000000;0.344211
9678.000000;0.342160
9677.000000;0.340098
9676.000000;0.338044
9675.000000;0.336072
9674.000000;0.334162
9673.000000;0.332201
9672.000000;0.330144
9671.000000;0.328025
9670.000000;0.325832
9669.000000;0.323543
9668.000000;0.321303
9667.000000;0.319338
9666.000000;0.317648
9665.000000;0.315971
9664.000000;0.314098
9663.000000;0.312037
9662.000000;0.309830
9661.000000;0.307429
9660.000000;0.304869
9659.000000;0.302356
9658.000000;0.300062
9657.000000;0.297975
9656.000000;0.296030
9655.000000;0.294223
9654.000000;0.292502
9653.000000;0.290698
9652.000000;0.288682
9651.000000;0.286473
9650.000000;0.284136
9649.000000;0.281714
9648.000000;0.279311
9647.000000;0.277053
9646.000000;0.274898
9645.000000;0.272671
9644.000000;0.270365
9643.000000;0.268202
9642.000000;0.266269
9641.000000;0.264326
9640.000000;0.262128
9639.000000;0.259751
9638.000000;0.257424
9637.000000;0.255183
9636.000000;0.252901
9635.000000;0.250545
9634.000000;0.248214
9633.000000;0.245996
9632.000000;0.243929
9631.000000;0.242039
9630.000000;0.240263
9629.000000;0.238405
9628.000000;0.236292
9627.000000;0.233969
9626.000000;0.231621
9625.000000;0.229360
9624.000000;0.227178
9623.000000;0.225027
9622.000000;0.222875
9621.000000;0.220708
9620.000000;0.218572
9619.000000;0.216549
9618.000000;0.214654
9617.000000;0.212794
9616.000000;0.210845
9615.000000;0.208697
9614.000000;0.206262
9613.000000;0.203566
9612.000000;0.200851
9611.000000;0.198405
9610.000000;0.196218
9609.000000;0.193995
9608.000000;0.191583
9607.000000;0.189186
9606.000000;0.187042
9605.000000;0.185056
9604.000000;0.182965
9603.000000;0.180710
9602.000000;0.178440
9601.000000;0.176218
9600.000000;0.173927
9599.000000;0.171464
9598.000000;0.168875
9597.000000;0.166300
9596.000000;0.163879
9595.000000;0.161685
9594.000000;0.159663
9593.000000;0.157651
9592.000000;0.155513
9591.000000;0.153243
9590.000000;0.150897
9589.000000;0.148522
9588.000000;0.146176
9587.000000;0.143925
9586.000000;0.141731
9585.000000;0.139440
9584.000000;0.136974
9583.000000;0.134452
9582.000000;0.132024
9581.000000;0.129681
9580.000000;0.127347
9579.000000;0.125056
9578.000000;0.122884
9577.000000;0.120752
9576.000000;0.118460
9575.000000;0.115941
9574.000000;0.113366
9573.000000;0.110946
9572.000000;0.108711
9571.000000;0.106511
9570.000000;0.104197
9569.000000;0.101755
9568.000000;0.099304
9567.000000;0.096967
9566.000000;0.094764
9565.000000;0.092589
9564.000000;0.090317
9563.000000;0.087919
9562.000000;0.085497
9561.000000;0.083204
9560.000000;0.081100
9559.000000;0.079084
9558.000000;0.076999
9557.000000;0.074828
9556.000000;0.072700
9555.000000;0.070655
9554.000000;0.068509
9553.000000;0.066063
9552.000000;0.063391
9551.000000;0.060775
9550.000000;0.058369
9549.000000;0.056071
9548.000000;0.053727
9547.000000;0.051332
9546.000000;0.048998
9545.000000;0.046846
9544.000000;0.044948
9543.000000;0.043273
9542.000000;0.041630
9541.000000;0.039766
9540.000000;0.037557
9539.000000;0.035077
9538.000000;0.032471
9537.000000;0.029861
9536.000000;0.027352
9535.000000;0.025027
9534.000000;0.022894
9533.000000;0.020904
9532.000000;0.019012
9531.000000;0.017161
9530.000000;0.015258
9529.000000;0.013244
9528.000000;0.011175
9527.000000;0.009131
9526.000000;0.007083
9525.000000;0.004978
9524.000000;0.002902
9523.000000;0.000990
9522.000000;-0.000811
9521.000000;-0.002729
9520.000000;-0.004904
9519.000000;-0.007256
9518.000000;-0.009618
9517.000000;-0.011834
9516.000000;-0.013765
9515.000000;-0.015369
9514.000000;-0.016816
9513.000000;-0.018372
9512.000000;-0.020136
9511.000000;-0.022022
9510.000000;-0.023957
9509.000000;-0.025914
9508.000000;-0.027783
9507.000000;-0.029428
9506.000000;-0.030930
9505.000000;-0.032537
9504.000000;-0.034323
9503.000000;-0.036099
9502.000000;-0.037725
9501.000000;-0.039315
9500.000000;-0.041038
9499.000000;-0.042908
9498.000000;-0.044855
9497.000000;-0.046799
9496.000000;-0.048584
9495.000000;-0.050020
9494.000000;-0.051145
9493.000000;-0.052258
9492.000000;-0.053581
9491.000000;-0.055041
9490.000000;-0.056490
9489.000000;-0.057945
9488.000000;-0.059449
9487.000000;-0.060875
9486.000000;-0.062074
9485.000000;-0.063090
9484.000000;-0.064067
9483.000000;-0.065042
9482.000000;-0.066000
9481.000000;-0.067019
9480.000000;-0.068185
9479.000000;-0.069435
9478.000000;-0.070647
9477.000000;-0.071818
9476.000000;-0.073020
9475.000000;-0.074238
9474.000000;-0.075397
9473.000000;-0.076460
9472.000000;-0.077397
9471.000000;-0.078131
9470.000000;-0.078684
9469.000000;-0.079308
9468.000000;-0.080289
9467.000000;-0.081642
9466.000000;-0.083089
9465.000000;-0.084307
9464.000000;-0.085104
9463.000000;-0.085451
9462.000000;-0.085500
9461.000000;-0.085539
9460.000000;-0.085795
9459.000000;-0.086264
9458.000000;-0.086817
9457.000000;-0.087430
9456.000000;-0.088161
9455.000000;-0.088971
9454.000000;-0.089682
9453.000000;-0.090141
9452.000000;-0.090318
9451.000000;-0.090304
9450.000000;-0.090283
9449.000000;-0.090460
9448.000000;-0.090877
9447.000000;-0.091326
9446.000000;-0.091541
9445.000000;-0.091485
9444.000000;-0.091331
9443.000000;-0.091236
9442.000000;-0.091233
9441.000000;-0.091319
9440.000000;-0.091487
9439.000000;-0.091673
9438.000000;-0.091771
9437.000000;-0.091732
9436.000000;-0.091584
9435.000000;-0.091362
9434.000000;-0.091106
9433.000000;-0.090895
9432.000000;-0.090795
9431.000000;-0.090776
9430.000000;-0.090772
9429.000000;-0.090777
9428.000000;-0.090779
9427.000000;-0.090656
9426.000000;-0.090270
9425.000000;-0.089678
9424.000000;-0.089094
9423.000000;-0.088631
9422.000000;-0.088196
9421.000000;-0.087662
9420.000000;-0.086999
9419.000000;-0.086189
9418.000000;-0.085195
9417.000000;-0.084102
9416.000000;-0.083196
9415.000000;-0.082722
9414.000000;-0.082607
9413.000000;-0.082512
9412.000000;-0.082151
9411.000000;-0.081483
9410.000000;-0.080651
9409.000000;-0.079825
9408.000000;-0.079115
9407.000000;-0.078521
9406.000000;-0.077919
9405.000000;-0.077153
9404.000000;-0.076190
9403.000000;-0.075180
9402.000000;-0.074305
9401.000000;-0.073588
9400.000000;-0.072869
9399.000000;-0.071971
9398.000000;-0.070860
9397.000000;-0.069640
9396.000000;-0.068455
9395.000000;-0.067422
9394.000000;-0.066618
9393.000000;-0.066039
9392.000000;-0.065537
9391.000000;-0.064865
9390.000000;-0.063865
9389.000000;-0.062623
9388.000000;-0.061397
9387.000000;-0.060381
9386.000000;-0.059527
9385.000000;-0.058620
9384.000000;-0.057497
9383.000000;-0.056189
9382.000000;-0.054854
9381.000000;-0.053619
9380.000000;-0.052509
9379.000000;-0.051503
9378.000000;-0.050581
9377.000000;-0.049712
9376.000000;-0.048822
9375.000000;-0.047828
9374.000000;-0.046695
9373.000000;-0.045449
9372.000000;-0.044146
9371.000000;-0.042841
9370.000000;-0.041567
9369.000000;-0.040339
9368.000000;-0.039192
9367.000000;-0.038203
9366.000000;-0.037399
9365.000000;-0.036656
9364.000000;-0.035758
9363.000000;-0.034616
9362.000000;-0.033333
9361.000000;-0.032037
9360.000000;-0.030727
9359.000000;-0.029335
9358.000000;-0.027872
9357.000000;-0.026420
9356.000000;-0.025034
9355.000000;-0.023737
9354.000000;-0.022539
9353.000000;-0.021391
9352.000000;-0.020191
9351.000000;-0.018934
9350.000000;-0.017794
9349.000000;-0.016908
9348.000000;-0.016133
9347.000000;-0.015144
9346.000000;-0.013790
9345.000000;-0.012226
9344.000000;-0.010702
9343.000000;-0.009334
9342.000000;-0.008108
9341.000000;-0.006986
9340.000000;-0.005946
9339.000000;-0.004985
9338.000000;-0.004102
9337.000000;-0.003246
9336.000000;-0.002279
9335.000000;-0.001087
9334.000000;0.000272
9333.000000;0.001585
9332.000000;0.002670
9331.000000;0.003524
9330.000000;0.004291
9329.000000;0.005164
9328.000000;0.006273
9327.000000;0.007600
9326.000000;0.009022
9325.000000;0.010463
9324.000000;0.011957
9323.000000;0.013497
9322.000000;0.014909
9321.000000;0.016003
9320.000000;0.016801
9319.000000;0.017513
9318.000000;0.018335
9317.000000;0.019375
9316.000000;0.020681
9315.000000;0.022179
9314.000000;0.023650
9313.000000;0.024939
9312.000000;0.026153
9311.000000;0.027482
9310.000000;0.028859
9309.000000;0.030021
9308.000000;0.030906
9307.000000;0.031761
9306.000000;0.032826
9305.000000;0.034098
9304.000000;0.035463
9303.000000;0.036853
9302.000000;0.038173
9301.000000;0.039279
9300.000000;0.040153
9299.000000;0.040974
9298.000000;0.041928
9297.000000;0.043019
9296.000000;0.044158
9295.000000;0.045299
9294.000000;0.046417
9293.000000;0.047486
9292.000000;0.048526
9291.000000;0.049597
9290.000000;0.050682
9289.000000;0.051710
9288.000000;0.052726
9287.000000;0.053870
9286.000000;0.055123
9285.000000;0.056262
9284.000000;0.057189
9283.000000;0.058113
9282.000000;0.059255
9281.000000;0.060538
9280.000000;0.061737
9279.000000;0.062813
9278.000000;0.063868
9277.000000;0.064886
9276.000000;0.065741
9275.000000;0.066469
9274.000000;0.067306
9273.000000;0.068411
9272.000000;0.069695
9271.000000;0.070967
9270.000000;0.072145
9269.000000;0.073252
9268.000000;0.074290
9267.000000;0.075207
9266.000000;0.075979
9265.000000;0.076674
9264.000000;0.077425
9263.000000;0.078333
9262.000000;0.079397
9261.000000;0.080543
9260.000000;0.081675
9259.000000;0.082687
9258.000000;0.083503
9257.000000;0.084200
9256.000000;0.085030
9255.000000;0.086184
9254.000000;0.087506
9253.000000;0.088607
9252.000000;0.089326
9251.000000;0.089940
9250.000000;0.090833
9249.000000;0.092050
9248.000000;0.093308
9247.000000;0.094361
9246.000000;0.095212
9245.000000;0.095996
9244.000000;0.096797
9243.000000;0.097603
9242.000000;0.098381
9241.000000;0.099154
9240.000000;0.100000
9239.000000;0.100970
9238.000000;0.102002
9237.000000;0.102951
9236.000000;0.103720
9235.000000;0.104336
9234.000000;0.104889
9233.000000;0.105470
9232.000000;0.106177
9231.000000;0.107107
9230.000000;0.108270
9229.000000;0.109537
9228.000000;0.110710
9227.000000;0.111647
9226.000000;0.112331
9225.000000;0.112890
9224.000000;0.113521
9223.000000;0.114361
9222.000000;0.115376
9221.000000;0.116426
9220.000000;0.117416
9219.000000;0.118335
9218.000000;0.119166
9217.000000;0.119867
9216.000000;0.120442
9215.000000;0.120947
9214.000000;0.121421
9213.000000;0.121893
9212.000000;0.122462
9211.000000;0.123235
9210.000000;0.124173
9209.000000;0.125092
9208.000000;0.125874
9207.000000;0.126585
9206.000000;0.127335
9205.000000;0.128143
9204.000000;0.128950
9203.000000;0.129697
9202.000000;0.130328
9201.000000;0.130835
9200.000000;0.131351
9199.000000;0.132068
9198.000000;0.132997
9197.000000;0.133924
9196.000000;0.134687
9195.000000;0.135386
9194.000000;0.136215
9193.000000;0.137174
9192.000000;0.138092
9191.000000;0.138861
9190.000000;0.139516
9189.000000;0.140088
9188.000000;0.140548
9187.000000;0.140915
9186.000000;0.141347
9185.000000;0.142026
9184.000000;0.142964
9183.000000;0.143948
9182.000000;0.144714
9181.000000;0.145200
9180.000000;0.145622
9179.000000;0.146230
9178.000000;0.147014
9177.000000;0.147732
9176.000000;0.148256
9175.000000;0.148749
9174.000000;0.149432
9173.000000;0.150288
9172.000000;0.151097
9171.000000;0.151729
9170.000000;0.152257
9169.000000;0.152787
9168.000000;0.153326
9167.000000;0.153854
9166.000000;0.154444
9165.000000;0.155207
9164.000000;0.156119
9163.000000;0.156975
9162.000000;0.157553
9161.000000;0.157834
9160.000000;0.158023
9159.000000;0.158364
9158.000000;0.158953
9157.000000;0.159738
9156.000000;0.160628
9155.000000;0.161531
9154.000000;0.162329
9153.000000;0.162917
9152.000000;0.163311
9151.000000;0.163646
9150.000000;0.164043
9149.000000;0.164499
9148.000000;0.164913
9147.000000;0.165217
9146.000000;0.165476
9145.000000;0.165873
9144.000000;0.166561
9143.000000;0.167498
9142.000000;0.168453
9141.000000;0.169223
9140.000000;0.169805
9139.000000;0.170317
9138.000000;0.170819
9137.000000;0.171283
9136.000000;0.171702
9135.000000;0.172131
9134.000000;0.172600
9133.000000;0.173097
9132.000000;0.173605
9131.000000;0.174106
9130.000000;0.174563
9129.000000;0.174984
9128.000000;0.175450
9127.000000;0.176015
9126.000000;0.176584
9125.000000;0.177032
9124.000000;0.177396
9123.000000;0.177828
9122.000000;0.178368
9121.000000;0.178901
9120.000000;0.179349
9119.000000;0.179751
9118.000000;0.180136
9117.000000;0.180470
9116.000000;0.180795
9115.000000;0.181253
9114.000000;0.181880
9113.000000;0.182486
9112.000000;0.182858
9111.000000;0.183022
9110.000000;0.183202
9109.000000;0.183559
9108.000000;0.184055
9107.000000;0.184542
9106.000000;0.184930
9105.000000;0.185292
9104.000000;0.185805
9103.000000;0.186546
9102.000000;0.187335
9101.000000;0.187859
9100.000000;0.187986
9099.000000;0.187890
9098.000000;0.187867
9097.000000;0.188079
9096.000000;0.188514
9095.000000;0.189086
9094.000000;0.189711
9093.000000;0.190334
9092.000000;0.190939
9091.000000;0.191514
9090.000000;0.192002
9089.000000;0.192338
9088.000000;0.192537
9087.000000;0.192687
9086.000000;0.192852
9085.000000;0.193052
9084.000000;0.193331
9083.000000;0.193747
9082.000000;0.194247
9081.000000;0.194677
9080.000000;0.194968
9079.000000;0.195235
9078.000000;0.195639
9077.000000;0.196206
9076.000000;0.196835
9075.000000;0.197417
9074.000000;0.197888
9073.000000;0.198221
9072.000000;0.198425
9071.000000;0.198530
9070.000000;0.198570
9069.000000;0.198598
9068.000000;0.198723
9067.000000;0.199044
9066.000000;0.199532
9065.000000;0.200039
9064.000000;0.200462
9063.000000;0.200840
9062.000000;0.201267
