Criado como novo conjunto de dados;"0307_DANIEL.spp","41764.5 Secs"
cm-1;Abs
10000.000000;1.072211
9999.000000;1.069889
9998.000000;1.067377
9997.000000;1.065437
9996.000000;1.064315
9995.000000;1.063550
9994.000000;1.062464
9993.000000;1.060913
9992.000000;1.059425
9991.000000;1.058544
9990.000000;1.058183
9989.000000;1.057692
9988.000000;1.056484
9987.000000;1.054541
9986.000000;1.052441
9985.000000;1.050923
9984.000000;1.050339
9983.000000;1.050395
9982.000000;1.050417
9981.000000;1.049893
9980.000000;1.048714
9979.000000;1.046992
9978.000000;1.044853
9977.000000;1.042520
9976.000000;1.040412
9975.000000;1.038931
9974.000000;1.038091
9973.000000;1.037448
9972.000000;1.036475
9971.000000;1.035056
9970.000000;1.033587
9969.000000;1.032533
9968.000000;1.031899
9967.000000;1.031182
9966.000000;1.029886
9965.000000;1.028038
9964.000000;1.026128
9963.000000;1.024594
9962.000000;1.023486
9961.000000;1.022573
9960.000000;1.021634
9959.000000;1.020597
9958.000000;1.019510
9957.000000;1.018433
9956.000000;1.017350
9955.000000;1.016183
9954.000000;1.014913
9953.000000;1.013622
9952.000000;1.012345
9951.000000;1.010926
9950.000000;1.009137
9949.000000;1.006949
9948.000000;1.004601
9947.000000;1.002445
9946.000000;1.000781
9945.000000;0.999773
9944.000000;0.999291
9943.000000;0.998840
9942.000000;0.997840
9941.000000;0.996141
9940.000000;0.994175
9939.000000;0.992566
9938.000000;0.991650
9937.000000;0.991330
9936.000000;0.991178
9935.000000;0.990642
9934.000000;0.989400
9933.000000;0.987685
9932.000000;0.986097
9931.000000;0.984947
9930.000000;0.983916
9929.000000;0.982559
9928.000000;0.980938
9927.000000;0.979492
9926.000000;0.978349
9925.000000;0.977168
9924.000000;0.975726
9923.000000;0.974322
9922.000000;0.973380
9921.000000;0.972843
9920.000000;0.972225
9919.000000;0.971189
9918.000000;0.969847
9917.000000;0.968498
9916.000000;0.967250
9915.000000;0.965961
9914.000000;0.964453
9913.000000;0.962723
9912.000000;0.960994
9911.000000;0.959556
9910.000000;0.958500
9909.000000;0.957621
9908.000000;0.956626
9907.000000;0.955438
9906.000000;0.954182
9905.000000;0.952872
9904.000000;0.951301
9903.000000;0.949336
9902.000000;0.947202
9901.000000;0.945281
9900.000000;0.943667
9899.000000;0.942109
9898.000000;0.940433
9897.000000;0.938823
9896.000000;0.937568
9895.000000;0.936663
9894.000000;0.935846
9893.000000;0.934939
9892.000000;0.933956
9891.000000;0.932861
9890.000000;0.931444
9889.000000;0.929594
9888.000000;0.927596
9887.000000;0.925986
9886.000000;0.925078
9885.000000;0.924667
9884.000000;0.924175
9883.000000;0.923065
9882.000000;0.921208
9881.000000;0.918918
9880.000000;0.916647
9879.000000;0.914634
9878.000000;0.912852
9877.000000;0.911251
9876.000000;0.909931
9875.000000;0.908985
9874.000000;0.908251
9873.000000;0.907358
9872.000000;0.906023
9871.000000;0.904286
9870.000000;0.902463
9869.000000;0.900915
9868.000000;0.899782
9867.000000;0.898851
9866.000000;0.897726
9865.000000;0.896205
9864.000000;0.894474
9863.000000;0.892846
9862.000000;0.891397
9861.000000;0.889961
9860.000000;0.888391
9859.000000;0.886696
9858.000000;0.884931
9857.000000;0.883156
9856.000000;0.881510
9855.000000;0.880129
9854.000000;0.878905
9853.000000;0.877528
9852.000000;0.875883
9851.000000;0.874243
9850.000000;0.872903
9849.000000;0.871752
9848.000000;0.870397
9847.000000;0.868694
9846.000000;0.866962
9845.000000;0.865645
9844.000000;0.864858
9843.000000;0.864265
9842.000000;0.863350
9841.000000;0.861832
9840.000000;0.859861
9839.000000;0.857809
9838.000000;0.855873
9837.000000;0.853992
9836.000000;0.852153
9835.000000;0.850592
9834.000000;0.849524
9833.000000;0.848772
9832.000000;0.847869
9831.000000;0.846482
9830.000000;0.844640
9829.000000;0.842609
9828.000000;0.840731
9827.000000;0.839281
9826.000000;0.838256
9825.000000;0.837282
9824.000000;0.835942
9823.000000;0.834181
9822.000000;0.832250
9821.000000;0.830277
9820.000000;0.828144
9819.000000;0.825855
9818.000000;0.823768
9817.000000;0.822336
9816.000000;0.821650
9815.000000;0.821314
9814.000000;0.820691
9813.000000;0.819324
9812.000000;0.817270
9811.000000;0.815052
9810.000000;0.813167
9809.000000;0.811620
9808.000000;0.810036
9807.000000;0.808199
9806.000000;0.806276
9805.000000;0.804530
9804.000000;0.803031
9803.000000;0.801724
9802.000000;0.800522
9801.000000;0.799237
9800.000000;0.797645
9799.000000;0.795796
9798.000000;0.794029
9797.000000;0.792529
9796.000000;0.791043
9795.000000;0.789261
9794.000000;0.787311
9793.000000;0.785600
9792.000000;0.784264
9791.000000;0.782993
9790.000000;0.781416
9789.000000;0.779468
9788.000000;0.777408
9787.000000;0.775619
9786.000000;0.774364
9785.000000;0.773561
9784.000000;0.772774
9783.000000;0.771525
9782.000000;0.769649
9781.000000;0.767313
9780.000000;0.764826
9779.000000;0.762527
9778.000000;0.760706
9777.000000;0.759403
9776.000000;0.758311
9775.000000;0.757034
9774.000000;0.755431
9773.000000;0.753600
9772.000000;0.751618
9771.000000;0.749490
9770.000000;0.747294
9769.000000;0.745177
9768.000000;0.743203
9767.000000;0.741355
9766.000000;0.739689
9765.000000;0.738296
9764.000000;0.737116
9763.000000;0.735917
9762.000000;0.734488
9761.000000;0.732776
9760.000000;0.730880
9759.000000;0.729042
9758.000000;0.727542
9757.000000;0.726391
9756.000000;0.725164
9755.000000;0.723398
9754.000000;0.721167
9753.000000;0.719019
9752.000000;0.717287
9751.000000;0.715706
9750.000000;0.713801
9749.000000;0.711433
9748.000000;0.708862
9747.000000;0.706446
9746.000000;0.704429
9745.000000;0.702849
9744.000000;0.701496
9743.000000;0.700040
9742.000000;0.698353
9741.000000;0.696617
9740.000000;0.695026
9739.000000;0.693510
9738.000000;0.691889
9737.000000;0.690184
9736.000000;0.688580
9735.000000;0.687134
9734.000000;0.685663
9733.000000;0.683932
9732.000000;0.681842
9731.000000;0.679468
9730.000000;0.677038
9729.000000;0.674834
9728.000000;0.672986
9727.000000;0.671342
9726.000000;0.669646
9725.000000;0.667865
9724.000000;0.666225
9723.000000;0.664861
9722.000000;0.663542
9721.000000;0.661847
9720.000000;0.659581
9719.000000;0.656942
9718.000000;0.654292
9717.000000;0.651872
9716.000000;0.649751
9715.000000;0.647923
9714.000000;0.646332
9713.000000;0.644842
9712.000000;0.643327
9711.000000;0.641803
9710.000000;0.640378
9709.000000;0.639053
9708.000000;0.637643
9707.000000;0.635959
9706.000000;0.633973
9705.000000;0.631775
9704.000000;0.629480
9703.000000;0.627257
9702.000000;0.625265
9701.000000;0.623422
9700.000000;0.621347
9699.000000;0.618776
9698.000000;0.615996
9697.000000;0.613611
9696.000000;0.611862
9695.000000;0.610386
9694.000000;0.608686
9693.000000;0.606660
9692.000000;0.604551
9691.000000;0.602563
9690.000000;0.600679
9689.000000;0.598795
9688.000000;0.596891
9687.000000;0.595087
9686.000000;0.593506
9685.000000;0.592045
9684.000000;0.590314
9683.000000;0.587978
9682.000000;0.585208
9681.000000;0.582578
9680.000000;0.580464
9679.000000;0.578703
9678.000000;0.576961
9677.000000;0.575202
9676.000000;0.573581
9675.000000;0.572042
9674.000000;0.570311
9673.000000;0.568258
9672.000000;0.566017
9671.000000;0.563725
9670.000000;0.561377
9669.000000;0.558989
9668.000000;0.556703
9667.000000;0.554626
9666.000000;0.552707
9665.000000;0.550877
9664.000000;0.549151
9663.000000;0.547452
9662.000000;0.545487
9661.000000;0.543017
9660.000000;0.540213
9659.000000;0.537558
9658.000000;0.535350
9657.000000;0.533436
9656.000000;0.531492
9655.000000;0.529421
9654.000000;0.527361
9653.000000;0.525401
9652.000000;0.523445
9651.000000;0.521390
9650.000000;0.519292
9649.000000;0.517307
9648.000000;0.515472
9647.000000;0.513607
9646.000000;0.511419
9645.000000;0.508777
9644.000000;0.505904
9643.000000;0.503258
9642.000000;0.501089
9641.000000;0.499133
9640.000000;0.496868
9639.000000;0.494134
9638.000000;0.491353
9637.000000;0.489054
9636.000000;0.487273
9635.000000;0.485562
9634.000000;0.483509
9633.000000;0.481107
9632.000000;0.478627
9631.000000;0.476306
9630.000000;0.474213
9629.000000;0.472293
9628.000000;0.470446
9627.000000;0.468567
9626.000000;0.466558
9625.000000;0.464311
9624.000000;0.461763
9623.000000;0.459030
9622.000000;0.456442
9621.000000;0.454291
9620.000000;0.452531
9619.000000;0.450807
9618.000000;0.448807
9617.000000;0.446536
9616.000000;0.444210
9615.000000;0.441987
9614.000000;0.439834
9613.000000;0.437614
9612.000000;0.435231
9611.000000;0.432719
9610.000000;0.430221
9609.000000;0.427864
9608.000000;0.425644
9607.000000;0.423441
9606.000000;0.421141
9605.000000;0.418721
9604.000000;0.416242
9603.000000;0.413805
9602.000000;0.411486
9601.000000;0.409254
9600.000000;0.406973
9599.000000;0.404553
9598.000000;0.402073
9597.000000;0.399694
9596.000000;0.397466
9595.000000;0.395313
9594.000000;0.393145
9593.000000;0.390899
9592.000000;0.388474
9591.000000;0.385798
9590.000000;0.382981
9589.000000;0.380294
9588.000000;0.377903
9587.000000;0.375718
9586.000000;0.373517
9585.000000;0.371169
9584.000000;0.368708
9583.000000;0.366268
9582.000000;0.363997
9581.000000;0.361950
9580.000000;0.360005
9579.000000;0.357962
9578.000000;0.355770
9577.000000;0.353569
9576.000000;0.351466
9575.000000;0.349360
9574.000000;0.347091
9573.000000;0.344674
9572.000000;0.342266
9571.000000;0.339940
9570.000000;0.337606
9569.000000;0.335190
9568.000000;0.332773
9567.000000;0.330490
9566.000000;0.328325
9565.000000;0.326082
9564.000000;0.323583
9563.000000;0.320867
9562.000000;0.318166
9561.000000;0.315698
9560.000000;0.313521
9559.000000;0.311560
9558.000000;0.309670
9557.000000;0.307652
9556.000000;0.305289
9555.000000;0.302521
9554.000000;0.299549
9553.000000;0.296690
9552.000000;0.294115
9551.000000;0.291799
9550.000000;0.289672
9549.000000;0.287683
9548.000000;0.285716
9547.000000;0.283577
9546.000000;0.281144
9545.000000;0.278476
9544.000000;0.275751
9543.000000;0.273157
9542.000000;0.270838
9541.000000;0.268837
9540.000000;0.267050
9539.000000;0.265287
9538.000000;0.263431
9537.000000;0.261460
9536.000000;0.259340
9535.000000;0.257001
9534.000000;0.254502
9533.000000;0.252075
9532.000000;0.249931
9531.000000;0.248043
9530.000000;0.246203
9529.000000;0.244232
9528.000000;0.242102
9527.000000;0.239898
9526.000000;0.237759
9525.000000;0.235801
9524.000000;0.234005
9523.000000;0.232175
9522.000000;0.230080
9521.000000;0.227668
9520.000000;0.225128
9519.000000;0.222721
9518.000000;0.220572
9517.000000;0.218626
9516.000000;0.216796
9515.000000;0.215080
9514.000000;0.213498
9513.000000;0.211961
9512.000000;0.210319
9511.000000;0.208537
9510.000000;0.206713
9509.000000;0.204893
9508.000000;0.203001
9507.000000;0.201052
9506.000000;0.199256
9505.000000;0.197731
9504.000000;0.196227
9503.000000;0.194358
9502.000000;0.192114
9501.000000;0.189896
9500.000000;0.188028
9499.000000;0.186435
9498.000000;0.184880
9497.000000;0.183313
9496.000000;0.181852
9495.000000;0.180547
9494.000000;0.179290
9493.000000;0.177913
9492.000000;0.176318
9491.000000;0.174575
9490.000000;0.172914
9489.000000;0.171542
9488.000000;0.170430
9487.000000;0.169348
9486.000000;0.168135
9485.000000;0.166801
9484.000000;0.165376
9483.000000;0.163856
9482.000000;0.162348
9481.000000;0.161112
9480.000000;0.160292
9479.000000;0.159715
9478.000000;0.159056
9477.000000;0.158132
9476.000000;0.156943
9475.000000;0.155556
9474.000000;0.154095
9473.000000;0.152764
9472.000000;0.151736
9471.000000;0.151020
9470.000000;0.150477
9469.000000;0.149918
9468.000000;0.149154
9467.000000;0.148056
9466.000000;0.146703
9465.000000;0.145379
9464.000000;0.144317
9463.000000;0.143495
9462.000000;0.142766
9461.000000;0.142099
9460.000000;0.141582
9459.000000;0.141222
9458.000000;0.140886
9457.000000;0.140418
9456.000000;0.139757
9455.000000;0.138992
9454.000000;0.138371
9453.000000;0.138174
9452.000000;0.138452
9451.000000;0.138912
9450.000000;0.139176
9449.000000;0.139116
9448.000000;0.138883
9447.000000;0.138645
9446.000000;0.138451
9445.000000;0.138298
9444.000000;0.138165
9443.000000;0.137956
9442.000000;0.137577
9441.000000;0.137123
9440.000000;0.136881
9439.000000;0.137051
9438.000000;0.137499
9437.000000;0.137884
9436.000000;0.137993
9435.000000;0.137880
9434.000000;0.137707
9433.000000;0.137546
9432.000000;0.137414
9431.000000;0.137415
9430.000000;0.137733
9429.000000;0.138416
9428.000000;0.139241
9427.000000;0.139859
9426.000000;0.140111
9425.000000;0.140137
9424.000000;0.140202
9423.000000;0.140480
9422.000000;0.140995
9421.000000;0.141681
9420.000000;0.142424
9419.000000;0.143072
9418.000000;0.143494
9417.000000;0.143658
9416.000000;0.143685
9415.000000;0.143808
9414.000000;0.144209
9413.000000;0.144853
9412.000000;0.145533
9411.000000;0.146144
9410.000000;0.146845
9409.000000;0.147834
9408.000000;0.149008
9407.000000;0.150007
9406.000000;0.150617
9405.000000;0.151012
9404.000000;0.151534
9403.000000;0.152376
9402.000000;0.153506
9401.000000;0.154788
9400.000000;0.156047
9399.000000;0.157104
9398.000000;0.157859
9397.000000;0.158359
9396.000000;0.158747
9395.000000;0.159186
9394.000000;0.159786
9393.000000;0.160541
9392.000000;0.161331
9391.000000;0.162068
9390.000000;0.162855
9389.000000;0.163869
9388.000000;0.165088
9387.000000;0.166266
9386.000000;0.167250
9385.000000;0.168158
9384.000000;0.169154
9383.000000;0.170210
9382.000000;0.171230
9381.000000;0.172259
9380.000000;0.173366
9379.000000;0.174425
9378.000000;0.175253
9377.000000;0.175950
9376.000000;0.176877
9375.000000;0.178220
9374.000000;0.179753
9373.000000;0.181106
9372.000000;0.182192
9371.000000;0.183231
9370.000000;0.184426
9369.000000;0.185708
9368.000000;0.186845
9367.000000;0.187709
9366.000000;0.188432
9365.000000;0.189293
9364.000000;0.190483
9363.000000;0.191960
9362.000000;0.193483
9361.000000;0.194785
9360.000000;0.195762
9359.000000;0.196564
9358.000000;0.197480
9357.000000;0.198677
9356.000000;0.200059
9355.000000;0.201436
9354.000000;0.202770
9353.000000;0.204156
9352.000000;0.205584
9351.000000;0.206882
9350.000000;0.207926
9349.000000;0.208775
9348.000000;0.209535
9347.000000;0.210276
9346.000000;0.211152
9345.000000;0.212397
9344.000000;0.214036
9343.000000;0.215730
9342.000000;0.217118
9341.000000;0.218216
9340.000000;0.219287
9339.000000;0.220414
9338.000000;0.221459
9337.000000;0.222417
9336.000000;0.223526
9335.000000;0.224923
9334.000000;0.226418
9333.000000;0.227749
9332.000000;0.228929
9331.000000;0.230189
9330.000000;0.231654
9329.000000;0.233191
9328.000000;0.234552
9327.000000;0.235573
9326.000000;0.236270
9325.000000;0.236821
9324.000000;0.237438
9323.000000;0.238223
9322.000000;0.239141
9321.000000;0.240149
9320.000000;0.241270
9319.000000;0.242522
9318.000000;0.243833
9317.000000;0.245097
9316.000000;0.246279
9315.000000;0.247410
9314.000000;0.248525
9313.000000;0.249643
9312.000000;0.250799
9311.000000;0.252037
9310.000000;0.253398
9309.000000;0.254899
9308.000000;0.256475
9307.000000;0.257946
9306.000000;0.259126
9305.000000;0.260011
9304.000000;0.260792
9303.000000;0.261625
9302.000000;0.262456
9301.000000;0.263176
9300.000000;0.263867
9299.000000;0.264773
9298.000000;0.266021
9297.000000;0.267462
9296.000000;0.268810
9295.000000;0.269900
9294.000000;0.270786
9293.000000;0.271671
9292.000000;0.272743
9291.000000;0.274029
9290.000000;0.275396
9289.000000;0.276696
9288.000000;0.277902
9287.000000;0.279054
9286.000000;0.280120
9285.000000;0.281029
9284.000000;0.281834
9283.000000;0.282722
9282.000000;0.283820
9281.000000;0.285067
9280.000000;0.286336
9279.000000;0.287570
9278.000000;0.288742
9277.000000;0.289768
9276.000000;0.290608
9275.000000;0.291378
9274.000000;0.292228
9273.000000;0.293115
9272.000000;0.293845
9271.000000;0.294356
9270.000000;0.294837
9269.000000;0.295509
9268.000000;0.296412
9267.000000;0.297450
9266.000000;0.298563
9265.000000;0.299723
9264.000000;0.300865
9263.000000;0.301916
9262.000000;0.302900
9261.000000;0.303890
9260.000000;0.304887
9259.000000;0.305832
9258.000000;0.306743
9257.000000;0.307738
9256.000000;0.308876
9255.000000;0.310030
9254.000000;0.311016
9253.000000;0.311805
9252.000000;0.312575
9251.000000;0.313515
9250.000000;0.314625
9249.000000;0.315712
9248.000000;0.316602
9247.000000;0.317314
9246.000000;0.318011
9245.000000;0.318813
9244.000000;0.319681
9243.000000;0.320508
9242.000000;0.321265
9241.000000;0.322000
9240.000000;0.322747
9239.000000;0.323483
9238.000000;0.324193
9237.000000;0.324917
9236.000000;0.325688
9235.000000;0.326483
9234.000000;0.327252
9233.000000;0.327992
9232.000000;0.328777
9231.000000;0.329700
9230.000000;0.330784
9229.000000;0.331939
9228.000000;0.332991
9227.000000;0.333796
9226.000000;0.334358
9225.000000;0.334864
9224.000000;0.335552
9223.000000;0.336531
9222.000000;0.337690
9221.000000;0.338812
9220.000000;0.339767
9219.000000;0.340567
9218.000000;0.341274
9217.000000;0.341908
9216.000000;0.342488
9215.000000;0.343103
9214.000000;0.343821
9213.000000;0.344568
9212.000000;0.345188
9211.000000;0.345658
9210.000000;0.346158
9209.000000;0.346872
9208.000000;0.347797
9207.000000;0.348786
9206.000000;0.349729
9205.000000;0.350611
9204.000000;0.351452
9203.000000;0.352270
9202.000000;0.353060
9201.000000;0.353750
9200.000000;0.354206
9199.000000;0.354386
9198.000000;0.354483
9197.000000;0.354812
9196.000000;0.355543
9195.000000;0.356592
9194.000000;0.357762
9193.000000;0.358900
9192.000000;0.359932
9191.000000;0.360836
9190.000000;0.361648
9189.000000;0.362412
9188.000000;0.363073
9187.000000;0.363490
9186.000000;0.363625
9185.000000;0.363679
9184.000000;0.363947
9183.000000;0.364535
9182.000000;0.365283
9181.000000;0.365975
9180.000000;0.366569
9179.000000;0.367171
9178.000000;0.367855
9177.000000;0.368579
9176.000000;0.369294
9175.000000;0.370052
9174.000000;0.370944
9173.000000;0.371940
9172.000000;0.372868
9171.000000;0.373586
9170.000000;0.374132
9169.000000;0.374673
9168.000000;0.375333
9167.000000;0.376066
9166.000000;0.376690
9165.000000;0.377037
9164.000000;0.377104
9163.000000;0.377093
9162.000000;0.377286
9161.000000;0.377833
9160.000000;0.378666
9159.000000;0.379574
9158.000000;0.380344
9157.000000;0.380870
9156.000000;0.381210
9155.000000;0.381579
9154.000000;0.382184
9153.000000;0.383013
9152.000000;0.383838
9151.000000;0.384463
9150.000000;0.384908
9149.000000;0.385310
9148.000000;0.385746
9147.000000;0.386267
9146.000000;0.386980
9145.000000;0.387924
9144.000000;0.388896
9143.000000;0.389575
9142.000000;0.389857
9141.000000;0.389955
9140.000000;0.390124
9139.000000;0.390410
9138.000000;0.390711
9137.000000;0.390959
9136.000000;0.391174
9135.000000;0.391411
9134.000000;0.391767
9133.000000;0.392359
9132.000000;0.393219
9131.000000;0.394192
9130.000000;0.395037
9129.000000;0.395607
9128.000000;0.395942
9127.000000;0.396178
9126.000000;0.396441
9125.000000;0.396794
9124.000000;0.397242
9123.000000;0.397764
9122.000000;0.398336
9121.000000;0.398930
9120.000000;0.399484
9119.000000;0.399919
9118.000000;0.400191
9117.000000;0.400337
9116.000000;0.400450
9115.000000;0.400644
9114.000000;0.401015
9113.000000;0.401581
9112.000000;0.402230
9111.000000;0.402762
9110.000000;0.403059
9109.000000;0.403227
9108.000000;0.403510
9107.000000;0.404060
9106.000000;0.404807
9105.000000;0.405551
9104.000000;0.406149
9103.000000;0.406574
9102.000000;0.406842
9101.000000;0.406976
9100.000000;0.407078
9099.000000;0.407333
9098.000000;0.407845
9097.000000;0.408476
9096.000000;0.408973
9095.000000;0.409263
9094.000000;0.409528
9093.000000;0.409949
9092.000000;0.410461
9091.000000;0.410845
9090.000000;0.410997
9089.000000;0.411000
9088.000000;0.410996
9087.000000;0.411087
9086.000000;0.411340
9085.000000;0.411806
9084.000000;0.412482
9083.000000;0.413293
9082.000000;0.414104
9081.000000;0.414748
9080.000000;0.415120
9079.000000;0.415304
9078.000000;0.415534
9077.000000;0.415943
9076.000000;0.416413
9075.000000;0.416768
9074.000000;0.417038
9073.000000;0.417366
9072.000000;0.417721
9071.000000;0.417886
9070.000000;0.417790
9069.000000;0.417643
9068.000000;0.417678
9067.000000;0.417893
9066.000000;0.418137
9065.000000;0.418339
9064.000000;0.418519
9063.000000;0.418683
9062.000000;0.418820
9061.000000;0.418980
9060.000000;0.419237
9059.000000;0.419599
9058.000000;0.420022
9057.000000;0.420479
9056.000000;0.420934
9055.000000;0.421302
9054.000000;0.421520
9053.000000;0.421633
