Criado como novo conjunto de dados;"0307_DANIEL.spp","7202.1 Secs"
cm-1;Abs
10000.000000;0.279190
9999.000000;0.277979
9998.000000;0.276771
9997.000000;0.275566
9996.000000;0.274365
9995.000000;0.273168
9994.000000;0.271973
9993.000000;0.270782
9992.000000;0.269594
9991.000000;0.268447
9990.000000;0.267421
9989.000000;0.266510
9988.000000;0.265652
9987.000000;0.264787
9986.000000;0.263853
9985.000000;0.262775
9984.000000;0.261554
9983.000000;0.260320
9982.000000;0.259236
9981.000000;0.258325
9980.000000;0.257442
9979.000000;0.256429
9978.000000;0.255255
9977.000000;0.254003
9976.000000;0.252761
9975.000000;0.251544
9974.000000;0.250307
9973.000000;0.249014
9972.000000;0.247712
9971.000000;0.246512
9970.000000;0.245472
9969.000000;0.244522
9968.000000;0.243534
9967.000000;0.242472
9966.000000;0.241405
9965.000000;0.240387
9964.000000;0.239369
9963.000000;0.238241
9962.000000;0.236940
9961.000000;0.235512
9960.000000;0.234087
9959.000000;0.232803
9958.000000;0.231718
9957.000000;0.230782
9956.000000;0.229902
9955.000000;0.229032
9954.000000;0.228167
9953.000000;0.227266
9952.000000;0.226221
9951.000000;0.224951
9950.000000;0.223509
9949.000000;0.222073
9948.000000;0.220798
9947.000000;0.219671
9946.000000;0.218551
9945.000000;0.217359
9944.000000;0.216187
9943.000000;0.215160
9942.000000;0.214212
9941.000000;0.213121
9940.000000;0.211782
9939.000000;0.210348
9938.000000;0.209027
9937.000000;0.207841
9936.000000;0.206665
9935.000000;0.205442
9934.000000;0.204211
9933.000000;0.202978
9932.000000;0.201702
9931.000000;0.200427
9930.000000;0.199293
9929.000000;0.198345
9928.000000;0.197438
9927.000000;0.196393
9926.000000;0.195183
9925.000000;0.193896
9924.000000;0.192593
9923.000000;0.191272
9922.000000;0.189927
9921.000000;0.188570
9920.000000;0.187216
9919.000000;0.185896
9918.000000;0.184678
9917.000000;0.183608
9916.000000;0.182650
9915.000000;0.181705
9914.000000;0.180695
9913.000000;0.179580
9912.000000;0.178337
9911.000000;0.176985
9910.000000;0.175619
9909.000000;0.174352
9908.000000;0.173184
9907.000000;0.171989
9906.000000;0.170678
9905.000000;0.169321
9904.000000;0.168075
9903.000000;0.166978
9902.000000;0.165903
9901.000000;0.164705
9900.000000;0.163374
9899.000000;0.162002
9898.000000;0.160646
9897.000000;0.159270
9896.000000;0.157836
9895.000000;0.156382
9894.000000;0.154998
9893.000000;0.153728
9892.000000;0.152525
9891.000000;0.151308
9890.000000;0.150045
9889.000000;0.148776
9888.000000;0.147553
9887.000000;0.146365
9886.000000;0.145139
9885.000000;0.143813
9884.000000;0.142405
9883.000000;0.140994
9882.000000;0.139655
9881.000000;0.138411
9880.000000;0.137218
9879.000000;0.135979
9878.000000;0.134614
9877.000000;0.133145
9876.000000;0.131702
9875.000000;0.130394
9874.000000;0.129192
9873.000000;0.128001
9872.000000;0.126797
9871.000000;0.125618
9870.000000;0.124442
9869.000000;0.123173
9868.000000;0.121795
9867.000000;0.120417
9866.000000;0.119127
9865.000000;0.117880
9864.000000;0.116600
9863.000000;0.115298
9862.000000;0.114021
9861.000000;0.112740
9860.000000;0.111371
9859.000000;0.109889
9858.000000;0.108361
9857.000000;0.106882
9856.000000;0.105508
9855.000000;0.104231
9854.000000;0.102959
9853.000000;0.101592
9852.000000;0.100156
9851.000000;0.098799
9850.000000;0.097595
9849.000000;0.096428
9848.000000;0.095144
9847.000000;0.093757
9846.000000;0.092386
9845.000000;0.091046
9844.000000;0.089638
9843.000000;0.088119
9842.000000;0.086569
9841.000000;0.085066
9840.000000;0.083624
9839.000000;0.082257
9838.000000;0.080980
9837.000000;0.079713
9836.000000;0.078288
9835.000000;0.076642
9834.000000;0.074916
9833.000000;0.073321
9832.000000;0.071952
9831.000000;0.070765
9830.000000;0.069652
9829.000000;0.068490
9828.000000;0.067168
9827.000000;0.065672
9826.000000;0.064118
9825.000000;0.062648
9824.000000;0.061279
9823.000000;0.059893
9822.000000;0.058357
9821.000000;0.056663
9820.000000;0.054944
9819.000000;0.053362
9818.000000;0.051958
9817.000000;0.050624
9816.000000;0.049235
9815.000000;0.047779
9814.000000;0.046307
9813.000000;0.044812
9812.000000;0.043239
9811.000000;0.041608
9810.000000;0.040037
9809.000000;0.038613
9808.000000;0.037295
9807.000000;0.035972
9806.000000;0.034565
9805.000000;0.033045
9804.000000;0.031434
9803.000000;0.029821
9802.000000;0.028314
9801.000000;0.026942
9800.000000;0.025636
9799.000000;0.024333
9798.000000;0.023033
9797.000000;0.021729
9796.000000;0.020359
9795.000000;0.018888
9794.000000;0.017363
9793.000000;0.015836
9792.000000;0.014265
9791.000000;0.012580
9790.000000;0.010800
9789.000000;0.009017
9788.000000;0.007288
9787.000000;0.005593
9786.000000;0.003918
9785.000000;0.002303
9784.000000;0.000803
9783.000000;-0.000575
9782.000000;-0.001885
9781.000000;-0.003221
9780.000000;-0.004668
9779.000000;-0.006250
9778.000000;-0.007923
9777.000000;-0.009631
9776.000000;-0.011348
9775.000000;-0.013045
9774.000000;-0.014666
9773.000000;-0.016178
9772.000000;-0.017632
9771.000000;-0.019132
9770.000000;-0.020738
9769.000000;-0.022442
9768.000000;-0.024214
9767.000000;-0.026015
9766.000000;-0.027776
9765.000000;-0.029408
9764.000000;-0.030879
9763.000000;-0.032267
9762.000000;-0.033709
9761.000000;-0.035290
9760.000000;-0.036991
9759.000000;-0.038747
9758.000000;-0.040530
9757.000000;-0.042347
9756.000000;-0.044166
9755.000000;-0.045876
9754.000000;-0.047400
9753.000000;-0.048800
9752.000000;-0.050243
9751.000000;-0.051838
9750.000000;-0.053564
9749.000000;-0.055338
9748.000000;-0.057104
9747.000000;-0.058835
9746.000000;-0.060514
9745.000000;-0.062158
9744.000000;-0.063811
9743.000000;-0.065482
9742.000000;-0.067125
9741.000000;-0.068722
9740.000000;-0.070332
9739.000000;-0.072026
9738.000000;-0.073790
9737.000000;-0.075551
9736.000000;-0.077270
9735.000000;-0.078968
9734.000000;-0.080672
9733.000000;-0.082395
9732.000000;-0.084136
9731.000000;-0.085880
9730.000000;-0.087596
9729.000000;-0.089267
9728.000000;-0.090919
9727.000000;-0.092580
9726.000000;-0.094250
9725.000000;-0.095931
9724.000000;-0.097669
9723.000000;-0.099506
9722.000000;-0.101406
9721.000000;-0.103288
9720.000000;-0.105128
9719.000000;-0.106974
9718.000000;-0.108857
9717.000000;-0.110728
9716.000000;-0.112518
9715.000000;-0.114219
9714.000000;-0.115891
9713.000000;-0.117607
9712.000000;-0.119402
9711.000000;-0.121243
9710.000000;-0.123059
9709.000000;-0.124822
9708.000000;-0.126587
9707.000000;-0.128423
9706.000000;-0.130306
9705.000000;-0.132135
9704.000000;-0.133859
9703.000000;-0.135547
9702.000000;-0.137313
9701.000000;-0.139207
9700.000000;-0.141187
9699.000000;-0.143177
9698.000000;-0.145117
9697.000000;-0.147000
9696.000000;-0.148864
9695.000000;-0.150749
9694.000000;-0.152632
9693.000000;-0.154449
9692.000000;-0.156199
9691.000000;-0.157988
9690.000000;-0.159914
9689.000000;-0.161934
9688.000000;-0.163897
9687.000000;-0.165719
9686.000000;-0.167482
9685.000000;-0.169326
9684.000000;-0.171261
9683.000000;-0.173153
9682.000000;-0.174898
9681.000000;-0.176573
9680.000000;-0.178370
9679.000000;-0.180374
9678.000000;-0.182465
9677.000000;-0.184477
9676.000000;-0.186394
9675.000000;-0.188343
9674.000000;-0.190403
9673.000000;-0.192514
9672.000000;-0.194578
9671.000000;-0.196587
9670.000000;-0.198590
9669.000000;-0.200589
9668.000000;-0.202549
9667.000000;-0.204483
9666.000000;-0.206461
9665.000000;-0.208502
9664.000000;-0.210543
9663.000000;-0.212521
9662.000000;-0.214459
9661.000000;-0.216421
9660.000000;-0.218429
9659.000000;-0.220448
9658.000000;-0.222440
9657.000000;-0.224411
9656.000000;-0.226399
9655.000000;-0.228445
9654.000000;-0.230551
9653.000000;-0.232653
9652.000000;-0.234648
9651.000000;-0.236488
9650.000000;-0.238250
9649.000000;-0.240087
9648.000000;-0.242106
9647.000000;-0.244295
9646.000000;-0.246566
9645.000000;-0.248829
9644.000000;-0.251022
9643.000000;-0.253130
9642.000000;-0.255197
9641.000000;-0.257292
9640.000000;-0.259439
9639.000000;-0.261582
9638.000000;-0.263667
9637.000000;-0.265718
9636.000000;-0.267799
9635.000000;-0.269919
9634.000000;-0.272045
9633.000000;-0.274178
9632.000000;-0.276366
9631.000000;-0.278598
9630.000000;-0.280760
9629.000000;-0.282760
9628.000000;-0.284651
9627.000000;-0.286585
9626.000000;-0.288668
9625.000000;-0.290888
9624.000000;-0.293165
9623.000000;-0.295408
9622.000000;-0.297537
9621.000000;-0.299537
9620.000000;-0.301504
9619.000000;-0.303600
9618.000000;-0.305897
9617.000000;-0.308316
9616.000000;-0.310705
9615.000000;-0.312975
9614.000000;-0.315121
9613.000000;-0.317191
9612.000000;-0.319276
9611.000000;-0.321484
9610.000000;-0.323854
9609.000000;-0.326285
9608.000000;-0.328607
9607.000000;-0.330742
9606.000000;-0.332763
9605.000000;-0.334800
9604.000000;-0.336922
9603.000000;-0.339125
9602.000000;-0.341389
9601.000000;-0.343693
9600.000000;-0.346001
9599.000000;-0.348266
9598.000000;-0.350464
9597.000000;-0.352617
9596.000000;-0.354771
9595.000000;-0.356969
9594.000000;-0.359220
9593.000000;-0.361493
9592.000000;-0.363734
9591.000000;-0.365907
9590.000000;-0.368025
9589.000000;-0.370121
9588.000000;-0.372219
9587.000000;-0.374325
9586.000000;-0.376473
9585.000000;-0.378717
9584.000000;-0.381074
9583.000000;-0.383474
9582.000000;-0.385821
9581.000000;-0.388103
9580.000000;-0.390400
9579.000000;-0.392761
9578.000000;-0.395126
9577.000000;-0.397396
9576.000000;-0.399578
9575.000000;-0.401782
9574.000000;-0.404092
9573.000000;-0.406483
9572.000000;-0.408887
9571.000000;-0.411249
9570.000000;-0.413512
9569.000000;-0.415623
9568.000000;-0.417615
9567.000000;-0.419639
9566.000000;-0.421820
9565.000000;-0.424114
9564.000000;-0.426364
9563.000000;-0.428496
9562.000000;-0.430584
9561.000000;-0.432713
9560.000000;-0.434884
9559.000000;-0.437056
9558.000000;-0.439233
9557.000000;-0.441442
9556.000000;-0.443677
9555.000000;-0.445918
9554.000000;-0.448157
9553.000000;-0.450391
9552.000000;-0.452602
9551.000000;-0.454787
9550.000000;-0.456981
9549.000000;-0.459221
9548.000000;-0.461487
9547.000000;-0.463710
9546.000000;-0.465827
9545.000000;-0.467826
9544.000000;-0.469767
9543.000000;-0.471759
9542.000000;-0.473885
9541.000000;-0.476127
9540.000000;-0.478393
9539.000000;-0.480633
9538.000000;-0.482875
9537.000000;-0.485137
9536.000000;-0.487367
9535.000000;-0.489493
9534.000000;-0.491502
9533.000000;-0.493412
9532.000000;-0.495250
9531.000000;-0.497076
9530.000000;-0.498997
9529.000000;-0.501050
9528.000000;-0.503123
9527.000000;-0.505078
9526.000000;-0.506935
9525.000000;-0.508848
9524.000000;-0.510902
9523.000000;-0.513030
9522.000000;-0.515128
9521.000000;-0.517160
9520.000000;-0.519131
9519.000000;-0.521047
9518.000000;-0.522943
9517.000000;-0.524853
9516.000000;-0.526719
9515.000000;-0.528397
9514.000000;-0.529840
9513.000000;-0.531215
9512.000000;-0.532746
9511.000000;-0.534489
9510.000000;-0.536346
9509.000000;-0.538247
9508.000000;-0.540203
9507.000000;-0.542168
9506.000000;-0.543999
9505.000000;-0.545606
9504.000000;-0.547080
9503.000000;-0.548584
9502.000000;-0.550161
9501.000000;-0.551741
9500.000000;-0.553302
9499.000000;-0.554948
9498.000000;-0.556751
9497.000000;-0.558584
9496.000000;-0.560209
9495.000000;-0.561545
9494.000000;-0.562783
9493.000000;-0.564171
9492.000000;-0.565737
9491.000000;-0.567282
9490.000000;-0.568634
9489.000000;-0.569805
9488.000000;-0.570887
9487.000000;-0.571903
9486.000000;-0.572845
9485.000000;-0.573809
9484.000000;-0.574950
9483.000000;-0.576301
9482.000000;-0.577703
9481.000000;-0.578944
9480.000000;-0.579935
9479.000000;-0.580729
9478.000000;-0.581428
9477.000000;-0.582122
9476.000000;-0.582880
9475.000000;-0.583762
9474.000000;-0.584804
9473.000000;-0.585994
9472.000000;-0.587222
9471.000000;-0.588319
9470.000000;-0.589181
9469.000000;-0.589895
9468.000000;-0.590675
9467.000000;-0.591633
9466.000000;-0.592630
9465.000000;-0.593395
9464.000000;-0.593795
9463.000000;-0.593964
9462.000000;-0.594184
9461.000000;-0.594642
9460.000000;-0.595302
9459.000000;-0.595975
9458.000000;-0.596511
9457.000000;-0.596926
9456.000000;-0.597353
9455.000000;-0.597876
9454.000000;-0.598424
9453.000000;-0.598839
9452.000000;-0.599031
9451.000000;-0.599076
9450.000000;-0.599154
9449.000000;-0.599381
9448.000000;-0.599699
9447.000000;-0.599927
9446.000000;-0.599935
9445.000000;-0.599761
9444.000000;-0.599558
9443.000000;-0.599462
9442.000000;-0.599527
9441.000000;-0.599734
9440.000000;-0.599976
9439.000000;-0.600075
9438.000000;-0.599903
9437.000000;-0.599516
9436.000000;-0.599118
9435.000000;-0.598838
9434.000000;-0.598630
9433.000000;-0.598393
9432.000000;-0.598118
9431.000000;-0.597862
9430.000000;-0.597629
9429.000000;-0.597353
9428.000000;-0.596980
9427.000000;-0.596495
9426.000000;-0.595907
9425.000000;-0.595259
9424.000000;-0.594624
9423.000000;-0.594042
9422.000000;-0.593474
9421.000000;-0.592869
9420.000000;-0.592256
9419.000000;-0.591693
9418.000000;-0.591161
9417.000000;-0.590589
9416.000000;-0.589969
9415.000000;-0.589380
9414.000000;-0.588880
9413.000000;-0.588428
9412.000000;-0.587961
9411.000000;-0.587446
9410.000000;-0.586851
9409.000000;-0.586128
9408.000000;-0.585278
9407.000000;-0.584391
9406.000000;-0.583544
9405.000000;-0.582707
9404.000000;-0.581796
9403.000000;-0.580814
9402.000000;-0.579855
9401.000000;-0.578976
9400.000000;-0.578118
9399.000000;-0.577195
9398.000000;-0.576203
9397.000000;-0.575219
9396.000000;-0.574291
9395.000000;-0.573379
9394.000000;-0.572404
9393.000000;-0.571355
9392.000000;-0.570298
9391.000000;-0.569310
9390.000000;-0.568393
9389.000000;-0.567473
9388.000000;-0.566466
9387.000000;-0.565330
9386.000000;-0.564073
9385.000000;-0.562747
9384.000000;-0.561446
9383.000000;-0.560266
9382.000000;-0.559231
9381.000000;-0.558261
9380.000000;-0.557241
9379.000000;-0.556123
9378.000000;-0.554945
9377.000000;-0.553759
9376.000000;-0.552581
9375.000000;-0.551407
9374.000000;-0.550252
9373.000000;-0.549131
9372.000000;-0.548017
9371.000000;-0.546846
9370.000000;-0.545570
9369.000000;-0.544209
9368.000000;-0.542840
9367.000000;-0.541537
9366.000000;-0.540327
9365.000000;-0.539185
9364.000000;-0.538063
9363.000000;-0.536924
9362.000000;-0.535750
9361.000000;-0.534528
9360.000000;-0.533276
9359.000000;-0.532051
9358.000000;-0.530905
9357.000000;-0.529814
9356.000000;-0.528677
9355.000000;-0.527414
9354.000000;-0.526060
9353.000000;-0.524724
9352.000000;-0.523467
9351.000000;-0.522263
9350.000000;-0.521067
9349.000000;-0.519883
9348.000000;-0.518721
9347.000000;-0.517534
9346.000000;-0.516227
9345.000000;-0.514757
9344.000000;-0.513202
9343.000000;-0.511709
9342.000000;-0.510364
9341.000000;-0.509120
9340.000000;-0.507869
9339.000000;-0.506582
9338.000000;-0.505337
9337.000000;-0.504204
9336.000000;-0.503135
9335.000000;-0.502025
9334.000000;-0.500816
9333.000000;-0.499524
9332.000000;-0.498174
9331.000000;-0.496805
9330.000000;-0.495520
9329.000000;-0.494436
9328.000000;-0.493521
9327.000000;-0.492566
9326.000000;-0.491366
9325.000000;-0.489914
9324.000000;-0.488372
9323.000000;-0.486914
9322.000000;-0.485621
9321.000000;-0.484481
9320.000000;-0.483416
9319.000000;-0.482309
9318.000000;-0.481075
9317.000000;-0.479718
9316.000000;-0.478308
9315.000000;-0.476909
9314.000000;-0.475556
9313.000000;-0.474275
9312.000000;-0.473083
9311.000000;-0.471963
9310.000000;-0.470873
9309.000000;-0.469774
9308.000000;-0.468628
9307.000000;-0.467402
9306.000000;-0.466094
9305.000000;-0.464748
9304.000000;-0.463425
9303.000000;-0.462165
9302.000000;-0.460989
9301.000000;-0.459910
9300.000000;-0.458897
9299.000000;-0.457873
9298.000000;-0.456775
9297.000000;-0.455596
9296.000000;-0.454348
9295.000000;-0.453036
9294.000000;-0.451701
9293.000000;-0.450443
9292.000000;-0.449333
9291.000000;-0.448322
9290.000000;-0.447291
9289.000000;-0.446188
9288.000000;-0.445054
9287.000000;-0.443943
9286.000000;-0.442869
9285.000000;-0.441823
9284.000000;-0.440769
9283.000000;-0.439637
9282.000000;-0.438381
9281.000000;-0.437062
9280.000000;-0.435809
9279.000000;-0.434683
9278.000000;-0.433647
9277.000000;-0.432651
9276.000000;-0.431677
9275.000000;-0.430687
9274.000000;-0.429603
9273.000000;-0.428406
9272.000000;-0.427191
9271.000000;-0.426074
9270.000000;-0.425078
9269.000000;-0.424127
9268.000000;-0.423142
9267.000000;-0.422094
9266.000000;-0.420986
9265.000000;-0.419848
9264.000000;-0.418731
9263.000000;-0.417674
9262.000000;-0.416672
9261.000000;-0.415679
9260.000000;-0.414657
9259.000000;-0.413622
9258.000000;-0.412622
9257.000000;-0.411678
9256.000000;-0.410733
9255.000000;-0.409685
9254.000000;-0.408511
9253.000000;-0.407311
9252.000000;-0.406209
9251.000000;-0.405223
9250.000000;-0.404269
9249.000000;-0.403303
9248.000000;-0.402376
9247.000000;-0.401530
9246.000000;-0.400709
9245.000000;-0.399818
9244.000000;-0.398839
9243.000000;-0.397834
9242.000000;-0.396854
9241.000000;-0.395891
9240.000000;-0.394925
9239.000000;-0.393965
9238.000000;-0.393039
9237.000000;-0.392147
9236.000000;-0.391255
9235.000000;-0.390343
9234.000000;-0.389428
9233.000000;-0.388543
9232.000000;-0.387670
9231.000000;-0.386746
9230.000000;-0.385736
9229.000000;-0.384689
9228.000000;-0.383695
9227.000000;-0.382797
9226.000000;-0.381972
9225.000000;-0.381161
9224.000000;-0.380308
9223.000000;-0.379370
9222.000000;-0.378363
9221.000000;-0.377376
9220.000000;-0.376515
9219.000000;-0.375802
9218.000000;-0.375149
9217.000000;-0.374443
9216.000000;-0.373624
9215.000000;-0.372696
9214.000000;-0.371711
9213.000000;-0.370746
9212.000000;-0.369868
9211.000000;-0.369079
9210.000000;-0.368327
9209.000000;-0.367568
9208.000000;-0.366787
9207.000000;-0.365973
9206.000000;-0.365109
9205.000000;-0.364207
9204.000000;-0.363322
9203.000000;-0.362495
9202.000000;-0.361712
9201.000000;-0.360929
9200.000000;-0.360110
9199.000000;-0.359239
9198.000000;-0.358322
9197.000000;-0.357415
9196.000000;-0.356604
9195.000000;-0.355927
9194.000000;-0.355314
9193.000000;-0.354648
9192.000000;-0.353868
9191.000000;-0.353005
9190.000000;-0.352150
9189.000000;-0.351392
9188.000000;-0.350767
9187.000000;-0.350229
9186.000000;-0.349675
9185.000000;-0.349031
9184.000000;-0.348314
9183.000000;-0.347590
9182.000000;-0.346889
9181.000000;-0.346180
9180.000000;-0.345427
9179.000000;-0.344630
9178.000000;-0.343825
9177.000000;-0.343062
9176.000000;-0.342370
9175.000000;-0.341717
9174.000000;-0.341022
9173.000000;-0.340240
9172.000000;-0.339422
9171.000000;-0.338662
9170.000000;-0.337980
9169.000000;-0.337301
9168.000000;-0.336572
9167.000000;-0.335842
9166.000000;-0.335193
9165.000000;-0.334626
9164.000000;-0.334062
9163.000000;-0.333452
9162.000000;-0.332830
9161.000000;-0.332257
9160.000000;-0.331746
9159.000000;-0.331262
9158.000000;-0.330751
9157.000000;-0.330158
9156.000000;-0.329436
9155.000000;-0.328601
9154.000000;-0.327757
9153.000000;-0.327026
9152.000000;-0.326435
9151.000000;-0.325900
9150.000000;-0.325331
9149.000000;-0.324712
9148.000000;-0.324093
9147.000000;-0.323509
9146.000000;-0.322936
9145.000000;-0.322316
9144.000000;-0.321619
9143.000000;-0.320877
9142.000000;-0.320169
9141.000000;-0.319555
9140.000000;-0.319027
9139.000000;-0.318524
9138.000000;-0.318006
9137.000000;-0.317484
9136.000000;-0.316974
9135.000000;-0.316466
9134.000000;-0.315935
9133.000000;-0.315378
9132.000000;-0.314812
9131.000000;-0.314254
9130.000000;-0.313702
9129.000000;-0.313133
9128.000000;-0.312530
9127.000000;-0.311907
9126.000000;-0.311318
9125.000000;-0.310801
9124.000000;-0.310319
9123.000000;-0.309795
9122.000000;-0.309212
9121.000000;-0.308648
9120.000000;-0.308186
9119.000000;-0.307830
9118.000000;-0.307510
9117.000000;-0.307151
9116.000000;-0.306702
9115.000000;-0.306145
9114.000000;-0.305512
9113.000000;-0.304882
9112.000000;-0.304312
9111.000000;-0.303792
9110.000000;-0.303291
9109.000000;-0.302809
9108.000000;-0.302353
9107.000000;-0.301870
9106.000000;-0.301275
9105.000000;-0.300565
9104.000000;-0.299857
9103.000000;-0.299299
9102.000000;-0.298939
9101.000000;-0.298698
9100.000000;-0.298443
9099.000000;-0.298083
9098.000000;-0.297621
9097.000000;-0.297126
9096.000000;-0.296657
9095.000000;-0.296213
9094.000000;-0.295767
9093.000000;-0.295319
9092.000000;-0.294882
9091.000000;-0.294439
9090.000000;-0.293959
9089.000000;-0.293452
9088.000000;-0.292975
9087.000000;-0.292568
9086.000000;-0.292210
