Criado como novo conjunto de dados;"0307_DANIEL.spp","11342.3 Secs"
cm-1;Abs
10000.000000;0.681672
9999.000000;0.680531
9998.000000;0.679621
9997.000000;0.678767
9996.000000;0.677869
9995.000000;0.676984
9994.000000;0.676135
9993.000000;0.675174
9992.000000;0.673906
9991.000000;0.672338
9990.000000;0.670718
9989.000000;0.669348
9988.000000;0.668347
9987.000000;0.667580
9986.000000;0.666798
9985.000000;0.665858
9984.000000;0.664769
9983.000000;0.663592
9982.000000;0.662405
9981.000000;0.661367
9980.000000;0.660640
9979.000000;0.660125
9978.000000;0.659403
9977.000000;0.658119
9976.000000;0.656357
9975.000000;0.654532
9974.000000;0.652975
9973.000000;0.651755
9972.000000;0.650794
9971.000000;0.649960
9970.000000;0.649067
9969.000000;0.647984
9968.000000;0.646760
9967.000000;0.645509
9966.000000;0.644207
9965.000000;0.642771
9964.000000;0.641267
9963.000000;0.639861
9962.000000;0.638570
9961.000000;0.637275
9960.000000;0.635970
9959.000000;0.634800
9958.000000;0.633787
9957.000000;0.632749
9956.000000;0.631577
9955.000000;0.630419
9954.000000;0.629460
9953.000000;0.628643
9952.000000;0.627714
9951.000000;0.626493
9950.000000;0.625017
9949.000000;0.623501
9948.000000;0.622194
9947.000000;0.621181
9946.000000;0.620272
9945.000000;0.619141
9944.000000;0.617622
9943.000000;0.615842
9942.000000;0.614084
9941.000000;0.612602
9940.000000;0.611506
9939.000000;0.610672
9938.000000;0.609748
9937.000000;0.608448
9936.000000;0.606880
9935.000000;0.605439
9934.000000;0.604307
9933.000000;0.603222
9932.000000;0.601856
9931.000000;0.600270
9930.000000;0.598829
9929.000000;0.597745
9928.000000;0.596859
9927.000000;0.595866
9926.000000;0.594616
9925.000000;0.593194
9924.000000;0.591808
9923.000000;0.590624
9922.000000;0.589660
9921.000000;0.588762
9920.000000;0.587688
9919.000000;0.586276
9918.000000;0.584565
9917.000000;0.582801
9916.000000;0.581251
9915.000000;0.579973
9914.000000;0.578784
9913.000000;0.577492
9912.000000;0.576118
9911.000000;0.574844
9910.000000;0.573761
9909.000000;0.572783
9908.000000;0.571773
9907.000000;0.570663
9906.000000;0.569437
9905.000000;0.568094
9904.000000;0.566660
9903.000000;0.565191
9902.000000;0.563743
9901.000000;0.562347
9900.000000;0.561014
9899.000000;0.559716
9898.000000;0.558414
9897.000000;0.557142
9896.000000;0.556000
9895.000000;0.554997
9894.000000;0.553957
9893.000000;0.552703
9892.000000;0.551283
9891.000000;0.549882
9890.000000;0.548539
9889.000000;0.547091
9888.000000;0.545422
9887.000000;0.543657
9886.000000;0.542061
9885.000000;0.540802
9884.000000;0.539825
9883.000000;0.538880
9882.000000;0.537687
9881.000000;0.536169
9880.000000;0.534526
9879.000000;0.533014
9878.000000;0.531694
9877.000000;0.530454
9876.000000;0.529215
9875.000000;0.527963
9874.000000;0.526618
9873.000000;0.525068
9872.000000;0.523370
9871.000000;0.521765
9870.000000;0.520419
9869.000000;0.519239
9868.000000;0.518014
9867.000000;0.516651
9866.000000;0.515222
9865.000000;0.513839
9864.000000;0.512549
9863.000000;0.511301
9862.000000;0.509992
9861.000000;0.508559
9860.000000;0.507041
9859.000000;0.505505
9858.000000;0.503952
9857.000000;0.502360
9856.000000;0.500812
9855.000000;0.499473
9854.000000;0.498403
9853.000000;0.497450
9852.000000;0.496368
9851.000000;0.494994
9850.000000;0.493352
9849.000000;0.491648
9848.000000;0.490148
9847.000000;0.488965
9846.000000;0.487930
9845.000000;0.486735
9844.000000;0.485231
9843.000000;0.483525
9842.000000;0.481825
9841.000000;0.480259
9840.000000;0.478822
9839.000000;0.477418
9838.000000;0.475916
9837.000000;0.474261
9836.000000;0.472551
9835.000000;0.470965
9834.000000;0.469604
9833.000000;0.468409
9832.000000;0.467223
9831.000000;0.465884
9830.000000;0.464307
9829.000000;0.462552
9828.000000;0.460797
9827.000000;0.459187
9826.000000;0.457729
9825.000000;0.456353
9824.000000;0.455025
9823.000000;0.453729
9822.000000;0.452403
9821.000000;0.450996
9820.000000;0.449512
9819.000000;0.447931
9818.000000;0.446152
9817.000000;0.444171
9816.000000;0.442259
9815.000000;0.440764
9814.000000;0.439723
9813.000000;0.438795
9812.000000;0.437631
9811.000000;0.436182
9810.000000;0.434616
9809.000000;0.433056
9808.000000;0.431476
9807.000000;0.429807
9806.000000;0.428065
9805.000000;0.426368
9804.000000;0.424819
9803.000000;0.423349
9802.000000;0.421745
9801.000000;0.419891
9800.000000;0.417938
9799.000000;0.416129
9798.000000;0.414532
9797.000000;0.413027
9796.000000;0.411541
9795.000000;0.410142
9794.000000;0.408905
9793.000000;0.407768
9792.000000;0.406542
9791.000000;0.405022
9790.000000;0.403120
9789.000000;0.401010
9788.000000;0.399073
9787.000000;0.397583
9786.000000;0.396424
9785.000000;0.395220
9784.000000;0.393741
9783.000000;0.392072
9782.000000;0.390425
9781.000000;0.388910
9780.000000;0.387500
9779.000000;0.386099
9778.000000;0.384586
9777.000000;0.382877
9776.000000;0.381005
9775.000000;0.379092
9774.000000;0.377254
9773.000000;0.375562
9772.000000;0.374060
9771.000000;0.372707
9770.000000;0.371337
9769.000000;0.369761
9768.000000;0.367936
9767.000000;0.365973
9766.000000;0.364035
9765.000000;0.362248
9764.000000;0.360658
9763.000000;0.359156
9762.000000;0.357536
9761.000000;0.355728
9760.000000;0.353903
9759.000000;0.352226
9758.000000;0.350609
9757.000000;0.348858
9756.000000;0.346996
9755.000000;0.345232
9754.000000;0.343660
9753.000000;0.342178
9752.000000;0.340689
9751.000000;0.339189
9750.000000;0.337619
9749.000000;0.335874
9748.000000;0.333991
9747.000000;0.332165
9746.000000;0.330485
9745.000000;0.328828
9744.000000;0.327062
9743.000000;0.325224
9742.000000;0.323410
9741.000000;0.321624
9740.000000;0.319810
9739.000000;0.317939
9738.000000;0.316001
9737.000000;0.314016
9736.000000;0.312077
9735.000000;0.310303
9734.000000;0.308698
9733.000000;0.307166
9732.000000;0.305650
9731.000000;0.304135
9730.000000;0.302509
9729.000000;0.300598
9728.000000;0.298417
9727.000000;0.296241
9726.000000;0.294344
9725.000000;0.292755
9724.000000;0.291337
9723.000000;0.289937
9722.000000;0.288399
9721.000000;0.286574
9720.000000;0.284461
9719.000000;0.282274
9718.000000;0.280260
9717.000000;0.278467
9716.000000;0.276761
9715.000000;0.274996
9714.000000;0.273101
9713.000000;0.271070
9712.000000;0.268950
9711.000000;0.266823
9710.000000;0.264772
9709.000000;0.262872
9708.000000;0.261196
9707.000000;0.259721
9706.000000;0.258228
9705.000000;0.256426
9704.000000;0.254242
9703.000000;0.251928
9702.000000;0.249802
9701.000000;0.247955
9700.000000;0.246240
9699.000000;0.244470
9698.000000;0.242569
9697.000000;0.240561
9696.000000;0.238492
9695.000000;0.236369
9694.000000;0.234188
9693.000000;0.232038
9692.000000;0.230108
9691.000000;0.228476
9690.000000;0.226934
9689.000000;0.225165
9688.000000;0.223109
9687.000000;0.221006
9686.000000;0.219062
9685.000000;0.217241
9684.000000;0.215427
9683.000000;0.213608
9682.000000;0.211798
9681.000000;0.209926
9680.000000;0.207945
9679.000000;0.205950
9678.000000;0.204036
9677.000000;0.202132
9676.000000;0.200089
9675.000000;0.197910
9674.000000;0.195742
9673.000000;0.193672
9672.000000;0.191643
9671.000000;0.189577
9670.000000;0.187501
9669.000000;0.185499
9668.000000;0.183616
9667.000000;0.181822
9666.000000;0.180028
9665.000000;0.178133
9664.000000;0.176069
9663.000000;0.173833
9662.000000;0.171503
9661.000000;0.169207
9660.000000;0.167046
9659.000000;0.164999
9658.000000;0.162931
9657.000000;0.160724
9656.000000;0.158411
9655.000000;0.156121
9654.000000;0.153938
9653.000000;0.151865
9652.000000;0.149891
9651.000000;0.148012
9650.000000;0.146176
9649.000000;0.144308
9648.000000;0.142387
9647.000000;0.140437
9646.000000;0.138453
9645.000000;0.136415
9644.000000;0.134362
9643.000000;0.132324
9642.000000;0.130199
9641.000000;0.127839
9640.000000;0.125299
9639.000000;0.122850
9638.000000;0.120668
9637.000000;0.118628
9636.000000;0.116499
9635.000000;0.114248
9634.000000;0.112041
9633.000000;0.110005
9632.000000;0.108093
9631.000000;0.106138
9630.000000;0.103995
9629.000000;0.101648
9628.000000;0.099248
9627.000000;0.096996
9626.000000;0.094934
9625.000000;0.092909
9624.000000;0.090775
9623.000000;0.088562
9622.000000;0.086372
9621.000000;0.084185
9620.000000;0.081891
9619.000000;0.079501
9618.000000;0.077193
9617.000000;0.075110
9616.000000;0.073182
9615.000000;0.071205
9614.000000;0.069042
9613.000000;0.066710
9612.000000;0.064314
9611.000000;0.061920
9610.000000;0.059527
9609.000000;0.057128
9608.000000;0.054776
9607.000000;0.052549
9606.000000;0.050466
9605.000000;0.048453
9604.000000;0.046384
9603.000000;0.044164
9602.000000;0.041758
9601.000000;0.039203
9600.000000;0.036596
9599.000000;0.034076
9598.000000;0.031761
9597.000000;0.029686
9596.000000;0.027753
9595.000000;0.025768
9594.000000;0.023567
9593.000000;0.021163
9592.000000;0.018752
9591.000000;0.016519
9590.000000;0.014452
9589.000000;0.012369
9588.000000;0.010115
9587.000000;0.007701
9586.000000;0.005251
9585.000000;0.002849
9584.000000;0.000472
9583.000000;-0.001946
9582.000000;-0.004393
9581.000000;-0.006761
9580.000000;-0.008953
9579.000000;-0.010998
9578.000000;-0.013033
9577.000000;-0.015190
9576.000000;-0.017530
9575.000000;-0.020041
9574.000000;-0.022625
9573.000000;-0.025093
9572.000000;-0.027303
9571.000000;-0.029345
9570.000000;-0.031476
9569.000000;-0.033839
9568.000000;-0.036338
9567.000000;-0.038827
9566.000000;-0.041292
9565.000000;-0.043738
9564.000000;-0.046049
9563.000000;-0.048121
9562.000000;-0.050056
9561.000000;-0.052060
9560.000000;-0.054191
9559.000000;-0.056363
9558.000000;-0.058566
9557.000000;-0.060919
9556.000000;-0.063476
9555.000000;-0.066118
9554.000000;-0.068686
9553.000000;-0.071108
9552.000000;-0.073389
9551.000000;-0.075559
9550.000000;-0.077673
9549.000000;-0.079796
9548.000000;-0.081940
9547.000000;-0.084071
9546.000000;-0.086159
9545.000000;-0.088175
9544.000000;-0.090083
9543.000000;-0.091919
9542.000000;-0.093869
9541.000000;-0.096134
9540.000000;-0.098713
9539.000000;-0.101393
9538.000000;-0.103940
9537.000000;-0.106219
9536.000000;-0.108188
9535.000000;-0.109924
9534.000000;-0.111664
9533.000000;-0.113673
9532.000000;-0.116006
9531.000000;-0.118480
9530.000000;-0.120881
9529.000000;-0.123096
9528.000000;-0.125043
9527.000000;-0.126667
9526.000000;-0.128088
9525.000000;-0.129645
9524.000000;-0.131657
9523.000000;-0.134147
9522.000000;-0.136842
9521.000000;-0.139385
9520.000000;-0.141544
9519.000000;-0.143338
9518.000000;-0.145012
9517.000000;-0.146834
9516.000000;-0.148835
9515.000000;-0.150817
9514.000000;-0.152632
9513.000000;-0.154376
9512.000000;-0.156241
9511.000000;-0.158233
9510.000000;-0.160154
9509.000000;-0.161824
9508.000000;-0.163257
9507.000000;-0.164621
9506.000000;-0.166077
9505.000000;-0.167684
9504.000000;-0.169410
9503.000000;-0.171205
9502.000000;-0.173029
9501.000000;-0.174840
9500.000000;-0.176591
9499.000000;-0.178279
9498.000000;-0.179926
9497.000000;-0.181487
9496.000000;-0.182850
9495.000000;-0.184026
9494.000000;-0.185261
9493.000000;-0.186800
9492.000000;-0.188575
9491.000000;-0.190256
9490.000000;-0.191632
9489.000000;-0.192788
9488.000000;-0.193876
9487.000000;-0.194900
9486.000000;-0.195817
9485.000000;-0.196745
9484.000000;-0.197902
9483.000000;-0.199371
9482.000000;-0.201018
9481.000000;-0.202598
9480.000000;-0.203894
9479.000000;-0.204823
9478.000000;-0.205504
9477.000000;-0.206207
9476.000000;-0.207134
9475.000000;-0.208245
9474.000000;-0.209359
9473.000000;-0.210373
9472.000000;-0.211334
9471.000000;-0.212320
9470.000000;-0.213328
9469.000000;-0.214318
9468.000000;-0.215267
9467.000000;-0.216170
9466.000000;-0.216991
9465.000000;-0.217671
9464.000000;-0.218180
9463.000000;-0.218581
9462.000000;-0.219026
9461.000000;-0.219656
9460.000000;-0.220464
9459.000000;-0.221291
9458.000000;-0.221984
9457.000000;-0.222537
9456.000000;-0.223052
9455.000000;-0.223582
9454.000000;-0.224057
9453.000000;-0.224361
9452.000000;-0.224462
9451.000000;-0.224479
9450.000000;-0.224618
9449.000000;-0.225015
9448.000000;-0.225607
9447.000000;-0.226141
9446.000000;-0.226333
9445.000000;-0.226050
9444.000000;-0.225406
9443.000000;-0.224721
9442.000000;-0.224362
9441.000000;-0.224498
9440.000000;-0.224951
9439.000000;-0.225329
9438.000000;-0.225375
9437.000000;-0.225166
9436.000000;-0.224946
9435.000000;-0.224826
9434.000000;-0.224697
9433.000000;-0.224408
9432.000000;-0.223949
9431.000000;-0.223450
9430.000000;-0.223064
9429.000000;-0.222875
9428.000000;-0.222836
9427.000000;-0.222791
9426.000000;-0.222577
9425.000000;-0.222166
9424.000000;-0.221687
9423.000000;-0.221281
9422.000000;-0.220948
9421.000000;-0.220569
9420.000000;-0.220042
9419.000000;-0.219365
9418.000000;-0.218606
9417.000000;-0.217847
9416.000000;-0.217169
9415.000000;-0.216634
9414.000000;-0.216239
9413.000000;-0.215909
9412.000000;-0.215573
9411.000000;-0.215210
9410.000000;-0.214785
9409.000000;-0.214188
9408.000000;-0.213320
9407.000000;-0.212237
9406.000000;-0.211142
9405.000000;-0.210222
9404.000000;-0.209510
9403.000000;-0.208905
9402.000000;-0.208249
9401.000000;-0.207379
9400.000000;-0.206227
9399.000000;-0.204932
9398.000000;-0.203774
9397.000000;-0.202906
9396.000000;-0.202198
9395.000000;-0.201402
9394.000000;-0.200450
9393.000000;-0.199495
9392.000000;-0.198675
9391.000000;-0.197934
9390.000000;-0.197098
9389.000000;-0.196075
9388.000000;-0.194936
9387.000000;-0.193841
9386.000000;-0.192862
9385.000000;-0.191900
9384.000000;-0.190786
9383.000000;-0.189495
9382.000000;-0.188207
9381.000000;-0.187102
9380.000000;-0.186145
9379.000000;-0.185153
9378.000000;-0.184041
9377.000000;-0.182901
9376.000000;-0.181818
9375.000000;-0.180725
9374.000000;-0.179504
9373.000000;-0.178160
9372.000000;-0.176846
9371.000000;-0.175718
9370.000000;-0.174805
9369.000000;-0.173993
9368.000000;-0.173107
9367.000000;-0.172037
9366.000000;-0.170808
9365.000000;-0.169541
9364.000000;-0.168324
9363.000000;-0.167127
9362.000000;-0.165852
9361.000000;-0.164448
9360.000000;-0.162991
9359.000000;-0.161643
9358.000000;-0.160513
9357.000000;-0.159543
9356.000000;-0.158541
9355.000000;-0.157350
9354.000000;-0.155967
9353.000000;-0.154511
9352.000000;-0.153124
9351.000000;-0.151921
9350.000000;-0.150960
9349.000000;-0.150166
9348.000000;-0.149339
9347.000000;-0.148291
9346.000000;-0.146988
9345.000000;-0.145526
9344.000000;-0.144022
9343.000000;-0.142572
9342.000000;-0.141247
9341.000000;-0.140021
9340.000000;-0.138754
9339.000000;-0.137367
9338.000000;-0.136013
9337.000000;-0.134948
9336.000000;-0.134190
9335.000000;-0.133434
9334.000000;-0.132366
9333.000000;-0.130968
9332.000000;-0.129482
9331.000000;-0.128147
9330.000000;-0.127024
9329.000000;-0.126022
9328.000000;-0.124986
9327.000000;-0.123793
9326.000000;-0.122423
9325.000000;-0.120972
9324.000000;-0.119575
9323.000000;-0.118319
9322.000000;-0.117219
9321.000000;-0.116239
9320.000000;-0.115311
9319.000000;-0.114361
9318.000000;-0.113319
9317.000000;-0.112139
9316.000000;-0.110810
9315.000000;-0.109405
9314.000000;-0.108071
9313.000000;-0.106914
9312.000000;-0.105896
9311.000000;-0.104880
9310.000000;-0.103773
9309.000000;-0.102578
9308.000000;-0.101332
9307.000000;-0.100051
9306.000000;-0.098763
9305.000000;-0.097518
9304.000000;-0.096338
9303.000000;-0.095203
9302.000000;-0.094095
9301.000000;-0.093034
9300.000000;-0.092019
9299.000000;-0.090985
9298.000000;-0.089850
9297.000000;-0.088610
9296.000000;-0.087351
9295.000000;-0.086153
9294.000000;-0.085001
9293.000000;-0.083806
9292.000000;-0.082548
9291.000000;-0.081353
9290.000000;-0.080351
9289.000000;-0.079473
9288.000000;-0.078471
9287.000000;-0.077203
9286.000000;-0.075810
9285.000000;-0.074545
9284.000000;-0.073492
9283.000000;-0.072555
9282.000000;-0.071655
9281.000000;-0.070791
9280.000000;-0.069919
9279.000000;-0.068924
9278.000000;-0.067765
9277.000000;-0.066573
9276.000000;-0.065521
9275.000000;-0.064638
9274.000000;-0.063782
9273.000000;-0.062783
9272.000000;-0.061593
9271.000000;-0.060332
9270.000000;-0.059192
9269.000000;-0.058262
9268.000000;-0.057468
9267.000000;-0.056690
9266.000000;-0.055891
9265.000000;-0.055094
9264.000000;-0.054286
9263.000000;-0.053405
9262.000000;-0.052409
9261.000000;-0.051308
9260.000000;-0.050137
9259.000000;-0.048962
9258.000000;-0.047852
9257.000000;-0.046793
9256.000000;-0.045691
9255.000000;-0.044537
9254.000000;-0.043501
9253.000000;-0.042736
9252.000000;-0.042128
9251.000000;-0.041391
9250.000000;-0.040400
9249.000000;-0.039289
9248.000000;-0.038223
9247.000000;-0.037230
9246.000000;-0.036273
9245.000000;-0.035346
9244.000000;-0.034424
9243.000000;-0.033454
9242.000000;-0.032455
9241.000000;-0.031541
9240.000000;-0.030772
9239.000000;-0.030072
9238.000000;-0.029326
9237.000000;-0.028476
9236.000000;-0.027490
9235.000000;-0.026365
9234.000000;-0.025201
9233.000000;-0.024182
9232.000000;-0.023375
9231.000000;-0.022644
9230.000000;-0.021830
9229.000000;-0.020930
9228.000000;-0.020029
9227.000000;-0.019152
9226.000000;-0.018274
9225.000000;-0.017415
9224.000000;-0.016612
9223.000000;-0.015832
9222.000000;-0.015006
9221.000000;-0.014130
9220.000000;-0.013264
9219.000000;-0.012431
9218.000000;-0.011616
9217.000000;-0.010834
9216.000000;-0.010141
9215.000000;-0.009559
9214.000000;-0.009026
9213.000000;-0.008445
9212.000000;-0.007752
9211.000000;-0.006965
9210.000000;-0.006156
9209.000000;-0.005372
9208.000000;-0.004573
9207.000000;-0.003701
9206.000000;-0.002792
9205.000000;-0.001963
9204.000000;-0.001258
9203.000000;-0.000572
9202.000000;0.000227
9201.000000;0.001149
9200.000000;0.002097
9199.000000;0.002996
9198.000000;0.003849
9197.000000;0.004675
9196.000000;0.005458
9195.000000;0.006153
9194.000000;0.006736
9193.000000;0.007230
9192.000000;0.007696
9191.000000;0.008201
9190.000000;0.008797
9189.000000;0.009536
9188.000000;0.010440
9187.000000;0.011421
9186.000000;0.012294
9185.000000;0.012951
9184.000000;0.013491
9183.000000;0.014092
9182.000000;0.014781
9181.000000;0.015437
9180.000000;0.016019
9179.000000;0.016643
9178.000000;0.017390
9177.000000;0.018169
9176.000000;0.018842
9175.000000;0.019408
9174.000000;0.019961
9173.000000;0.020551
9172.000000;0.021169
9171.000000;0.021817
9170.000000;0.022513
9169.000000;0.023220
9168.000000;0.023845
9167.000000;0.024310
9166.000000;0.024629
9165.000000;0.024921
9164.000000;0.025371
9163.000000;0.026095
9162.000000;0.027021
9161.000000;0.027937
9160.000000;0.028699
9159.000000;0.029324
9158.000000;0.029879
9157.000000;0.030354
9156.000000;0.030738
9155.000000;0.031142
9154.000000;0.031732
9153.000000;0.032530
9152.000000;0.033371
9151.000000;0.034067
9150.000000;0.034595
9149.000000;0.035080
9148.000000;0.035631
9147.000000;0.036194
9146.000000;0.036622
9145.000000;0.036893
9144.000000;0.037206
9143.000000;0.037788
9142.000000;0.038618
9141.000000;0.039445
9140.000000;0.040088
9139.000000;0.040584
9138.000000;0.041034
9137.000000;0.041436
9136.000000;0.041781
9135.000000;0.042176
9134.000000;0.042728
9133.000000;0.043372
9132.000000;0.043944
9131.000000;0.044402
9130.000000;0.044857
9129.000000;0.045396
9128.000000;0.045996
9127.000000;0.046615
9126.000000;0.047235
9125.000000;0.047800
9124.000000;0.048221
9123.000000;0.048516
9122.000000;0.048844
9121.000000;0.049347
9120.000000;0.049980
9119.000000;0.050555
9118.000000;0.050935
9117.000000;0.051162
9116.000000;0.051420
9115.000000;0.051878
9114.000000;0.052550
9113.000000;0.053277
9112.000000;0.053874
9111.000000;0.054291
9110.000000;0.054627
9109.000000;0.054986
9108.000000;0.055391
9107.000000;0.055827
9106.000000;0.056309
9105.000000;0.056845
9104.000000;0.057391
9103.000000;0.057882
9102.000000;0.058321
9101.000000;0.058773
9100.000000;0.059277
9099.000000;0.059795
9098.000000;0.060263
9097.000000;0.060653
9096.000000;0.060989
9095.000000;0.061308
9094.000000;0.061624
9093.000000;0.061929
9092.000000;0.062213
9091.000000;0.062489
9090.000000;0.062790
9089.000000;0.063146
9088.000000;0.063540
9087.000000;0.063905
9086.000000;0.064197
9085.000000;0.064459
9084.000000;0.064793
9083.000000;0.065248
9082.000000;0.065746
9081.000000;0.066153
9080.000000;0.066412
9079.000000;0.066604
9078.000000;0.066886
9077.000000;0.067365
9076.000000;0.068018
9075.000000;0.068717
9074.000000;0.069309
9073.000000;0.069715
9072.000000;0.069960
9071.000000;0.070139
