Criado como novo conjunto de dados;"0307_DANIEL.spp","45364.1 Secs"
cm-1;Abs
10000.000000;1.099657
9999.000000;1.098622
9998.000000;1.097456
9997.000000;1.096081
9996.000000;1.094702
9995.000000;1.093532
9994.000000;1.092627
9993.000000;1.091902
9992.000000;1.091145
9991.000000;1.090049
9990.000000;1.088456
9989.000000;1.086616
9988.000000;1.084982
9987.000000;1.083685
9986.000000;1.082407
9985.000000;1.080878
9984.000000;1.079276
9983.000000;1.077969
9982.000000;1.077046
9981.000000;1.076320
9980.000000;1.075613
9979.000000;1.074763
9978.000000;1.073508
9977.000000;1.071743
9976.000000;1.069875
9975.000000;1.068552
9974.000000;1.067923
9973.000000;1.067479
9972.000000;1.066715
9971.000000;1.065659
9970.000000;1.064584
9969.000000;1.063503
9968.000000;1.062232
9967.000000;1.060776
9966.000000;1.059345
9965.000000;1.057998
9964.000000;1.056558
9963.000000;1.054894
9962.000000;1.053139
9961.000000;1.051555
9960.000000;1.050282
9959.000000;1.049265
9958.000000;1.048323
9957.000000;1.047280
9956.000000;1.046094
9955.000000;1.044889
9954.000000;1.043836
9953.000000;1.042957
9952.000000;1.042089
9951.000000;1.041071
9950.000000;1.039966
9949.000000;1.039034
9948.000000;1.038404
9947.000000;1.037770
9946.000000;1.036555
9945.000000;1.034510
9944.000000;1.032079
9943.000000;1.030026
9942.000000;1.028716
9941.000000;1.027875
9940.000000;1.027009
9939.000000;1.025900
9938.000000;1.024692
9937.000000;1.023669
9936.000000;1.022975
9935.000000;1.022382
9934.000000;1.021281
9933.000000;1.019168
9932.000000;1.016279
9931.000000;1.013516
9930.000000;1.011580
9929.000000;1.010359
9928.000000;1.009349
9927.000000;1.008426
9926.000000;1.007856
9925.000000;1.007646
9924.000000;1.007337
9923.000000;1.006522
9922.000000;1.005238
9921.000000;1.003697
9920.000000;1.001930
9919.000000;0.999916
9918.000000;0.997868
9917.000000;0.996147
9916.000000;0.994919
9915.000000;0.994027
9914.000000;0.993107
9913.000000;0.991777
9912.000000;0.989864
9911.000000;0.987628
9910.000000;0.985674
9909.000000;0.984463
9908.000000;0.983919
9907.000000;0.983560
9906.000000;0.982918
9905.000000;0.981763
9904.000000;0.980084
9903.000000;0.978057
9902.000000;0.975971
9901.000000;0.974021
9900.000000;0.972200
9899.000000;0.970491
9898.000000;0.969039
9897.000000;0.967934
9896.000000;0.966953
9895.000000;0.965802
9894.000000;0.964550
9893.000000;0.963523
9892.000000;0.962737
9891.000000;0.961754
9890.000000;0.960248
9889.000000;0.958431
9888.000000;0.956761
9887.000000;0.955430
9886.000000;0.954350
9885.000000;0.953409
9884.000000;0.952477
9883.000000;0.951286
9882.000000;0.949639
9881.000000;0.947752
9880.000000;0.946140
9879.000000;0.945073
9878.000000;0.944287
9877.000000;0.943279
9876.000000;0.941785
9875.000000;0.939945
9874.000000;0.938095
9873.000000;0.936484
9872.000000;0.935179
9871.000000;0.934119
9870.000000;0.933174
9869.000000;0.932146
9868.000000;0.930810
9867.000000;0.929102
9866.000000;0.927228
9865.000000;0.925482
9864.000000;0.923940
9863.000000;0.922491
9862.000000;0.921140
9861.000000;0.920066
9860.000000;0.919268
9859.000000;0.918406
9858.000000;0.917149
9857.000000;0.915558
9856.000000;0.913892
9855.000000;0.912167
9854.000000;0.910136
9853.000000;0.907691
9852.000000;0.905083
9851.000000;0.902738
9850.000000;0.900956
9849.000000;0.899756
9848.000000;0.898889
9847.000000;0.898023
9846.000000;0.897013
9845.000000;0.895973
9844.000000;0.895013
9843.000000;0.894011
9842.000000;0.892752
9841.000000;0.891199
9840.000000;0.889473
9839.000000;0.887693
9838.000000;0.886006
9837.000000;0.884624
9836.000000;0.883588
9835.000000;0.882573
9834.000000;0.881193
9833.000000;0.879461
9832.000000;0.877730
9831.000000;0.876184
9830.000000;0.874665
9829.000000;0.872987
9828.000000;0.871162
9827.000000;0.869270
9826.000000;0.867383
9825.000000;0.865683
9824.000000;0.864402
9823.000000;0.863481
9822.000000;0.862498
9821.000000;0.861086
9820.000000;0.859279
9819.000000;0.857388
9818.000000;0.855669
9817.000000;0.854201
9816.000000;0.852888
9815.000000;0.851493
9814.000000;0.849844
9813.000000;0.848101
9812.000000;0.846646
9811.000000;0.845585
9810.000000;0.844558
9809.000000;0.843159
9808.000000;0.841410
9807.000000;0.839628
9806.000000;0.837960
9805.000000;0.836212
9804.000000;0.834106
9803.000000;0.831564
9802.000000;0.828810
9801.000000;0.826285
9800.000000;0.824374
9799.000000;0.823117
9798.000000;0.822202
9797.000000;0.821263
9796.000000;0.820121
9795.000000;0.818743
9794.000000;0.817158
9793.000000;0.815512
9792.000000;0.814001
9791.000000;0.812610
9790.000000;0.811066
9789.000000;0.809183
9788.000000;0.807150
9787.000000;0.805305
9786.000000;0.803743
9785.000000;0.802302
9784.000000;0.800815
9783.000000;0.799199
9782.000000;0.797408
9781.000000;0.795513
9780.000000;0.793777
9779.000000;0.792417
9778.000000;0.791314
9777.000000;0.790089
9776.000000;0.788469
9775.000000;0.786474
9774.000000;0.784303
9773.000000;0.782243
9772.000000;0.780598
9771.000000;0.779479
9770.000000;0.778578
9769.000000;0.777326
9768.000000;0.775358
9767.000000;0.772796
9766.000000;0.770079
9765.000000;0.767649
9764.000000;0.765763
9763.000000;0.764424
9762.000000;0.763363
9761.000000;0.762186
9760.000000;0.760624
9759.000000;0.758668
9758.000000;0.756504
9757.000000;0.754386
9756.000000;0.752531
9755.000000;0.750986
9754.000000;0.749579
9753.000000;0.748100
9752.000000;0.746508
9751.000000;0.744850
9750.000000;0.743041
9749.000000;0.740937
9748.000000;0.738673
9747.000000;0.736671
9746.000000;0.735145
9745.000000;0.733771
9744.000000;0.732066
9743.000000;0.729995
9742.000000;0.727927
9741.000000;0.726031
9740.000000;0.724056
9739.000000;0.721837
9738.000000;0.719731
9737.000000;0.718214
9736.000000;0.717191
9735.000000;0.716031
9734.000000;0.714351
9733.000000;0.712450
9732.000000;0.710810
9731.000000;0.709410
9730.000000;0.707808
9729.000000;0.705765
9728.000000;0.703484
9727.000000;0.701271
9726.000000;0.699231
9725.000000;0.697374
9724.000000;0.695742
9723.000000;0.694267
9722.000000;0.692670
9721.000000;0.690708
9720.000000;0.688478
9719.000000;0.686310
9718.000000;0.684382
9717.000000;0.682528
9716.000000;0.680432
9715.000000;0.677980
9714.000000;0.675448
9713.000000;0.673336
9712.000000;0.671925
9711.000000;0.670926
9710.000000;0.669680
9709.000000;0.667811
9708.000000;0.665606
9707.000000;0.663651
9706.000000;0.662152
9705.000000;0.660777
9704.000000;0.659099
9703.000000;0.657030
9702.000000;0.654807
9701.000000;0.652678
9700.000000;0.650728
9699.000000;0.648922
9698.000000;0.647191
9697.000000;0.645424
9696.000000;0.643454
9695.000000;0.641147
9694.000000;0.638548
9693.000000;0.635923
9692.000000;0.633558
9691.000000;0.631505
9690.000000;0.629561
9689.000000;0.627543
9688.000000;0.625501
9687.000000;0.623613
9686.000000;0.621913
9685.000000;0.620215
9684.000000;0.618328
9683.000000;0.616270
9682.000000;0.614241
9681.000000;0.612388
9680.000000;0.610661
9679.000000;0.608897
9678.000000;0.606988
9677.000000;0.604910
9676.000000;0.602635
9675.000000;0.600137
9674.000000;0.597531
9673.000000;0.595095
9672.000000;0.593048
9671.000000;0.591313
9670.000000;0.589612
9669.000000;0.587754
9668.000000;0.585744
9667.000000;0.583624
9666.000000;0.581355
9665.000000;0.578900
9664.000000;0.576359
9663.000000;0.573964
9662.000000;0.571955
9661.000000;0.570407
9660.000000;0.569111
9659.000000;0.567662
9658.000000;0.565790
9657.000000;0.563617
9656.000000;0.561500
9655.000000;0.559622
9654.000000;0.557820
9653.000000;0.555797
9652.000000;0.553397
9651.000000;0.550699
9650.000000;0.547982
9649.000000;0.545567
9648.000000;0.543523
9647.000000;0.541521
9646.000000;0.539139
9645.000000;0.536365
9644.000000;0.533640
9643.000000;0.531351
9642.000000;0.529458
9641.000000;0.527646
9640.000000;0.525659
9639.000000;0.523435
9638.000000;0.521108
9637.000000;0.518961
9636.000000;0.517169
9635.000000;0.515490
9634.000000;0.513420
9633.000000;0.510773
9632.000000;0.507915
9631.000000;0.505266
9630.000000;0.502857
9629.000000;0.500564
9628.000000;0.498494
9627.000000;0.496790
9626.000000;0.495236
9625.000000;0.493469
9624.000000;0.491521
9623.000000;0.489745
9622.000000;0.488174
9621.000000;0.486319
9620.000000;0.483751
9619.000000;0.480627
9618.000000;0.477473
9617.000000;0.474657
9616.000000;0.472214
9615.000000;0.470007
9614.000000;0.467863
9613.000000;0.465659
9612.000000;0.463424
9611.000000;0.461320
9610.000000;0.459410
9609.000000;0.457502
9608.000000;0.455312
9607.000000;0.452758
9606.000000;0.450028
9605.000000;0.447379
9604.000000;0.444917
9603.000000;0.442566
9602.000000;0.440189
9601.000000;0.437734
9600.000000;0.435266
9599.000000;0.432873
9598.000000;0.430572
9597.000000;0.428342
9596.000000;0.426178
9595.000000;0.424051
9594.000000;0.421866
9593.000000;0.419591
9592.000000;0.417383
9591.000000;0.415437
9590.000000;0.413672
9589.000000;0.411715
9588.000000;0.409256
9587.000000;0.406368
9586.000000;0.403407
9585.000000;0.400685
9584.000000;0.398303
9583.000000;0.396187
9582.000000;0.394161
9581.000000;0.392011
9580.000000;0.389624
9579.000000;0.387059
9578.000000;0.384447
9577.000000;0.381845
9576.000000;0.379268
9575.000000;0.376860
9574.000000;0.374857
9573.000000;0.373296
9572.000000;0.371792
9571.000000;0.369753
9570.000000;0.366895
9569.000000;0.363508
9568.000000;0.360194
9567.000000;0.357399
9566.000000;0.355203
9565.000000;0.353428
9564.000000;0.351784
9563.000000;0.349954
9562.000000;0.347712
9561.000000;0.345071
9560.000000;0.342265
9559.000000;0.339544
9558.000000;0.337037
9557.000000;0.334796
9556.000000;0.332835
9555.000000;0.331024
9554.000000;0.329070
9553.000000;0.326748
9552.000000;0.324137
9551.000000;0.321534
9550.000000;0.319154
9549.000000;0.316968
9548.000000;0.314811
9547.000000;0.312560
9546.000000;0.310226
9545.000000;0.307925
9544.000000;0.305715
9543.000000;0.303456
9542.000000;0.300936
9541.000000;0.298211
9540.000000;0.295670
9539.000000;0.293599
9538.000000;0.291769
9537.000000;0.289695
9536.000000;0.287237
9535.000000;0.284729
9534.000000;0.282461
9533.000000;0.280324
9532.000000;0.278068
9531.000000;0.275703
9530.000000;0.273443
9529.000000;0.271375
9528.000000;0.269401
9527.000000;0.267436
9526.000000;0.265524
9525.000000;0.263717
9524.000000;0.261996
9523.000000;0.260290
9522.000000;0.258491
9521.000000;0.256479
9520.000000;0.254235
9519.000000;0.251927
9518.000000;0.249781
9517.000000;0.247844
9516.000000;0.245994
9515.000000;0.244196
9514.000000;0.242599
9513.000000;0.241302
9512.000000;0.240116
9511.000000;0.238667
9510.000000;0.236720
9509.000000;0.234327
9508.000000;0.231736
9507.000000;0.229265
9506.000000;0.227203
9505.000000;0.225643
9504.000000;0.224325
9503.000000;0.222787
9502.000000;0.220786
9501.000000;0.218539
9500.000000;0.216459
9499.000000;0.214714
9498.000000;0.213171
9497.000000;0.211702
9496.000000;0.210358
9495.000000;0.209176
9494.000000;0.207985
9493.000000;0.206550
9492.000000;0.204868
9491.000000;0.203184
9490.000000;0.201708
9489.000000;0.200418
9488.000000;0.199167
9487.000000;0.197896
9486.000000;0.196685
9485.000000;0.195618
9484.000000;0.194652
9483.000000;0.193628
9482.000000;0.192400
9481.000000;0.190980
9480.000000;0.189565
9479.000000;0.188402
9478.000000;0.187573
9477.000000;0.186899
9476.000000;0.186057
9475.000000;0.184820
9474.000000;0.183236
9473.000000;0.181593
9472.000000;0.180231
9471.000000;0.179346
9470.000000;0.178883
9469.000000;0.178558
9468.000000;0.178007
9467.000000;0.177026
9466.000000;0.175733
9465.000000;0.174492
9464.000000;0.173623
9463.000000;0.173150
9462.000000;0.172836
9461.000000;0.172432
9460.000000;0.171885
9459.000000;0.171331
9458.000000;0.170952
9457.000000;0.170816
9456.000000;0.170784
9455.000000;0.170579
9454.000000;0.170026
9453.000000;0.169248
9452.000000;0.168550
9451.000000;0.168087
9450.000000;0.167729
9449.000000;0.167307
9448.000000;0.166859
9447.000000;0.166517
9446.000000;0.166250
9445.000000;0.165906
9444.000000;0.165510
9443.000000;0.165332
9442.000000;0.165555
9441.000000;0.166020
9440.000000;0.166413
9439.000000;0.166625
9438.000000;0.166775
9437.000000;0.166933
9436.000000;0.167011
9435.000000;0.166956
9434.000000;0.166909
9433.000000;0.167043
9432.000000;0.167334
9431.000000;0.167600
9430.000000;0.167726
9429.000000;0.167761
9428.000000;0.167776
9427.000000;0.167742
9426.000000;0.167627
9425.000000;0.167557
9424.000000;0.167770
9423.000000;0.168379
9422.000000;0.169239
9421.000000;0.170105
9420.000000;0.170884
9419.000000;0.171656
9418.000000;0.172453
9417.000000;0.173120
9416.000000;0.173478
9415.000000;0.173598
9414.000000;0.173816
9413.000000;0.174446
9412.000000;0.175489
9411.000000;0.176648
9410.000000;0.177595
9409.000000;0.178209
9408.000000;0.178592
9407.000000;0.178924
9406.000000;0.179310
9405.000000;0.179753
9404.000000;0.180257
9403.000000;0.180911
9402.000000;0.181838
9401.000000;0.183035
9400.000000;0.184300
9399.000000;0.185361
9398.000000;0.186104
9397.000000;0.186641
9396.000000;0.187176
9395.000000;0.187837
9394.000000;0.188659
9393.000000;0.189666
9392.000000;0.190874
9391.000000;0.192178
9390.000000;0.193357
9389.000000;0.194271
9388.000000;0.195035
9387.000000;0.195889
9386.000000;0.196898
9385.000000;0.197882
9384.000000;0.198715
9383.000000;0.199564
9382.000000;0.200727
9381.000000;0.202247
9380.000000;0.203835
9379.000000;0.205165
9378.000000;0.206140
9377.000000;0.206871
9376.000000;0.207514
9375.000000;0.208224
9374.000000;0.209139
9373.000000;0.210295
9372.000000;0.211567
9371.000000;0.212755
9370.000000;0.213739
9369.000000;0.214534
9368.000000;0.215264
9367.000000;0.216127
9366.000000;0.217288
9365.000000;0.218691
9364.000000;0.220047
9363.000000;0.221119
9362.000000;0.221999
9361.000000;0.222997
9360.000000;0.224272
9359.000000;0.225696
9358.000000;0.227073
9357.000000;0.228355
9356.000000;0.229596
9355.000000;0.230813
9354.000000;0.231978
9353.000000;0.233065
9352.000000;0.234036
9351.000000;0.234864
9350.000000;0.235656
9349.000000;0.236655
9348.000000;0.238033
9347.000000;0.239672
9346.000000;0.241252
9345.000000;0.242537
9344.000000;0.243507
9343.000000;0.244288
9342.000000;0.245070
9341.000000;0.246083
9340.000000;0.247490
9339.000000;0.249187
9338.000000;0.250798
9337.000000;0.251978
9336.000000;0.252741
9335.000000;0.253425
9334.000000;0.254324
9333.000000;0.255420
9332.000000;0.256492
9331.000000;0.257427
9330.000000;0.258334
9329.000000;0.259353
9328.000000;0.260461
9327.000000;0.261544
9326.000000;0.262599
9325.000000;0.263766
9324.000000;0.265131
9323.000000;0.266576
9322.000000;0.267895
9321.000000;0.268994
9320.000000;0.269934
9319.000000;0.270842
9318.000000;0.271847
9317.000000;0.273059
9316.000000;0.274463
9315.000000;0.275857
9314.000000;0.277023
9313.000000;0.277987
9312.000000;0.279010
9311.000000;0.280252
9310.000000;0.281559
9309.000000;0.282715
9308.000000;0.283782
9307.000000;0.285013
9306.000000;0.286450
9305.000000;0.287829
9304.000000;0.288951
9303.000000;0.289937
9302.000000;0.290990
9301.000000;0.292050
9300.000000;0.292938
9299.000000;0.293753
9298.000000;0.294857
9297.000000;0.296387
9296.000000;0.298021
9295.000000;0.299349
9294.000000;0.300340
9293.000000;0.301249
9292.000000;0.302192
9291.000000;0.303060
9290.000000;0.303824
9289.000000;0.304676
9288.000000;0.305749
9287.000000;0.306863
9286.000000;0.307714
9285.000000;0.308314
9284.000000;0.309090
9283.000000;0.310467
9282.000000;0.312387
9281.000000;0.314290
9280.000000;0.315618
9279.000000;0.316313
9278.000000;0.316787
9277.000000;0.317442
9276.000000;0.318326
9275.000000;0.319268
9274.000000;0.320176
9273.000000;0.321088
9272.000000;0.322023
9271.000000;0.322954
9270.000000;0.323909
9269.000000;0.324938
9268.000000;0.325984
9267.000000;0.326932
9266.000000;0.327819
9265.000000;0.328843
9264.000000;0.330091
9263.000000;0.331381
9262.000000;0.332479
9261.000000;0.333385
9260.000000;0.334298
9259.000000;0.335351
9258.000000;0.336468
9257.000000;0.337458
9256.000000;0.338190
9255.000000;0.338708
9254.000000;0.339189
9253.000000;0.339780
9252.000000;0.340479
9251.000000;0.341251
9250.000000;0.342226
9249.000000;0.343598
9248.000000;0.345274
9247.000000;0.346782
9246.000000;0.347686
9245.000000;0.348026
9244.000000;0.348230
9243.000000;0.348660
9242.000000;0.349389
9241.000000;0.350320
9240.000000;0.351346
9239.000000;0.352373
9238.000000;0.353316
9237.000000;0.354137
9236.000000;0.354833
9235.000000;0.355399
9234.000000;0.355883
9233.000000;0.356444
9232.000000;0.357254
9231.000000;0.358336
9230.000000;0.359557
9229.000000;0.360766
9228.000000;0.361840
9227.000000;0.362653
9226.000000;0.363155
9225.000000;0.363530
9224.000000;0.364137
9223.000000;0.365209
9222.000000;0.366621
9221.000000;0.367980
9220.000000;0.368911
9219.000000;0.369317
9218.000000;0.369448
9217.000000;0.369715
9216.000000;0.370365
9215.000000;0.371327
9214.000000;0.372373
9213.000000;0.373378
9212.000000;0.374337
9211.000000;0.375223
9210.000000;0.376008
9209.000000;0.376780
9208.000000;0.377646
9207.000000;0.378506
9206.000000;0.379131
9205.000000;0.379535
9204.000000;0.380040
9203.000000;0.380835
9202.000000;0.381666
9201.000000;0.382167
9200.000000;0.382397
9199.000000;0.382791
9198.000000;0.383595
9197.000000;0.384554
9196.000000;0.385242
9195.000000;0.385557
9194.000000;0.385781
9193.000000;0.386248
9192.000000;0.387069
9191.000000;0.388142
9190.000000;0.389324
9189.000000;0.390486
9188.000000;0.391468
9187.000000;0.392086
9186.000000;0.392310
9185.000000;0.392411
9184.000000;0.392785
9183.000000;0.393584
9182.000000;0.394557
9181.000000;0.395340
9180.000000;0.395864
9179.000000;0.396388
9178.000000;0.397151
9177.000000;0.398083
9176.000000;0.398894
9175.000000;0.399382
9174.000000;0.399633
9173.000000;0.399948
9172.000000;0.400608
9171.000000;0.401661
9170.000000;0.402895
9169.000000;0.403979
9168.000000;0.404709
9167.000000;0.405140
9166.000000;0.405505
9165.000000;0.405989
9164.000000;0.406575
9163.000000;0.407088
9162.000000;0.407378
9161.000000;0.407456
9160.000000;0.407478
9159.000000;0.407639
9158.000000;0.408061
9157.000000;0.408714
9156.000000;0.409422
9155.000000;0.410002
9154.000000;0.410429
9153.000000;0.410842
9152.000000;0.411387
9151.000000;0.412101
9150.000000;0.412959
9149.000000;0.413935
9148.000000;0.414941
9147.000000;0.415812
9146.000000;0.416439
9145.000000;0.416885
9144.000000;0.417255
9143.000000;0.417501
9142.000000;0.417538
9141.000000;0.417507
9140.000000;0.417759
9139.000000;0.418456
9138.000000;0.419339
9137.000000;0.419976
9136.000000;0.420200
9135.000000;0.420200
9134.000000;0.420261
9133.000000;0.420502
9132.000000;0.420895
9131.000000;0.421402
9130.000000;0.422030
9129.000000;0.422740
9128.000000;0.423384
9127.000000;0.423803
9126.000000;0.424037
9125.000000;0.424350
9124.000000;0.424965
9123.000000;0.425811
9122.000000;0.426612
9121.000000;0.427205
9120.000000;0.427649
9119.000000;0.428033
9118.000000;0.428325
9117.000000;0.428495
9116.000000;0.428662
9115.000000;0.429008
9114.000000;0.429591
9113.000000;0.430303
9112.000000;0.430988
9111.000000;0.431541
9110.000000;0.431949
9109.000000;0.432299
9108.000000;0.432685
9107.000000;0.433071
9106.000000;0.433305
9105.000000;0.433334
9104.000000;0.433358
9103.000000;0.433688
9102.000000;0.434443
9101.000000;0.435438
9100.000000;0.436348
9099.000000;0.436926
9098.000000;0.437122
9097.000000;0.437086
9096.000000;0.437067
9095.000000;0.437243
9094.000000;0.437590
9093.000000;0.437929
9092.000000;0.438120
9091.000000;0.438233
9090.000000;0.438496
9089.000000;0.439068
9088.000000;0.439838
9087.000000;0.440512
9086.000000;0.440923
9085.000000;0.441225
9084.000000;0.441705
9083.000000;0.442425
9082.000000;0.443160
9081.000000;0.443654
9080.000000;0.443830
9079.000000;0.443754
9078.000000;0.443542
9077.000000;0.443368
9076.000000;0.443418
9075.000000;0.443716
9074.000000;0.444086
9073.000000;0.444370
9072.000000;0.444633
9071.000000;0.445046
9070.000000;0.445648
9069.000000;0.446305
9068.000000;0.446853
9067.000000;0.447197
9066.000000;0.447303
9065.000000;0.447222
9064.000000;0.447102
9063.000000;0.447084
9062.000000;0.447196
9061.000000;0.447403
9060.000000;0.447709
9059.000000;0.448117
9058.000000;0.448550
9057.000000;0.448924
9056.000000;0.449280
9055.000000;0.449721
9054.000000;0.450237
9053.000000;0.450712
