Criado como novo conjunto de dados;"0307_DANIEL.spp","5762.3 Secs"
cm-1;Abs
10000.000000;0.286737
9999.000000;0.285607
9998.000000;0.284480
9997.000000;0.283356
9996.000000;0.282235
9995.000000;0.281117
9994.000000;0.280002
9993.000000;0.278890
9992.000000;0.277779
9991.000000;0.276674
9990.000000;0.275566
9989.000000;0.274482
9988.000000;0.273392
9987.000000;0.272263
9986.000000;0.271137
9985.000000;0.269981
9984.000000;0.268719
9983.000000;0.267353
9982.000000;0.266012
9981.000000;0.264846
9980.000000;0.263903
9979.000000;0.263105
9978.000000;0.262308
9977.000000;0.261369
9976.000000;0.260230
9975.000000;0.258943
9974.000000;0.257619
9973.000000;0.256337
9972.000000;0.255120
9971.000000;0.253954
9970.000000;0.252829
9969.000000;0.251756
9968.000000;0.250759
9967.000000;0.249840
9966.000000;0.248943
9965.000000;0.247994
9964.000000;0.246975
9963.000000;0.245925
9962.000000;0.244854
9961.000000;0.243714
9960.000000;0.242485
9959.000000;0.241219
9958.000000;0.239957
9957.000000;0.238661
9956.000000;0.237283
9955.000000;0.235873
9954.000000;0.234547
9953.000000;0.233383
9952.000000;0.232388
9951.000000;0.231514
9950.000000;0.230659
9949.000000;0.229692
9948.000000;0.228568
9947.000000;0.227391
9946.000000;0.226283
9945.000000;0.225219
9944.000000;0.224061
9943.000000;0.222733
9942.000000;0.221299
9941.000000;0.219854
9940.000000;0.218449
9939.000000;0.217121
9938.000000;0.215921
9937.000000;0.214864
9936.000000;0.213890
9935.000000;0.212901
9934.000000;0.211803
9933.000000;0.210522
9932.000000;0.209063
9931.000000;0.207568
9930.000000;0.206244
9929.000000;0.205179
9928.000000;0.204263
9927.000000;0.203334
9926.000000;0.202345
9925.000000;0.201336
9924.000000;0.200290
9923.000000;0.199118
9922.000000;0.197778
9921.000000;0.196352
9920.000000;0.194960
9919.000000;0.193646
9918.000000;0.192369
9917.000000;0.191082
9916.000000;0.189782
9915.000000;0.188489
9914.000000;0.187230
9913.000000;0.186039
9912.000000;0.184939
9911.000000;0.183901
9910.000000;0.182826
9909.000000;0.181608
9908.000000;0.180221
9907.000000;0.178748
9906.000000;0.177319
9905.000000;0.176025
9904.000000;0.174859
9903.000000;0.173740
9902.000000;0.172590
9901.000000;0.171397
9900.000000;0.170201
9899.000000;0.169015
9898.000000;0.167802
9897.000000;0.166541
9896.000000;0.165275
9895.000000;0.164044
9894.000000;0.162807
9893.000000;0.161489
9892.000000;0.160088
9891.000000;0.158677
9890.000000;0.157316
9889.000000;0.156013
9888.000000;0.154765
9887.000000;0.153571
9886.000000;0.152376
9885.000000;0.151103
9884.000000;0.149761
9883.000000;0.148476
9882.000000;0.147343
9881.000000;0.146296
9880.000000;0.145157
9879.000000;0.143823
9878.000000;0.142350
9877.000000;0.140886
9876.000000;0.139552
9875.000000;0.138371
9874.000000;0.137262
9873.000000;0.136104
9872.000000;0.134820
9871.000000;0.133423
9870.000000;0.131973
9869.000000;0.130517
9868.000000;0.129076
9867.000000;0.127666
9866.000000;0.126318
9865.000000;0.125075
9864.000000;0.123951
9863.000000;0.122867
9862.000000;0.121663
9861.000000;0.120214
9860.000000;0.118563
9859.000000;0.116895
9858.000000;0.115383
9857.000000;0.114076
9856.000000;0.112900
9855.000000;0.111726
9854.000000;0.110438
9853.000000;0.109005
9852.000000;0.107506
9851.000000;0.106042
9850.000000;0.104619
9849.000000;0.103187
9848.000000;0.101755
9847.000000;0.100401
9846.000000;0.099128
9845.000000;0.097827
9844.000000;0.096422
9843.000000;0.094985
9842.000000;0.093634
9841.000000;0.092370
9840.000000;0.091099
9839.000000;0.089761
9838.000000;0.088379
9837.000000;0.086979
9836.000000;0.085557
9835.000000;0.084107
9834.000000;0.082658
9833.000000;0.081239
9832.000000;0.079849
9831.000000;0.078459
9830.000000;0.077038
9829.000000;0.075586
9828.000000;0.074149
9827.000000;0.072774
9826.000000;0.071453
9825.000000;0.070124
9824.000000;0.068741
9823.000000;0.067298
9822.000000;0.065799
9821.000000;0.064247
9820.000000;0.062689
9819.000000;0.061197
9818.000000;0.059783
9817.000000;0.058358
9816.000000;0.056831
9815.000000;0.055203
9814.000000;0.053548
9813.000000;0.051927
9812.000000;0.050376
9811.000000;0.048905
9810.000000;0.047496
9809.000000;0.046104
9808.000000;0.044707
9807.000000;0.043323
9806.000000;0.041953
9805.000000;0.040558
9804.000000;0.039106
9803.000000;0.037612
9802.000000;0.036090
9801.000000;0.034525
9800.000000;0.032940
9799.000000;0.031414
9798.000000;0.029993
9797.000000;0.028599
9796.000000;0.027116
9795.000000;0.025528
9794.000000;0.023929
9793.000000;0.022387
9792.000000;0.020866
9791.000000;0.019282
9790.000000;0.017602
9789.000000;0.015897
9788.000000;0.014300
9787.000000;0.012895
9786.000000;0.011607
9785.000000;0.010241
9784.000000;0.008672
9783.000000;0.006969
9782.000000;0.005301
9781.000000;0.003757
9780.000000;0.002300
9779.000000;0.000859
9778.000000;-0.000620
9777.000000;-0.002189
9776.000000;-0.003879
9775.000000;-0.005642
9774.000000;-0.007359
9773.000000;-0.008940
9772.000000;-0.010403
9771.000000;-0.011858
9770.000000;-0.013428
9769.000000;-0.015148
9768.000000;-0.016940
9767.000000;-0.018664
9766.000000;-0.020246
9765.000000;-0.021733
9764.000000;-0.023220
9763.000000;-0.024750
9762.000000;-0.026313
9761.000000;-0.027893
9760.000000;-0.029499
9759.000000;-0.031140
9758.000000;-0.032819
9757.000000;-0.034540
9756.000000;-0.036282
9755.000000;-0.038002
9754.000000;-0.039663
9753.000000;-0.041265
9752.000000;-0.042824
9751.000000;-0.044356
9750.000000;-0.045910
9749.000000;-0.047574
9748.000000;-0.049382
9747.000000;-0.051250
9746.000000;-0.053057
9745.000000;-0.054772
9744.000000;-0.056464
9743.000000;-0.058189
9742.000000;-0.059935
9741.000000;-0.061660
9740.000000;-0.063332
9739.000000;-0.064920
9738.000000;-0.066410
9737.000000;-0.067844
9736.000000;-0.069313
9735.000000;-0.070893
9734.000000;-0.072598
9733.000000;-0.074410
9732.000000;-0.076308
9731.000000;-0.078254
9730.000000;-0.080167
9729.000000;-0.081968
9728.000000;-0.083630
9727.000000;-0.085209
9726.000000;-0.086792
9725.000000;-0.088435
9724.000000;-0.090151
9723.000000;-0.091949
9722.000000;-0.093854
9721.000000;-0.095852
9720.000000;-0.097828
9719.000000;-0.099622
9718.000000;-0.101198
9717.000000;-0.102707
9716.000000;-0.104353
9715.000000;-0.106205
9714.000000;-0.108164
9713.000000;-0.110076
9712.000000;-0.111845
9711.000000;-0.113470
9710.000000;-0.115052
9709.000000;-0.116750
9708.000000;-0.118644
9707.000000;-0.120635
9706.000000;-0.122527
9705.000000;-0.124254
9704.000000;-0.125975
9703.000000;-0.127896
9702.000000;-0.130033
9701.000000;-0.132192
9700.000000;-0.134188
9699.000000;-0.136001
9698.000000;-0.137737
9697.000000;-0.139487
9696.000000;-0.141276
9695.000000;-0.143088
9694.000000;-0.144898
9693.000000;-0.146658
9692.000000;-0.148347
9691.000000;-0.150037
9690.000000;-0.151853
9689.000000;-0.153841
9688.000000;-0.155903
9687.000000;-0.157933
9686.000000;-0.159946
9685.000000;-0.162026
9684.000000;-0.164157
9683.000000;-0.166211
9682.000000;-0.168102
9681.000000;-0.169891
9680.000000;-0.171702
9679.000000;-0.173594
9678.000000;-0.175541
9677.000000;-0.177486
9676.000000;-0.179385
9675.000000;-0.181219
9674.000000;-0.183001
9673.000000;-0.184770
9672.000000;-0.186566
9671.000000;-0.188432
9670.000000;-0.190414
9669.000000;-0.192514
9668.000000;-0.194657
9667.000000;-0.196741
9666.000000;-0.198747
9665.000000;-0.200741
9664.000000;-0.202765
9663.000000;-0.204784
9662.000000;-0.206759
9661.000000;-0.208718
9660.000000;-0.210725
9659.000000;-0.212814
9658.000000;-0.214985
9657.000000;-0.217210
9656.000000;-0.219429
9655.000000;-0.221567
9654.000000;-0.223596
9653.000000;-0.225535
9652.000000;-0.227405
9651.000000;-0.229227
9650.000000;-0.231081
9649.000000;-0.233081
9648.000000;-0.235219
9647.000000;-0.237330
9646.000000;-0.239277
9645.000000;-0.241117
9644.000000;-0.243017
9643.000000;-0.245042
9642.000000;-0.247139
9641.000000;-0.249283
9640.000000;-0.251517
9639.000000;-0.253814
9638.000000;-0.256036
9637.000000;-0.258082
9636.000000;-0.260020
9635.000000;-0.262014
9634.000000;-0.264162
9633.000000;-0.266450
9632.000000;-0.268804
9631.000000;-0.271135
9630.000000;-0.273344
9629.000000;-0.275377
9628.000000;-0.277295
9627.000000;-0.279244
9626.000000;-0.281327
9625.000000;-0.283519
9624.000000;-0.285738
9623.000000;-0.287938
9622.000000;-0.290111
9621.000000;-0.292221
9620.000000;-0.294208
9619.000000;-0.296093
9618.000000;-0.298013
9617.000000;-0.300115
9616.000000;-0.302411
9615.000000;-0.304778
9614.000000;-0.307099
9613.000000;-0.309356
9612.000000;-0.311607
9611.000000;-0.313891
9610.000000;-0.316198
9609.000000;-0.318495
9608.000000;-0.320755
9607.000000;-0.322958
9606.000000;-0.325085
9605.000000;-0.327127
9604.000000;-0.329130
9603.000000;-0.331201
9602.000000;-0.333441
9601.000000;-0.335841
9600.000000;-0.338260
9599.000000;-0.340551
9598.000000;-0.342686
9597.000000;-0.344750
9596.000000;-0.346837
9595.000000;-0.348993
9594.000000;-0.351227
9593.000000;-0.353522
9592.000000;-0.355830
9591.000000;-0.358087
9590.000000;-0.360251
9589.000000;-0.362336
9588.000000;-0.364410
9587.000000;-0.366580
9586.000000;-0.368928
9585.000000;-0.371407
9584.000000;-0.373845
9583.000000;-0.376108
9582.000000;-0.378249
9581.000000;-0.380444
9580.000000;-0.382777
9579.000000;-0.385158
9578.000000;-0.387453
9577.000000;-0.389632
9576.000000;-0.391762
9575.000000;-0.393912
9574.000000;-0.396105
9573.000000;-0.398329
9572.000000;-0.400558
9571.000000;-0.402769
9570.000000;-0.404963
9569.000000;-0.407172
9568.000000;-0.409444
9567.000000;-0.411808
9566.000000;-0.414233
9565.000000;-0.416619
9564.000000;-0.418874
9563.000000;-0.421019
9562.000000;-0.423181
9561.000000;-0.425445
9560.000000;-0.427749
9559.000000;-0.429979
9558.000000;-0.432118
9557.000000;-0.434246
9556.000000;-0.436409
9555.000000;-0.438578
9554.000000;-0.440719
9553.000000;-0.442829
9552.000000;-0.444909
9551.000000;-0.446977
9550.000000;-0.449094
9549.000000;-0.451313
9548.000000;-0.453596
9547.000000;-0.455864
9546.000000;-0.458107
9545.000000;-0.460348
9544.000000;-0.462518
9543.000000;-0.464499
9542.000000;-0.466324
9541.000000;-0.468215
9540.000000;-0.470348
9539.000000;-0.472673
9538.000000;-0.475014
9537.000000;-0.477273
9536.000000;-0.479458
9535.000000;-0.481591
9534.000000;-0.483664
9533.000000;-0.485664
9532.000000;-0.487588
9531.000000;-0.489462
9530.000000;-0.491352
9529.000000;-0.493316
9528.000000;-0.495324
9527.000000;-0.497276
9526.000000;-0.499144
9525.000000;-0.501018
9524.000000;-0.502998
9523.000000;-0.505075
9522.000000;-0.507175
9521.000000;-0.509230
9520.000000;-0.511192
9519.000000;-0.513022
9518.000000;-0.514745
9517.000000;-0.516446
9516.000000;-0.518170
9515.000000;-0.519886
9514.000000;-0.521586
9513.000000;-0.523337
9512.000000;-0.525187
9511.000000;-0.527081
9510.000000;-0.528953
9509.000000;-0.530815
9508.000000;-0.532666
9507.000000;-0.534400
9506.000000;-0.535928
9505.000000;-0.537352
9504.000000;-0.538888
9503.000000;-0.540617
9502.000000;-0.542401
9501.000000;-0.544073
9500.000000;-0.545623
9499.000000;-0.547165
9498.000000;-0.548786
9497.000000;-0.550449
9496.000000;-0.552037
9495.000000;-0.553475
9494.000000;-0.554822
9493.000000;-0.556197
9492.000000;-0.557632
9491.000000;-0.559033
9490.000000;-0.560327
9489.000000;-0.561556
9488.000000;-0.562778
9487.000000;-0.563944
9486.000000;-0.564984
9485.000000;-0.565955
9484.000000;-0.567006
9483.000000;-0.568211
9482.000000;-0.569515
9481.000000;-0.570810
9480.000000;-0.571982
9479.000000;-0.572916
9478.000000;-0.573596
9477.000000;-0.574194
9476.000000;-0.574966
9475.000000;-0.576003
9474.000000;-0.577181
9473.000000;-0.578323
9472.000000;-0.579345
9471.000000;-0.580237
9470.000000;-0.581027
9469.000000;-0.581820
9468.000000;-0.582756
9467.000000;-0.583853
9466.000000;-0.584933
9465.000000;-0.585761
9464.000000;-0.586255
9463.000000;-0.586526
9462.000000;-0.586758
9461.000000;-0.587077
9460.000000;-0.587491
9459.000000;-0.587933
9458.000000;-0.588356
9457.000000;-0.588796
9456.000000;-0.589303
9455.000000;-0.589839
9454.000000;-0.590286
9453.000000;-0.590580
9452.000000;-0.590763
9451.000000;-0.590931
9450.000000;-0.591165
9449.000000;-0.591501
9448.000000;-0.591882
9447.000000;-0.592147
9446.000000;-0.592145
9445.000000;-0.591909
9444.000000;-0.591645
9443.000000;-0.591524
9442.000000;-0.591543
9441.000000;-0.591604
9440.000000;-0.591632
9439.000000;-0.591577
9438.000000;-0.591403
9437.000000;-0.591144
9436.000000;-0.590907
9435.000000;-0.590767
9434.000000;-0.590683
9433.000000;-0.590580
9432.000000;-0.590451
9431.000000;-0.590311
9430.000000;-0.590113
9429.000000;-0.589787
9428.000000;-0.589348
9427.000000;-0.588874
9426.000000;-0.588393
9425.000000;-0.587865
9424.000000;-0.587272
9423.000000;-0.586653
9422.000000;-0.586041
9421.000000;-0.585420
9420.000000;-0.584763
9419.000000;-0.584079
9418.000000;-0.583411
9417.000000;-0.582796
9416.000000;-0.582246
9415.000000;-0.581732
9414.000000;-0.581198
9413.000000;-0.580609
9412.000000;-0.579980
9411.000000;-0.579351
9410.000000;-0.578713
9409.000000;-0.578012
9408.000000;-0.577221
9407.000000;-0.576383
9406.000000;-0.575552
9405.000000;-0.574722
9404.000000;-0.573830
9403.000000;-0.572849
9402.000000;-0.571827
9401.000000;-0.570829
9400.000000;-0.569854
9399.000000;-0.568857
9398.000000;-0.567847
9397.000000;-0.566914
9396.000000;-0.566114
9395.000000;-0.565371
9394.000000;-0.564549
9393.000000;-0.563597
9392.000000;-0.562576
9391.000000;-0.561559
9390.000000;-0.560573
9389.000000;-0.559642
9388.000000;-0.558789
9387.000000;-0.557952
9386.000000;-0.556955
9385.000000;-0.555660
9384.000000;-0.554121
9383.000000;-0.552545
9382.000000;-0.551119
9381.000000;-0.549902
9380.000000;-0.548866
9379.000000;-0.547953
9378.000000;-0.547083
9377.000000;-0.546145
9376.000000;-0.545046
9375.000000;-0.543788
9374.000000;-0.542477
9373.000000;-0.541222
9372.000000;-0.540017
9371.000000;-0.538736
9370.000000;-0.537287
9369.000000;-0.535767
9368.000000;-0.534407
9367.000000;-0.533326
9366.000000;-0.532386
9365.000000;-0.531337
9364.000000;-0.530083
9363.000000;-0.528743
9362.000000;-0.527480
9361.000000;-0.526325
9360.000000;-0.525195
9359.000000;-0.524006
9358.000000;-0.522737
9357.000000;-0.521403
9356.000000;-0.520051
9355.000000;-0.518741
9354.000000;-0.517497
9353.000000;-0.516274
9352.000000;-0.515008
9351.000000;-0.513708
9350.000000;-0.512456
9349.000000;-0.511308
9348.000000;-0.510227
9347.000000;-0.509136
9346.000000;-0.507982
9345.000000;-0.506734
9344.000000;-0.505375
9343.000000;-0.503931
9342.000000;-0.502484
9341.000000;-0.501114
9340.000000;-0.499812
9339.000000;-0.498505
9338.000000;-0.497166
9337.000000;-0.495839
9336.000000;-0.494578
9335.000000;-0.493375
9334.000000;-0.492164
9333.000000;-0.490882
9332.000000;-0.489530
9331.000000;-0.488201
9330.000000;-0.487002
9329.000000;-0.485936
9328.000000;-0.484874
9327.000000;-0.483703
9326.000000;-0.482444
9325.000000;-0.481189
9324.000000;-0.479940
9323.000000;-0.478631
9322.000000;-0.477276
9321.000000;-0.476001
9320.000000;-0.474884
9319.000000;-0.473852
9318.000000;-0.472780
9317.000000;-0.471613
9316.000000;-0.470369
9315.000000;-0.469079
9314.000000;-0.467794
9313.000000;-0.466572
9312.000000;-0.465405
9311.000000;-0.464205
9310.000000;-0.462917
9309.000000;-0.461581
9308.000000;-0.460253
9307.000000;-0.458928
9306.000000;-0.457584
9305.000000;-0.456257
9304.000000;-0.454982
9303.000000;-0.453719
9302.000000;-0.452428
9301.000000;-0.451167
9300.000000;-0.450038
9299.000000;-0.449040
9298.000000;-0.448053
9297.000000;-0.446972
9296.000000;-0.445794
9295.000000;-0.444578
9294.000000;-0.443398
9293.000000;-0.442305
9292.000000;-0.441281
9291.000000;-0.440229
9290.000000;-0.439060
9289.000000;-0.437788
9288.000000;-0.436517
9287.000000;-0.435322
9286.000000;-0.434216
9285.000000;-0.433180
9284.000000;-0.432169
9283.000000;-0.431101
9282.000000;-0.429911
9281.000000;-0.428646
9280.000000;-0.427434
9279.000000;-0.426344
9278.000000;-0.425342
9277.000000;-0.424365
9276.000000;-0.423389
9275.000000;-0.422397
9274.000000;-0.421337
9273.000000;-0.420171
9272.000000;-0.418924
9271.000000;-0.417673
9270.000000;-0.416485
9269.000000;-0.415390
9268.000000;-0.414369
9267.000000;-0.413382
9266.000000;-0.412406
9265.000000;-0.411462
9264.000000;-0.410559
9263.000000;-0.409636
9262.000000;-0.408590
9261.000000;-0.407383
9260.000000;-0.406103
9259.000000;-0.404899
9258.000000;-0.403865
9257.000000;-0.402975
9256.000000;-0.402113
9255.000000;-0.401176
9254.000000;-0.400162
9253.000000;-0.399163
9252.000000;-0.398247
9251.000000;-0.397367
9250.000000;-0.396423
9249.000000;-0.395381
9248.000000;-0.394303
9247.000000;-0.393262
9246.000000;-0.392274
9245.000000;-0.391310
9244.000000;-0.390341
9243.000000;-0.389357
9242.000000;-0.388363
9241.000000;-0.387373
9240.000000;-0.386393
9239.000000;-0.385419
9238.000000;-0.384454
9237.000000;-0.383508
9236.000000;-0.382578
9235.000000;-0.381647
9234.000000;-0.380731
9233.000000;-0.379882
9232.000000;-0.379112
9231.000000;-0.378343
9230.000000;-0.377477
9229.000000;-0.376499
9228.000000;-0.375476
9227.000000;-0.374475
9226.000000;-0.373532
9225.000000;-0.372669
9224.000000;-0.371883
9223.000000;-0.371118
9222.000000;-0.370306
9221.000000;-0.369423
9220.000000;-0.368499
9219.000000;-0.367555
9218.000000;-0.366598
9217.000000;-0.365665
9216.000000;-0.364807
9215.000000;-0.364033
9214.000000;-0.363286
9213.000000;-0.362509
9212.000000;-0.361708
9211.000000;-0.360919
9210.000000;-0.360156
9209.000000;-0.359382
9208.000000;-0.358532
9207.000000;-0.357575
9206.000000;-0.356570
9205.000000;-0.355634
9204.000000;-0.354834
9203.000000;-0.354107
9202.000000;-0.353333
9201.000000;-0.352465
9200.000000;-0.351554
9199.000000;-0.350668
9198.000000;-0.349852
9197.000000;-0.349146
9196.000000;-0.348570
9195.000000;-0.348051
9194.000000;-0.347443
9193.000000;-0.346660
9192.000000;-0.345761
9191.000000;-0.344870
9190.000000;-0.344044
9189.000000;-0.343247
9188.000000;-0.342431
9187.000000;-0.341598
9186.000000;-0.340788
9185.000000;-0.340026
9184.000000;-0.339315
9183.000000;-0.338641
9182.000000;-0.337990
9181.000000;-0.337338
9180.000000;-0.336644
9179.000000;-0.335876
9178.000000;-0.335059
9177.000000;-0.334275
9176.000000;-0.333592
9175.000000;-0.332996
9174.000000;-0.332412
9173.000000;-0.331778
9172.000000;-0.331076
9171.000000;-0.330309
9170.000000;-0.329509
9169.000000;-0.328739
9168.000000;-0.328054
9167.000000;-0.327436
9166.000000;-0.326809
9165.000000;-0.326122
9164.000000;-0.325394
9163.000000;-0.324677
9162.000000;-0.324000
9161.000000;-0.323374
9160.000000;-0.322797
9159.000000;-0.322240
9158.000000;-0.321653
9157.000000;-0.321024
9156.000000;-0.320402
9155.000000;-0.319833
9154.000000;-0.319295
9153.000000;-0.318723
9152.000000;-0.318100
9151.000000;-0.317468
9150.000000;-0.316861
9149.000000;-0.316256
9148.000000;-0.315623
9147.000000;-0.314986
9146.000000;-0.314388
9145.000000;-0.313816
9144.000000;-0.313192
9143.000000;-0.312471
9142.000000;-0.311703
9141.000000;-0.310987
9140.000000;-0.310383
9139.000000;-0.309883
9138.000000;-0.309442
9137.000000;-0.309014
9136.000000;-0.308569
9135.000000;-0.308110
9134.000000;-0.307656
9133.000000;-0.307193
9132.000000;-0.306665
9131.000000;-0.306031
9130.000000;-0.305331
9129.000000;-0.304636
9128.000000;-0.303965
9127.000000;-0.303293
9126.000000;-0.302639
9125.000000;-0.302070
9124.000000;-0.301598
9123.000000;-0.301144
9122.000000;-0.300627
9121.000000;-0.300058
9120.000000;-0.299507
9119.000000;-0.299019
9118.000000;-0.298584
9117.000000;-0.298166
9116.000000;-0.297702
9115.000000;-0.297132
9114.000000;-0.296466
9113.000000;-0.295821
9112.000000;-0.295336
9111.000000;-0.295028
9110.000000;-0.294774
9109.000000;-0.294420
9108.000000;-0.293901
9107.000000;-0.293262
9106.000000;-0.292596
9105.000000;-0.291985
9104.000000;-0.291465
9103.000000;-0.291032
9102.000000;-0.290659
9101.000000;-0.290317
9100.000000;-0.289987
9099.000000;-0.289661
9098.000000;-0.289320
9097.000000;-0.288913
9096.000000;-0.288382
9095.000000;-0.287731
9094.000000;-0.287057
9093.000000;-0.286471
9092.000000;-0.286000
9091.000000;-0.285586
9090.000000;-0.285175
9089.000000;-0.284749
9088.000000;-0.284311
9087.000000;-0.283862
9086.000000;-0.283417
