Criado como novo conjunto de dados;"0307_DANIEL.spp","39064.0 Secs"
cm-1;Abs
10000.000000;1.025994
9999.000000;1.024870
9998.000000;1.024542
9997.000000;1.024380
9996.000000;1.023605
9995.000000;1.022288
9994.000000;1.020900
9993.000000;1.019763
9992.000000;1.018707
9991.000000;1.017511
9990.000000;1.016152
9989.000000;1.014728
9988.000000;1.013217
9987.000000;1.011467
9986.000000;1.009427
9985.000000;1.007363
9984.000000;1.005739
9983.000000;1.004800
9982.000000;1.004296
9981.000000;1.003698
9980.000000;1.002647
9979.000000;1.001157
9978.000000;0.999481
9977.000000;0.997906
9976.000000;0.996625
9975.000000;0.995663
9974.000000;0.994907
9973.000000;0.994205
9972.000000;0.993370
9971.000000;0.992117
9970.000000;0.990295
9969.000000;0.988291
9968.000000;0.986913
9967.000000;0.986558
9966.000000;0.986710
9965.000000;0.986517
9964.000000;0.985723
9963.000000;0.984646
9962.000000;0.983452
9961.000000;0.981976
9960.000000;0.980264
9959.000000;0.978747
9958.000000;0.977659
9957.000000;0.976668
9956.000000;0.975317
9955.000000;0.973613
9954.000000;0.971971
9953.000000;0.970768
9952.000000;0.970062
9951.000000;0.969592
9950.000000;0.968951
9949.000000;0.967873
9948.000000;0.966440
9947.000000;0.964905
9946.000000;0.963360
9945.000000;0.961752
9944.000000;0.960167
9943.000000;0.958836
9942.000000;0.957815
9941.000000;0.956865
9940.000000;0.955755
9939.000000;0.954466
9938.000000;0.953023
9937.000000;0.951336
9936.000000;0.949371
9935.000000;0.947341
9934.000000;0.945594
9933.000000;0.944345
9932.000000;0.943553
9931.000000;0.942929
9930.000000;0.942082
9929.000000;0.940811
9928.000000;0.939283
9927.000000;0.937803
9926.000000;0.936458
9925.000000;0.935126
9924.000000;0.933797
9923.000000;0.932610
9922.000000;0.931562
9921.000000;0.930437
9920.000000;0.929113
9919.000000;0.927743
9918.000000;0.926519
9917.000000;0.925423
9916.000000;0.924311
9915.000000;0.923136
9914.000000;0.921964
9913.000000;0.920837
9912.000000;0.919688
9911.000000;0.918342
9910.000000;0.916645
9909.000000;0.914674
9908.000000;0.912766
9907.000000;0.911237
9906.000000;0.910120
9905.000000;0.909283
9904.000000;0.908640
9903.000000;0.908025
9902.000000;0.906989
9901.000000;0.905111
9900.000000;0.902588
9899.000000;0.900194
9898.000000;0.898551
9897.000000;0.897589
9896.000000;0.896772
9895.000000;0.895618
9894.000000;0.893966
9893.000000;0.891987
9892.000000;0.890095
9891.000000;0.888693
9890.000000;0.887818
9889.000000;0.887098
9888.000000;0.886116
9887.000000;0.884752
9886.000000;0.883160
9885.000000;0.881550
9884.000000;0.880043
9883.000000;0.878653
9882.000000;0.877348
9881.000000;0.876159
9880.000000;0.875165
9879.000000;0.874285
9878.000000;0.873186
9877.000000;0.871617
9876.000000;0.869761
9875.000000;0.868047
9874.000000;0.866637
9873.000000;0.865313
9872.000000;0.863870
9871.000000;0.862353
9870.000000;0.860873
9869.000000;0.859408
9868.000000;0.857888
9867.000000;0.856310
9866.000000;0.854721
9865.000000;0.853196
9864.000000;0.851837
9863.000000;0.850645
9862.000000;0.849419
9861.000000;0.847959
9860.000000;0.846324
9859.000000;0.844701
9858.000000;0.843079
9857.000000;0.841336
9856.000000;0.839611
9855.000000;0.838249
9854.000000;0.837318
9853.000000;0.836451
9852.000000;0.835265
9851.000000;0.833713
9850.000000;0.831958
9849.000000;0.830184
9848.000000;0.828637
9847.000000;0.827518
9846.000000;0.826663
9845.000000;0.825549
9844.000000;0.823848
9843.000000;0.821822
9842.000000;0.819987
9841.000000;0.818535
9840.000000;0.817273
9839.000000;0.815983
9838.000000;0.814612
9837.000000;0.813168
9836.000000;0.811620
9835.000000;0.809948
9834.000000;0.808214
9833.000000;0.806524
9832.000000;0.804917
9831.000000;0.803294
9830.000000;0.801495
9829.000000;0.799526
9828.000000;0.797633
9827.000000;0.796051
9826.000000;0.794747
9825.000000;0.793546
9824.000000;0.792415
9823.000000;0.791371
9822.000000;0.790200
9821.000000;0.788549
9820.000000;0.786361
9819.000000;0.783977
9818.000000;0.781746
9817.000000;0.779775
9816.000000;0.778099
9815.000000;0.776815
9814.000000;0.775869
9813.000000;0.774939
9812.000000;0.773703
9811.000000;0.772130
9810.000000;0.770412
9809.000000;0.768724
9808.000000;0.767153
9807.000000;0.765713
9806.000000;0.764323
9805.000000;0.762878
9804.000000;0.761393
9803.000000;0.759964
9802.000000;0.758543
9801.000000;0.756950
9800.000000;0.755174
9799.000000;0.753492
9798.000000;0.752143
9797.000000;0.751033
9796.000000;0.749843
9795.000000;0.748339
9794.000000;0.746492
9793.000000;0.744439
9792.000000;0.742424
9791.000000;0.740657
9790.000000;0.739134
9789.000000;0.737673
9788.000000;0.736190
9787.000000;0.734767
9786.000000;0.733414
9785.000000;0.731953
9784.000000;0.730277
9783.000000;0.728539
9782.000000;0.726928
9781.000000;0.725366
9780.000000;0.723593
9779.000000;0.721501
9778.000000;0.719231
9777.000000;0.716990
9776.000000;0.714873
9775.000000;0.712870
9774.000000;0.710965
9773.000000;0.709208
9772.000000;0.707682
9771.000000;0.706352
9770.000000;0.704981
9769.000000;0.703326
9768.000000;0.701410
9767.000000;0.699501
9766.000000;0.697783
9765.000000;0.696202
9764.000000;0.694621
9763.000000;0.692977
9762.000000;0.691186
9761.000000;0.689130
9760.000000;0.686904
9759.000000;0.684949
9758.000000;0.683710
9757.000000;0.683138
9756.000000;0.682642
9755.000000;0.681573
9754.000000;0.679724
9753.000000;0.677385
9752.000000;0.674976
9751.000000;0.672714
9750.000000;0.670607
9749.000000;0.668679
9748.000000;0.667042
9747.000000;0.665697
9746.000000;0.664395
9745.000000;0.662835
9744.000000;0.660942
9743.000000;0.658838
9742.000000;0.656619
9741.000000;0.654361
9740.000000;0.652247
9739.000000;0.650453
9738.000000;0.648891
9737.000000;0.647284
9736.000000;0.645506
9735.000000;0.643656
9734.000000;0.641769
9733.000000;0.639747
9732.000000;0.637658
9731.000000;0.635847
9730.000000;0.634538
9729.000000;0.633522
9728.000000;0.632425
9727.000000;0.631130
9726.000000;0.629725
9725.000000;0.628138
9724.000000;0.626134
9723.000000;0.623683
9722.000000;0.621121
9721.000000;0.618813
9720.000000;0.616795
9719.000000;0.614816
9718.000000;0.612689
9717.000000;0.610489
9716.000000;0.608415
9715.000000;0.606536
9714.000000;0.604763
9713.000000;0.603032
9712.000000;0.601411
9711.000000;0.599935
9710.000000;0.598426
9709.000000;0.596616
9708.000000;0.594434
9707.000000;0.592086
9706.000000;0.589834
9705.000000;0.587798
9704.000000;0.585943
9703.000000;0.584122
9702.000000;0.582132
9701.000000;0.579878
9700.000000;0.577524
9699.000000;0.575378
9698.000000;0.573580
9697.000000;0.571996
9696.000000;0.570421
9695.000000;0.568748
9694.000000;0.566873
9693.000000;0.564639
9692.000000;0.562054
9691.000000;0.559474
9690.000000;0.557362
9689.000000;0.555843
9688.000000;0.554600
9687.000000;0.553174
9686.000000;0.551310
9685.000000;0.549047
9684.000000;0.546622
9683.000000;0.544328
9682.000000;0.542358
9681.000000;0.540679
9680.000000;0.539073
9679.000000;0.537367
9678.000000;0.535565
9677.000000;0.533700
9676.000000;0.531623
9675.000000;0.529129
9674.000000;0.526320
9673.000000;0.523659
9672.000000;0.521502
9671.000000;0.519701
9670.000000;0.517824
9669.000000;0.515705
9668.000000;0.513578
9667.000000;0.511683
9666.000000;0.509970
9665.000000;0.508230
9664.000000;0.506320
9663.000000;0.504164
9662.000000;0.501744
9661.000000;0.499255
9660.000000;0.497066
9659.000000;0.495338
9658.000000;0.493765
9657.000000;0.491870
9656.000000;0.489513
9655.000000;0.486969
9654.000000;0.484562
9653.000000;0.482337
9652.000000;0.480059
9651.000000;0.477461
9650.000000;0.474548
9649.000000;0.471712
9648.000000;0.469445
9647.000000;0.467843
9646.000000;0.466513
9645.000000;0.465036
9644.000000;0.463354
9643.000000;0.461597
9642.000000;0.459742
9641.000000;0.457682
9640.000000;0.455476
9639.000000;0.453274
9638.000000;0.451032
9637.000000;0.448580
9636.000000;0.445918
9635.000000;0.443253
9634.000000;0.440743
9633.000000;0.438401
9632.000000;0.436231
9631.000000;0.434268
9630.000000;0.432467
9629.000000;0.430678
9628.000000;0.428729
9627.000000;0.426457
9626.000000;0.423777
9625.000000;0.420883
9624.000000;0.418260
9623.000000;0.416226
9622.000000;0.414531
9621.000000;0.412626
9620.000000;0.410309
9619.000000;0.407840
9618.000000;0.405443
9617.000000;0.403038
9616.000000;0.400534
9615.000000;0.398099
9614.000000;0.395945
9613.000000;0.394020
9612.000000;0.392074
9611.000000;0.389940
9610.000000;0.387637
9609.000000;0.385280
9608.000000;0.382996
9607.000000;0.380838
9606.000000;0.378720
9605.000000;0.376458
9604.000000;0.373920
9603.000000;0.371109
9602.000000;0.368150
9601.000000;0.365297
9600.000000;0.362908
9599.000000;0.361204
9598.000000;0.359973
9597.000000;0.358632
9596.000000;0.356683
9595.000000;0.354104
9594.000000;0.351282
9593.000000;0.348615
9592.000000;0.346206
9591.000000;0.343853
9590.000000;0.341298
9589.000000;0.338506
9588.000000;0.335709
9587.000000;0.333154
9586.000000;0.330862
9585.000000;0.328654
9584.000000;0.326368
9583.000000;0.323979
9582.000000;0.321570
9581.000000;0.319267
9580.000000;0.317148
9579.000000;0.315134
9578.000000;0.313015
9577.000000;0.310663
9576.000000;0.308155
9575.000000;0.305645
9574.000000;0.303195
9573.000000;0.300818
9572.000000;0.298582
9571.000000;0.296517
9570.000000;0.294503
9569.000000;0.292379
9568.000000;0.290108
9567.000000;0.287757
9566.000000;0.285386
9565.000000;0.283081
9564.000000;0.280981
9563.000000;0.279115
9562.000000;0.277266
9561.000000;0.275130
9560.000000;0.272603
9559.000000;0.269816
9558.000000;0.266992
9557.000000;0.264332
9556.000000;0.261920
9555.000000;0.259598
9554.000000;0.257090
9553.000000;0.254382
9552.000000;0.251842
9551.000000;0.249762
9550.000000;0.247927
9549.000000;0.245872
9548.000000;0.243439
9547.000000;0.240832
9546.000000;0.238251
9545.000000;0.235762
9544.000000;0.233482
9543.000000;0.231541
9542.000000;0.229821
9541.000000;0.227996
9540.000000;0.225858
9539.000000;0.223414
9538.000000;0.220718
9537.000000;0.217870
9536.000000;0.215146
9535.000000;0.212820
9534.000000;0.210822
9533.000000;0.208837
9532.000000;0.206759
9531.000000;0.204784
9530.000000;0.203000
9529.000000;0.201227
9528.000000;0.199357
9527.000000;0.197550
9526.000000;0.195922
9525.000000;0.194291
9524.000000;0.192404
9523.000000;0.190257
9522.000000;0.188013
9521.000000;0.185780
9520.000000;0.183635
9519.000000;0.181677
9518.000000;0.179898
9517.000000;0.178085
9516.000000;0.176044
9515.000000;0.173838
9514.000000;0.171691
9513.000000;0.169748
9512.000000;0.168012
9511.000000;0.166406
9510.000000;0.164773
9509.000000;0.162933
9508.000000;0.160882
9507.000000;0.158868
9506.000000;0.157131
9505.000000;0.155604
9504.000000;0.153987
9503.000000;0.152102
9502.000000;0.150036
9501.000000;0.147976
9500.000000;0.145993
9499.000000;0.144063
9498.000000;0.142222
9497.000000;0.140654
9496.000000;0.139543
9495.000000;0.138820
9494.000000;0.138078
9493.000000;0.136868
9492.000000;0.135111
9491.000000;0.133165
9490.000000;0.131448
9489.000000;0.130082
9488.000000;0.128919
9487.000000;0.127810
9486.000000;0.126726
9485.000000;0.125644
9484.000000;0.124446
9483.000000;0.123026
9482.000000;0.121458
9481.000000;0.119974
9480.000000;0.118713
9479.000000;0.117575
9478.000000;0.116399
9477.000000;0.115213
9476.000000;0.114168
9475.000000;0.113272
9474.000000;0.112375
9473.000000;0.111440
9472.000000;0.110609
9471.000000;0.109912
9470.000000;0.109106
9469.000000;0.107954
9468.000000;0.106521
9467.000000;0.105060
9466.000000;0.103741
9465.000000;0.102635
9464.000000;0.101801
9463.000000;0.101194
9462.000000;0.100613
9461.000000;0.099921
9460.000000;0.099205
9459.000000;0.098572
9458.000000;0.097937
9457.000000;0.097254
9456.000000;0.096760
9455.000000;0.096700
9454.000000;0.096899
9453.000000;0.096939
9452.000000;0.096689
9451.000000;0.096363
9450.000000;0.096068
9449.000000;0.095700
9448.000000;0.095311
9447.000000;0.095205
9446.000000;0.095498
9445.000000;0.095884
9444.000000;0.095998
9443.000000;0.095783
9442.000000;0.095393
9441.000000;0.094951
9440.000000;0.094583
9439.000000;0.094455
9438.000000;0.094582
9437.000000;0.094765
9436.000000;0.094882
9435.000000;0.095072
9434.000000;0.095470
9433.000000;0.095904
9432.000000;0.096070
9431.000000;0.095926
9430.000000;0.095715
9429.000000;0.095665
9428.000000;0.095828
9427.000000;0.096188
9426.000000;0.096759
9425.000000;0.097525
9424.000000;0.098359
9423.000000;0.099048
9422.000000;0.099411
9421.000000;0.099438
9420.000000;0.099362
9419.000000;0.099512
9418.000000;0.100035
9417.000000;0.100778
9416.000000;0.101452
9415.000000;0.101891
9414.000000;0.102146
9413.000000;0.102403
9412.000000;0.102828
9411.000000;0.103463
9410.000000;0.104240
9409.000000;0.105105
9408.000000;0.106071
9407.000000;0.107104
9406.000000;0.108059
9405.000000;0.108851
9404.000000;0.109610
9403.000000;0.110516
9402.000000;0.111518
9401.000000;0.112400
9400.000000;0.113136
9399.000000;0.113954
9398.000000;0.115010
9397.000000;0.116172
9396.000000;0.117207
9395.000000;0.118039
9394.000000;0.118748
9393.000000;0.119450
9392.000000;0.120225
9391.000000;0.121061
9390.000000;0.121801
9389.000000;0.122300
9388.000000;0.122689
9387.000000;0.123346
9386.000000;0.124499
9385.000000;0.125964
9384.000000;0.127369
9383.000000;0.128541
9382.000000;0.129561
9381.000000;0.130534
9380.000000;0.131451
9379.000000;0.132256
9378.000000;0.132980
9377.000000;0.133764
9376.000000;0.134762
9375.000000;0.135969
9374.000000;0.137178
9373.000000;0.138195
9372.000000;0.139077
9371.000000;0.140049
9370.000000;0.141200
9369.000000;0.142402
9368.000000;0.143559
9367.000000;0.144750
9366.000000;0.146053
9365.000000;0.147383
9364.000000;0.148628
9363.000000;0.149846
9362.000000;0.151161
9361.000000;0.152545
9360.000000;0.153812
9359.000000;0.154816
9358.000000;0.155575
9357.000000;0.156247
9356.000000;0.157049
9355.000000;0.158164
9354.000000;0.159617
9353.000000;0.161221
9352.000000;0.162699
9351.000000;0.163896
9350.000000;0.164888
9349.000000;0.165888
9348.000000;0.167027
9347.000000;0.168234
9346.000000;0.169355
9345.000000;0.170409
9344.000000;0.171625
9343.000000;0.173157
9342.000000;0.174856
9341.000000;0.176427
9340.000000;0.177762
9339.000000;0.178975
9338.000000;0.180140
9337.000000;0.181175
9336.000000;0.182011
9335.000000;0.182728
9334.000000;0.183489
9333.000000;0.184440
9332.000000;0.185660
9331.000000;0.187106
9330.000000;0.188589
9329.000000;0.189907
9328.000000;0.191009
9327.000000;0.191962
9326.000000;0.192829
9325.000000;0.193721
9324.000000;0.194887
9323.000000;0.196516
9322.000000;0.198413
9321.000000;0.200088
9320.000000;0.201240
9319.000000;0.201990
9318.000000;0.202597
9317.000000;0.203170
9316.000000;0.203782
9315.000000;0.204639
9314.000000;0.205918
9313.000000;0.207504
9312.000000;0.209046
9311.000000;0.210264
9310.000000;0.211141
9309.000000;0.211870
9308.000000;0.212688
9307.000000;0.213711
9306.000000;0.214886
9305.000000;0.216113
9304.000000;0.217403
9303.000000;0.218822
9302.000000;0.220270
9301.000000;0.221483
9300.000000;0.222323
9299.000000;0.222963
9298.000000;0.223710
9297.000000;0.224727
9296.000000;0.225969
9295.000000;0.227287
9294.000000;0.228554
9293.000000;0.229743
9292.000000;0.230957
9291.000000;0.232286
9290.000000;0.233641
9289.000000;0.234817
9288.000000;0.235743
9287.000000;0.236543
9286.000000;0.237340
9285.000000;0.238156
9284.000000;0.239050
9283.000000;0.240164
9282.000000;0.241516
9281.000000;0.242889
9280.000000;0.244066
9279.000000;0.245059
9278.000000;0.246023
9277.000000;0.247039
9276.000000;0.248108
9275.000000;0.249234
9274.000000;0.250387
9273.000000;0.251440
9272.000000;0.252293
9271.000000;0.253027
9270.000000;0.253825
9269.000000;0.254761
9268.000000;0.255770
9267.000000;0.256770
9266.000000;0.257733
9265.000000;0.258637
9264.000000;0.259479
9263.000000;0.260330
9262.000000;0.261330
9261.000000;0.262548
9260.000000;0.263870
9259.000000;0.265036
9258.000000;0.265829
9257.000000;0.266282
9256.000000;0.266693
9255.000000;0.267352
9254.000000;0.268276
9253.000000;0.269260
9252.000000;0.270181
9251.000000;0.271124
9250.000000;0.272192
9249.000000;0.273292
9248.000000;0.274204
9247.000000;0.274831
9246.000000;0.275319
9245.000000;0.275970
9244.000000;0.276985
9243.000000;0.278257
9242.000000;0.279430
9241.000000;0.280264
9240.000000;0.280891
9239.000000;0.281614
9238.000000;0.282498
9237.000000;0.283342
9236.000000;0.284049
9235.000000;0.284799
9234.000000;0.285771
9233.000000;0.286894
9232.000000;0.287995
9231.000000;0.289039
9230.000000;0.290096
9229.000000;0.291162
9228.000000;0.292175
9227.000000;0.293132
9226.000000;0.294070
9225.000000;0.294965
9224.000000;0.295744
9223.000000;0.296358
9222.000000;0.296778
9221.000000;0.297025
9220.000000;0.297251
9219.000000;0.297714
9218.000000;0.298540
9217.000000;0.299574
9216.000000;0.300544
9215.000000;0.301320
9214.000000;0.301944
9213.000000;0.302493
9212.000000;0.303042
9211.000000;0.303672
9210.000000;0.304409
9209.000000;0.305151
9208.000000;0.305786
9207.000000;0.306346
9206.000000;0.306971
9205.000000;0.307738
9204.000000;0.308591
9203.000000;0.309427
9202.000000;0.310189
9201.000000;0.310903
9200.000000;0.311668
9199.000000;0.312567
9198.000000;0.313535
9197.000000;0.314382
9196.000000;0.315007
9195.000000;0.315529
9194.000000;0.316107
9193.000000;0.316722
9192.000000;0.317232
9191.000000;0.317614
9190.000000;0.318020
9189.000000;0.318620
9188.000000;0.319472
9187.000000;0.320521
9186.000000;0.321625
9185.000000;0.322581
9184.000000;0.323264
9183.000000;0.323766
9182.000000;0.324323
9181.000000;0.325070
9180.000000;0.325927
9179.000000;0.326720
9178.000000;0.327347
9177.000000;0.327804
9176.000000;0.328133
9175.000000;0.328416
9174.000000;0.328759
9173.000000;0.329233
9172.000000;0.329815
9171.000000;0.330434
9170.000000;0.331050
9169.000000;0.331656
9168.000000;0.332220
9167.000000;0.332659
9166.000000;0.332908
9165.000000;0.333021
9164.000000;0.333177
9163.000000;0.333571
9162.000000;0.334274
9161.000000;0.335194
9160.000000;0.336154
9159.000000;0.337004
9158.000000;0.337699
9157.000000;0.338317
9156.000000;0.338986
9155.000000;0.339764
9154.000000;0.340559
9153.000000;0.341214
9152.000000;0.341672
9151.000000;0.342037
9150.000000;0.342461
9149.000000;0.342993
9148.000000;0.343567
9147.000000;0.344108
9146.000000;0.344597
9145.000000;0.345045
9144.000000;0.345430
9143.000000;0.345736
9142.000000;0.346031
9141.000000;0.346440
9140.000000;0.346995
9139.000000;0.347554
9138.000000;0.347956
9137.000000;0.348265
9136.000000;0.348729
9135.000000;0.349488
9134.000000;0.350412
9133.000000;0.351275
9132.000000;0.351974
9131.000000;0.352491
9130.000000;0.352778
9129.000000;0.352841
9128.000000;0.352882
9127.000000;0.353160
9126.000000;0.353687
9125.000000;0.354216
9124.000000;0.354556
9123.000000;0.354770
9122.000000;0.355025
9121.000000;0.355363
9120.000000;0.355726
9119.000000;0.356110
9118.000000;0.356605
9117.000000;0.357259
9116.000000;0.357964
9115.000000;0.358492
9114.000000;0.358684
9113.000000;0.358645
9112.000000;0.358716
9111.000000;0.359177
9110.000000;0.359973
9109.000000;0.360797
9108.000000;0.361401
9107.000000;0.361765
9106.000000;0.362002
9105.000000;0.362249
9104.000000;0.362665
9103.000000;0.363360
9102.000000;0.364237
9101.000000;0.365014
9100.000000;0.365507
9099.000000;0.365816
9098.000000;0.366150
9097.000000;0.366553
9096.000000;0.366907
9095.000000;0.367148
9094.000000;0.367354
9093.000000;0.367624
9092.000000;0.367968
9091.000000;0.368353
9090.000000;0.368773
9089.000000;0.369256
9088.000000;0.369809
9087.000000;0.370364
9086.000000;0.370771
9085.000000;0.370908
9084.000000;0.370840
9083.000000;0.370825
9082.000000;0.371095
9081.000000;0.371624
9080.000000;0.372193
9079.000000;0.372648
9078.000000;0.373025
9077.000000;0.373400
9076.000000;0.373735
9075.000000;0.373944
9074.000000;0.374063
9073.000000;0.374226
9072.000000;0.374480
9071.000000;0.374725
9070.000000;0.374903
9069.000000;0.375143
9068.000000;0.375605
9067.000000;0.376231
9066.000000;0.376764
9065.000000;0.377042
9064.000000;0.377172
9063.000000;0.377365
9062.000000;0.377698
9061.000000;0.378078
9060.000000;0.378384
9059.000000;0.378580
9058.000000;0.378713
9057.000000;0.378876
9056.000000;0.379140
9055.000000;0.379492
9054.000000;0.379828
9053.000000;0.380035
