Criado como novo conjunto de dados;"0307_DANIEL.spp","74705.7 Secs"
cm-1;Abs
10000.000000;0.553411
9999.000000;0.552721
9998.000000;0.551740
9997.000000;0.550533
9996.000000;0.549312
9995.000000;0.548312
9994.000000;0.547649
9993.000000;0.547240
9992.000000;0.546875
9991.000000;0.546360
9990.000000;0.545609
9989.000000;0.544653
9988.000000;0.543623
9987.000000;0.542710
9986.000000;0.542050
9985.000000;0.541597
9984.000000;0.541143
9983.000000;0.540458
9982.000000;0.539413
9981.000000;0.538060
9980.000000;0.536650
9979.000000;0.535510
9978.000000;0.534770
9977.000000;0.534215
9976.000000;0.533501
9975.000000;0.532524
9974.000000;0.531503
9973.000000;0.530705
9972.000000;0.530195
9971.000000;0.529855
9970.000000;0.529524
9969.000000;0.529067
9968.000000;0.528393
9967.000000;0.527500
9966.000000;0.526471
9965.000000;0.525406
9964.000000;0.524366
9963.000000;0.523392
9962.000000;0.522513
9961.000000;0.521734
9960.000000;0.521060
9959.000000;0.520507
9958.000000;0.520048
9957.000000;0.519543
9956.000000;0.518808
9955.000000;0.517785
9954.000000;0.516584
9953.000000;0.515380
9952.000000;0.514281
9951.000000;0.513292
9950.000000;0.512335
9949.000000;0.511335
9948.000000;0.510340
9947.000000;0.509512
9946.000000;0.508919
9945.000000;0.508362
9944.000000;0.507556
9943.000000;0.506509
9942.000000;0.505549
9941.000000;0.504938
9940.000000;0.504565
9939.000000;0.504098
9938.000000;0.503319
9937.000000;0.502223
9936.000000;0.500912
9935.000000;0.499546
9934.000000;0.498332
9933.000000;0.497413
9932.000000;0.496739
9931.000000;0.496124
9930.000000;0.495433
9929.000000;0.494653
9928.000000;0.493799
9927.000000;0.492858
9926.000000;0.491835
9925.000000;0.490758
9924.000000;0.489642
9923.000000;0.488538
9922.000000;0.487592
9921.000000;0.486933
9920.000000;0.486437
9919.000000;0.485724
9918.000000;0.484518
9917.000000;0.482962
9916.000000;0.481479
9915.000000;0.480363
9914.000000;0.479586
9913.000000;0.478985
9912.000000;0.478481
9911.000000;0.478071
9910.000000;0.477714
9909.000000;0.477297
9908.000000;0.476691
9907.000000;0.475792
9906.000000;0.474600
9905.000000;0.473282
9904.000000;0.472072
9903.000000;0.471024
9902.000000;0.469938
9901.000000;0.468681
9900.000000;0.467465
9899.000000;0.466623
9898.000000;0.466113
9897.000000;0.465468
9896.000000;0.464345
9895.000000;0.462945
9894.000000;0.461745
9893.000000;0.460942
9892.000000;0.460311
9891.000000;0.459528
9890.000000;0.458459
9889.000000;0.457153
9888.000000;0.455729
9887.000000;0.454345
9886.000000;0.453152
9885.000000;0.452226
9884.000000;0.451541
9883.000000;0.451009
9882.000000;0.450499
9881.000000;0.449859
9880.000000;0.448999
9879.000000;0.447937
9878.000000;0.446721
9877.000000;0.445364
9876.000000;0.443947
9875.000000;0.442696
9874.000000;0.441804
9873.000000;0.441189
9872.000000;0.440562
9871.000000;0.439739
9870.000000;0.438731
9869.000000;0.437563
9868.000000;0.436217
9867.000000;0.434828
9866.000000;0.433697
9865.000000;0.432948
9864.000000;0.432326
9863.000000;0.431490
9862.000000;0.430416
9861.000000;0.429321
9860.000000;0.428296
9859.000000;0.427232
9858.000000;0.426079
9857.000000;0.424958
9856.000000;0.423958
9855.000000;0.422985
9854.000000;0.421888
9853.000000;0.420637
9852.000000;0.419326
9851.000000;0.418089
9850.000000;0.417048
9849.000000;0.416244
9848.000000;0.415546
9847.000000;0.414716
9846.000000;0.413618
9845.000000;0.412332
9844.000000;0.411011
9843.000000;0.409739
9842.000000;0.408523
9841.000000;0.407354
9840.000000;0.406178
9839.000000;0.404929
9838.000000;0.403682
9837.000000;0.402641
9836.000000;0.401869
9835.000000;0.401100
9834.000000;0.399998
9833.000000;0.398571
9832.000000;0.397150
9831.000000;0.395953
9830.000000;0.394842
9829.000000;0.393566
9828.000000;0.392105
9827.000000;0.390661
9826.000000;0.389408
9825.000000;0.388341
9824.000000;0.387299
9823.000000;0.386090
9822.000000;0.384647
9821.000000;0.383166
9820.000000;0.382010
9819.000000;0.381374
9818.000000;0.381041
9817.000000;0.380570
9816.000000;0.379734
9815.000000;0.378691
9814.000000;0.377689
9813.000000;0.376727
9812.000000;0.375572
9811.000000;0.374057
9810.000000;0.372272
9809.000000;0.370456
9808.000000;0.368774
9807.000000;0.367249
9806.000000;0.365860
9805.000000;0.364626
9804.000000;0.363546
9803.000000;0.362526
9802.000000;0.361454
9801.000000;0.360328
9800.000000;0.359258
9799.000000;0.358308
9798.000000;0.357411
9797.000000;0.356439
9796.000000;0.355289
9795.000000;0.353880
9794.000000;0.352194
9793.000000;0.350376
9792.000000;0.348734
9791.000000;0.347499
9790.000000;0.346622
9789.000000;0.345825
9788.000000;0.344842
9787.000000;0.343550
9786.000000;0.341978
9785.000000;0.340289
9784.000000;0.338719
9783.000000;0.337382
9782.000000;0.336142
9781.000000;0.334786
9780.000000;0.333334
9779.000000;0.332062
9778.000000;0.331207
9777.000000;0.330699
9776.000000;0.330209
9775.000000;0.329374
9774.000000;0.328004
9773.000000;0.326198
9772.000000;0.324288
9771.000000;0.322583
9770.000000;0.321117
9769.000000;0.319731
9768.000000;0.318345
9767.000000;0.317028
9766.000000;0.315778
9765.000000;0.314407
9764.000000;0.312765
9763.000000;0.310968
9762.000000;0.309312
9761.000000;0.307998
9760.000000;0.307002
9759.000000;0.306134
9758.000000;0.305167
9757.000000;0.303996
9756.000000;0.302756
9755.000000;0.301691
9754.000000;0.300808
9753.000000;0.299772
9752.000000;0.298257
9751.000000;0.296332
9750.000000;0.294380
9749.000000;0.292675
9748.000000;0.291188
9747.000000;0.289739
9746.000000;0.288200
9745.000000;0.286542
9744.000000;0.284844
9743.000000;0.283274
9742.000000;0.281966
9741.000000;0.280887
9740.000000;0.279877
9739.000000;0.278800
9738.000000;0.277576
9737.000000;0.276135
9736.000000;0.274468
9735.000000;0.272727
9734.000000;0.271120
9733.000000;0.269683
9732.000000;0.268279
9731.000000;0.266831
9730.000000;0.265426
9729.000000;0.264135
9728.000000;0.262881
9727.000000;0.261565
9726.000000;0.260187
9725.000000;0.258765
9724.000000;0.257204
9723.000000;0.255392
9722.000000;0.253367
9721.000000;0.251307
9720.000000;0.249418
9719.000000;0.247876
9718.000000;0.246791
9717.000000;0.246075
9716.000000;0.245382
9715.000000;0.244315
9714.000000;0.242717
9713.000000;0.240707
9712.000000;0.238503
9711.000000;0.236331
9710.000000;0.234461
9709.000000;0.233110
9708.000000;0.232215
9707.000000;0.231409
9706.000000;0.230327
9705.000000;0.228900
9704.000000;0.227299
9703.000000;0.225671
9702.000000;0.223998
9701.000000;0.222200
9700.000000;0.220303
9699.000000;0.218483
9698.000000;0.216964
9697.000000;0.215814
9696.000000;0.214814
9695.000000;0.213570
9694.000000;0.211832
9693.000000;0.209712
9692.000000;0.207579
9691.000000;0.205753
9690.000000;0.204293
9689.000000;0.203007
9688.000000;0.201628
9687.000000;0.200010
9686.000000;0.198240
9685.000000;0.196529
9684.000000;0.194961
9683.000000;0.193405
9682.000000;0.191717
9681.000000;0.189947
9680.000000;0.188249
9679.000000;0.186629
9678.000000;0.184945
9677.000000;0.183168
9676.000000;0.181456
9675.000000;0.179890
9674.000000;0.178277
9673.000000;0.176351
9672.000000;0.174124
9671.000000;0.171889
9670.000000;0.169880
9669.000000;0.168074
9668.000000;0.166328
9667.000000;0.164606
9666.000000;0.162991
9665.000000;0.161508
9664.000000;0.160048
9663.000000;0.158449
9662.000000;0.156661
9661.000000;0.154799
9660.000000;0.153057
9659.000000;0.151549
9658.000000;0.150231
9657.000000;0.148953
9656.000000;0.147540
9655.000000;0.145823
9654.000000;0.143689
9653.000000;0.141225
9652.000000;0.138795
9651.000000;0.136828
9650.000000;0.135451
9649.000000;0.134386
9648.000000;0.133242
9647.000000;0.131847
9646.000000;0.130242
9645.000000;0.128449
9644.000000;0.126394
9643.000000;0.124060
9642.000000;0.121600
9641.000000;0.119234
9640.000000;0.117104
9639.000000;0.115259
9638.000000;0.113687
9637.000000;0.112278
9636.000000;0.110807
9635.000000;0.109046
9634.000000;0.106943
9633.000000;0.104656
9632.000000;0.102395
9631.000000;0.100278
9630.000000;0.098307
9629.000000;0.096427
9628.000000;0.094558
9627.000000;0.092617
9626.000000;0.090589
9625.000000;0.088565
9624.000000;0.086684
9623.000000;0.084995
9622.000000;0.083371
9621.000000;0.081612
9620.000000;0.079640
9619.000000;0.077605
9618.000000;0.075735
9617.000000;0.074088
9616.000000;0.072476
9615.000000;0.070692
9614.000000;0.068741
9613.000000;0.066784
9612.000000;0.064882
9611.000000;0.062928
9610.000000;0.060845
9609.000000;0.058732
9608.000000;0.056741
9607.000000;0.054912
9606.000000;0.053204
9605.000000;0.051594
9604.000000;0.049994
9603.000000;0.048151
9602.000000;0.045835
9601.000000;0.043168
9600.000000;0.040610
9599.000000;0.038526
9598.000000;0.036831
9597.000000;0.035125
9596.000000;0.033105
9595.000000;0.030813
9594.000000;0.028517
9593.000000;0.026455
9592.000000;0.024662
9591.000000;0.023015
9590.000000;0.021368
9589.000000;0.019635
9588.000000;0.017759
9587.000000;0.015691
9586.000000;0.013481
9585.000000;0.011331
9584.000000;0.009450
9583.000000;0.007823
9582.000000;0.006195
9581.000000;0.004294
9580.000000;0.002037
9579.000000;-0.000449
9578.000000;-0.002929
9577.000000;-0.005207
9576.000000;-0.007281
9575.000000;-0.009348
9574.000000;-0.011556
9573.000000;-0.013783
9572.000000;-0.015798
9571.000000;-0.017606
9570.000000;-0.019450
9569.000000;-0.021454
9568.000000;-0.023482
9567.000000;-0.025425
9566.000000;-0.027414
9565.000000;-0.029593
9564.000000;-0.031848
9563.000000;-0.033936
9562.000000;-0.035796
9561.000000;-0.037554
9560.000000;-0.039300
9559.000000;-0.041015
9558.000000;-0.042675
9557.000000;-0.044308
9556.000000;-0.045966
9555.000000;-0.047742
9554.000000;-0.049756
9553.000000;-0.052003
9552.000000;-0.054304
9551.000000;-0.056514
9550.000000;-0.058696
9549.000000;-0.060954
9548.000000;-0.063180
9547.000000;-0.065148
9546.000000;-0.066817
9545.000000;-0.068371
9544.000000;-0.069979
9543.000000;-0.071693
9542.000000;-0.073573
9541.000000;-0.075697
9540.000000;-0.077981
9539.000000;-0.080152
9538.000000;-0.081997
9537.000000;-0.083572
9536.000000;-0.085117
9535.000000;-0.086821
9534.000000;-0.088695
9533.000000;-0.090608
9532.000000;-0.092413
9531.000000;-0.094075
9530.000000;-0.095673
9529.000000;-0.097281
9528.000000;-0.098920
9527.000000;-0.100661
9526.000000;-0.102647
9525.000000;-0.104870
9524.000000;-0.107036
9523.000000;-0.108819
9522.000000;-0.110249
9521.000000;-0.111670
9520.000000;-0.113337
9519.000000;-0.115195
9518.000000;-0.117027
9517.000000;-0.118669
9516.000000;-0.120054
9515.000000;-0.121238
9514.000000;-0.122427
9513.000000;-0.123831
9512.000000;-0.125462
9511.000000;-0.127172
9510.000000;-0.128901
9509.000000;-0.130726
9508.000000;-0.132645
9507.000000;-0.134475
9506.000000;-0.136027
9505.000000;-0.137259
9504.000000;-0.138239
9503.000000;-0.139102
9502.000000;-0.140075
9501.000000;-0.141378
9500.000000;-0.143044
9499.000000;-0.144928
9498.000000;-0.146901
9497.000000;-0.148843
9496.000000;-0.150467
9495.000000;-0.151459
9494.000000;-0.151921
9493.000000;-0.152440
9492.000000;-0.153514
9491.000000;-0.155032
9490.000000;-0.156483
9489.000000;-0.157557
9488.000000;-0.158354
9487.000000;-0.159124
9486.000000;-0.160041
9485.000000;-0.161184
9484.000000;-0.162564
9483.000000;-0.164098
9482.000000;-0.165604
9481.000000;-0.166827
9480.000000;-0.167516
9479.000000;-0.167623
9478.000000;-0.167487
9477.000000;-0.167654
9476.000000;-0.168387
9475.000000;-0.169449
9474.000000;-0.170454
9473.000000;-0.171275
9472.000000;-0.171963
9471.000000;-0.172484
9470.000000;-0.172782
9469.000000;-0.173035
9468.000000;-0.173581
9467.000000;-0.174546
9466.000000;-0.175680
9465.000000;-0.176592
9464.000000;-0.177079
9463.000000;-0.177267
9462.000000;-0.177522
9461.000000;-0.178140
9460.000000;-0.179006
9459.000000;-0.179656
9458.000000;-0.179790
9457.000000;-0.179629
9456.000000;-0.179608
9455.000000;-0.179837
9454.000000;-0.180064
9453.000000;-0.180063
9452.000000;-0.179828
9451.000000;-0.179445
9450.000000;-0.179035
9449.000000;-0.178814
9448.000000;-0.178904
9447.000000;-0.179058
9446.000000;-0.178850
9445.000000;-0.178215
9444.000000;-0.177575
9443.000000;-0.177321
9442.000000;-0.177400
9441.000000;-0.177539
9440.000000;-0.177623
9439.000000;-0.177682
9438.000000;-0.177675
9437.000000;-0.177508
9436.000000;-0.177189
9435.000000;-0.176764
9434.000000;-0.176175
9433.000000;-0.175353
9432.000000;-0.174445
9431.000000;-0.173764
9430.000000;-0.173492
9429.000000;-0.173467
9428.000000;-0.173297
9427.000000;-0.172647
9426.000000;-0.171496
9425.000000;-0.170176
9424.000000;-0.169107
9423.000000;-0.168436
9422.000000;-0.167964
9421.000000;-0.167430
9420.000000;-0.166771
9419.000000;-0.166059
9418.000000;-0.165313
9417.000000;-0.164501
9416.000000;-0.163637
9415.000000;-0.162773
9414.000000;-0.161911
9413.000000;-0.161029
9412.000000;-0.160178
9411.000000;-0.159428
9410.000000;-0.158747
9409.000000;-0.158011
9408.000000;-0.157169
9407.000000;-0.156326
9406.000000;-0.155594
9405.000000;-0.154909
9404.000000;-0.154037
9403.000000;-0.152794
9402.000000;-0.151249
9401.000000;-0.149654
9400.000000;-0.148165
9399.000000;-0.146721
9398.000000;-0.145247
9397.000000;-0.143905
9396.000000;-0.142958
9395.000000;-0.142430
9394.000000;-0.142033
9393.000000;-0.141468
9392.000000;-0.140631
9391.000000;-0.139510
9390.000000;-0.138101
9389.000000;-0.136541
9388.000000;-0.135126
9387.000000;-0.133997
9386.000000;-0.132912
9385.000000;-0.131523
9384.000000;-0.129816
9383.000000;-0.128115
9382.000000;-0.126689
9381.000000;-0.125517
9380.000000;-0.124436
9379.000000;-0.123327
9378.000000;-0.122126
9377.000000;-0.120790
9376.000000;-0.119329
9375.000000;-0.117809
9374.000000;-0.116284
9373.000000;-0.114783
9372.000000;-0.113349
9371.000000;-0.111988
9370.000000;-0.110616
9369.000000;-0.109155
9368.000000;-0.107678
9367.000000;-0.106342
9366.000000;-0.105137
9365.000000;-0.103828
9364.000000;-0.102213
9363.000000;-0.100336
9362.000000;-0.098408
9361.000000;-0.096580
9360.000000;-0.094885
9359.000000;-0.093308
9358.000000;-0.091836
9357.000000;-0.090442
9356.000000;-0.089098
9355.000000;-0.087783
9354.000000;-0.086475
9353.000000;-0.085159
9352.000000;-0.083859
9351.000000;-0.082629
9350.000000;-0.081477
9349.000000;-0.080354
9348.000000;-0.079205
9347.000000;-0.077982
9346.000000;-0.076618
9345.000000;-0.075090
9344.000000;-0.073532
9343.000000;-0.072156
9342.000000;-0.070986
9341.000000;-0.069791
9340.000000;-0.068366
9339.000000;-0.066778
9338.000000;-0.065244
9337.000000;-0.063844
9336.000000;-0.062493
9335.000000;-0.061106
9334.000000;-0.059635
9333.000000;-0.058016
9332.000000;-0.056265
9331.000000;-0.054617
9330.000000;-0.053345
9329.000000;-0.052387
9328.000000;-0.051338
9327.000000;-0.049863
9326.000000;-0.048024
9325.000000;-0.046137
9324.000000;-0.044459
9323.000000;-0.043065
9322.000000;-0.041904
9321.000000;-0.040837
9320.000000;-0.039713
9319.000000;-0.038506
9318.000000;-0.037308
9317.000000;-0.036151
9316.000000;-0.034951
9315.000000;-0.033668
9314.000000;-0.032372
9313.000000;-0.031025
9312.000000;-0.029402
9311.000000;-0.027409
9310.000000;-0.025357
9309.000000;-0.023673
9308.000000;-0.022408
9307.000000;-0.021253
9306.000000;-0.019995
9305.000000;-0.018726
9304.000000;-0.017586
9303.000000;-0.016559
9302.000000;-0.015586
9301.000000;-0.014632
9300.000000;-0.013557
9299.000000;-0.012119
9298.000000;-0.010262
9297.000000;-0.008270
9296.000000;-0.006517
9295.000000;-0.005132
9294.000000;-0.003988
9293.000000;-0.002902
9292.000000;-0.001744
9291.000000;-0.000452
9290.000000;0.000951
9289.000000;0.002390
9288.000000;0.003845
9287.000000;0.005324
9286.000000;0.006733
9285.000000;0.007938
9284.000000;0.009029
9283.000000;0.010320
9282.000000;0.011934
9281.000000;0.013559
9280.000000;0.014811
9279.000000;0.015711
9278.000000;0.016581
9277.000000;0.017590
9276.000000;0.018677
9275.000000;0.019841
9274.000000;0.021192
9273.000000;0.022683
9272.000000;0.024060
9271.000000;0.025185
9270.000000;0.026198
9269.000000;0.027255
9268.000000;0.028308
9267.000000;0.029291
9266.000000;0.030344
9265.000000;0.031642
9264.000000;0.033114
9263.000000;0.034508
9262.000000;0.035715
9261.000000;0.036861
9260.000000;0.038081
9259.000000;0.039338
9258.000000;0.040479
9257.000000;0.041418
9256.000000;0.042204
9255.000000;0.042977
9254.000000;0.043883
9253.000000;0.044998
9252.000000;0.046315
9251.000000;0.047772
9250.000000;0.049288
9249.000000;0.050764
9248.000000;0.052083
9247.000000;0.053175
9246.000000;0.054080
9245.000000;0.054936
9244.000000;0.055898
9243.000000;0.057047
9242.000000;0.058351
9241.000000;0.059709
9240.000000;0.061039
9239.000000;0.062300
9238.000000;0.063430
9237.000000;0.064322
9236.000000;0.064966
9235.000000;0.065578
9234.000000;0.066459
9233.000000;0.067681
9232.000000;0.068998
9231.000000;0.070135
9230.000000;0.071067
9229.000000;0.071970
9228.000000;0.072973
9227.000000;0.074073
9226.000000;0.075215
9225.000000;0.076324
9224.000000;0.077270
9223.000000;0.077960
9222.000000;0.078502
9221.000000;0.079166
9220.000000;0.080127
9219.000000;0.081297
9218.000000;0.082465
9217.000000;0.083518
9216.000000;0.084503
9215.000000;0.085520
9214.000000;0.086634
9213.000000;0.087860
9212.000000;0.089141
9211.000000;0.090348
9210.000000;0.091376
9209.000000;0.092231
9208.000000;0.093003
9207.000000;0.093753
9206.000000;0.094483
9205.000000;0.095221
9204.000000;0.096068
9203.000000;0.097103
9202.000000;0.098297
9201.000000;0.099540
9200.000000;0.100725
9199.000000;0.101739
9198.000000;0.102457
9197.000000;0.102863
9196.000000;0.103185
9195.000000;0.103800
9194.000000;0.104913
9193.000000;0.106379
9192.000000;0.107863
9191.000000;0.109128
9190.000000;0.110090
9189.000000;0.110730
9188.000000;0.111098
9187.000000;0.111409
9186.000000;0.111946
9185.000000;0.112807
9184.000000;0.113831
9183.000000;0.114839
9182.000000;0.115833
9181.000000;0.116887
9180.000000;0.117956
9179.000000;0.118938
9178.000000;0.119827
9177.000000;0.120658
9176.000000;0.121351
9175.000000;0.121816
9174.000000;0.122218
9173.000000;0.122908
9172.000000;0.123999
9171.000000;0.125180
9170.000000;0.126093
9169.000000;0.126773
9168.000000;0.127529
9167.000000;0.128469
9166.000000;0.129370
9165.000000;0.130021
9164.000000;0.130520
9163.000000;0.131125
9162.000000;0.131926
9161.000000;0.132771
9160.000000;0.133488
9159.000000;0.134082
9158.000000;0.134704
9157.000000;0.135452
9156.000000;0.136253
9155.000000;0.136964
9154.000000;0.137566
9153.000000;0.138191
9152.000000;0.138925
9151.000000;0.139669
9150.000000;0.140268
9149.000000;0.140741
9148.000000;0.141292
9147.000000;0.142110
9146.000000;0.143221
9145.000000;0.144491
9144.000000;0.145689
9143.000000;0.146563
9142.000000;0.147007
9141.000000;0.147188
9140.000000;0.147425
9139.000000;0.147916
9138.000000;0.148622
9137.000000;0.149439
9136.000000;0.150337
9135.000000;0.151287
9134.000000;0.152190
9133.000000;0.152974
9132.000000;0.153710
9131.000000;0.154499
9130.000000;0.155278
9129.000000;0.155833
9128.000000;0.156031
9127.000000;0.156013
9126.000000;0.156133
9125.000000;0.156701
9124.000000;0.157745
9123.000000;0.158988
9122.000000;0.160078
9121.000000;0.160844
9120.000000;0.161324
9119.000000;0.161613
9118.000000;0.161821
9117.000000;0.162168
9116.000000;0.162919
9115.000000;0.164109
9114.000000;0.165434
9113.000000;0.166530
9112.000000;0.167296
9111.000000;0.167861
9110.000000;0.168333
9109.000000;0.168727
9108.000000;0.169076
9107.000000;0.169470
9106.000000;0.169954
9105.000000;0.170505
9104.000000;0.171111
9103.000000;0.171766
9102.000000;0.172402
9101.000000;0.172909
9100.000000;0.173280
9099.000000;0.173646
9098.000000;0.174137
9097.000000;0.174749
9096.000000;0.175371
9095.000000;0.175896
9094.000000;0.176313
9093.000000;0.176721
9092.000000;0.177252
9091.000000;0.177958
9090.000000;0.178772
9089.000000;0.179588
9088.000000;0.180310
9087.000000;0.180833
9086.000000;0.181083
9085.000000;0.181153
9084.000000;0.181330
9083.000000;0.181842
9082.000000;0.182622
9081.000000;0.183400
9080.000000;0.184013
9079.000000;0.184502
9078.000000;0.184962
9077.000000;0.185425
9076.000000;0.185917
9075.000000;0.186460
9074.000000;0.187006
9073.000000;0.187456
9072.000000;0.187794
9071.000000;0.188117
9070.000000;0.188517
9069.000000;0.189001
9068.000000;0.189556
9067.000000;0.190153
