Criado como novo conjunto de dados;"0307_DANIEL.spp","70205.7 Secs"
cm-1;Abs
10000.000000;0.596361
9999.000000;0.595780
9998.000000;0.595199
9997.000000;0.594619
9996.000000;0.594040
9995.000000;0.593462
9994.000000;0.592884
9993.000000;0.592309
9992.000000;0.591731
9991.000000;0.591159
9990.000000;0.590578
9989.000000;0.590034
9988.000000;0.589489
9987.000000;0.588826
9986.000000;0.588074
9985.000000;0.587351
9984.000000;0.586681
9983.000000;0.585936
9982.000000;0.585037
9981.000000;0.584116
9980.000000;0.583350
9979.000000;0.582641
9978.000000;0.581611
9977.000000;0.580038
9976.000000;0.578248
9975.000000;0.576905
9974.000000;0.576356
9973.000000;0.576281
9972.000000;0.576035
9971.000000;0.575267
9970.000000;0.574116
9969.000000;0.572910
9968.000000;0.571854
9967.000000;0.570975
9966.000000;0.570192
9965.000000;0.569370
9964.000000;0.568418
9963.000000;0.567413
9962.000000;0.566549
9961.000000;0.565914
9960.000000;0.565392
9959.000000;0.564793
9958.000000;0.564019
9957.000000;0.563062
9956.000000;0.561972
9955.000000;0.560906
9954.000000;0.560119
9953.000000;0.559754
9952.000000;0.559670
9951.000000;0.559533
9950.000000;0.559072
9949.000000;0.558206
9948.000000;0.557003
9947.000000;0.555599
9946.000000;0.554164
9945.000000;0.552826
9944.000000;0.551638
9943.000000;0.550629
9942.000000;0.549835
9941.000000;0.549219
9940.000000;0.548610
9939.000000;0.547850
9938.000000;0.546975
9937.000000;0.546137
9936.000000;0.545352
9935.000000;0.544473
9934.000000;0.543447
9933.000000;0.542465
9932.000000;0.541768
9931.000000;0.541363
9930.000000;0.540988
9929.000000;0.540313
9928.000000;0.539164
9927.000000;0.537637
9926.000000;0.536080
9925.000000;0.534846
9924.000000;0.533970
9923.000000;0.533162
9922.000000;0.532215
9921.000000;0.531307
9920.000000;0.530728
9919.000000;0.530376
9918.000000;0.529771
9917.000000;0.528631
9916.000000;0.527214
9915.000000;0.525971
9914.000000;0.525025
9913.000000;0.524136
9912.000000;0.523062
9911.000000;0.521772
9910.000000;0.520370
9909.000000;0.519018
9908.000000;0.517929
9907.000000;0.517256
9906.000000;0.516900
9905.000000;0.516518
9904.000000;0.515775
9903.000000;0.514579
9902.000000;0.513101
9901.000000;0.511662
9900.000000;0.510561
9899.000000;0.509857
9898.000000;0.509288
9897.000000;0.508520
9896.000000;0.507541
9895.000000;0.506671
9894.000000;0.506131
9893.000000;0.505719
9892.000000;0.505037
9891.000000;0.503930
9890.000000;0.502565
9889.000000;0.501168
9888.000000;0.499840
9887.000000;0.498629
9886.000000;0.497581
9885.000000;0.496663
9884.000000;0.495736
9883.000000;0.494684
9882.000000;0.493541
9881.000000;0.492427
9880.000000;0.491383
9879.000000;0.490284
9878.000000;0.488947
9877.000000;0.487327
9876.000000;0.485649
9875.000000;0.484287
9874.000000;0.483491
9873.000000;0.483176
9872.000000;0.482996
9871.000000;0.482575
9870.000000;0.481690
9869.000000;0.480338
9868.000000;0.478715
9867.000000;0.477116
9866.000000;0.475767
9865.000000;0.474724
9864.000000;0.473922
9863.000000;0.473260
9862.000000;0.472567
9861.000000;0.471615
9860.000000;0.470314
9859.000000;0.468904
9858.000000;0.467756
9857.000000;0.466960
9856.000000;0.466223
9855.000000;0.465232
9854.000000;0.463980
9853.000000;0.462678
9852.000000;0.461475
9851.000000;0.460399
9850.000000;0.459461
9849.000000;0.458630
9848.000000;0.457795
9847.000000;0.456881
9846.000000;0.455973
9845.000000;0.455160
9844.000000;0.454286
9843.000000;0.453069
9842.000000;0.451502
9841.000000;0.449946
9840.000000;0.448719
9839.000000;0.447716
9838.000000;0.446572
9837.000000;0.445090
9836.000000;0.443401
9835.000000;0.441771
9834.000000;0.440385
9833.000000;0.439305
9832.000000;0.438463
9831.000000;0.437680
9830.000000;0.436779
9829.000000;0.435725
9828.000000;0.434608
9827.000000;0.433493
9826.000000;0.432369
9825.000000;0.431254
9824.000000;0.430254
9823.000000;0.429456
9822.000000;0.428818
9821.000000;0.428168
9820.000000;0.427281
9819.000000;0.425970
9818.000000;0.424222
9817.000000;0.422275
9816.000000;0.420498
9815.000000;0.419090
9814.000000;0.417937
9813.000000;0.416786
9812.000000;0.415538
9811.000000;0.414338
9810.000000;0.413394
9809.000000;0.412710
9808.000000;0.411969
9807.000000;0.410762
9806.000000;0.409006
9805.000000;0.407114
9804.000000;0.405587
9803.000000;0.404472
9802.000000;0.403390
9801.000000;0.402115
9800.000000;0.400833
9799.000000;0.399709
9798.000000;0.398503
9797.000000;0.396907
9796.000000;0.395122
9795.000000;0.393704
9794.000000;0.392864
9793.000000;0.392242
9792.000000;0.391405
9791.000000;0.390283
9790.000000;0.389015
9789.000000;0.387675
9788.000000;0.386346
9787.000000;0.385230
9786.000000;0.384398
9785.000000;0.383542
9784.000000;0.382229
9783.000000;0.380424
9782.000000;0.378571
9781.000000;0.377108
9780.000000;0.376004
9779.000000;0.374839
9778.000000;0.373297
9777.000000;0.371523
9776.000000;0.369961
9775.000000;0.368824
9774.000000;0.367832
9773.000000;0.366577
9772.000000;0.365058
9771.000000;0.363644
9770.000000;0.362504
9769.000000;0.361343
9768.000000;0.359847
9767.000000;0.358126
9766.000000;0.356529
9765.000000;0.355165
9764.000000;0.353872
9763.000000;0.352535
9762.000000;0.351215
9761.000000;0.349980
9760.000000;0.348825
9759.000000;0.347740
9758.000000;0.346669
9757.000000;0.345420
9756.000000;0.343807
9755.000000;0.341915
9754.000000;0.340042
9753.000000;0.338384
9752.000000;0.336930
9751.000000;0.335641
9750.000000;0.334506
9749.000000;0.333383
9748.000000;0.332029
9747.000000;0.330396
9746.000000;0.328718
9745.000000;0.327184
9744.000000;0.325696
9743.000000;0.324085
9742.000000;0.322421
9741.000000;0.320945
9740.000000;0.319763
9739.000000;0.318782
9738.000000;0.317866
9737.000000;0.316912
9736.000000;0.315794
9735.000000;0.314404
9734.000000;0.312787
9733.000000;0.311124
9732.000000;0.309564
9731.000000;0.308102
9730.000000;0.306620
9729.000000;0.304993
9728.000000;0.303181
9727.000000;0.301313
9726.000000;0.299655
9725.000000;0.298391
9724.000000;0.297394
9723.000000;0.296271
9722.000000;0.294684
9721.000000;0.292632
9720.000000;0.290418
9719.000000;0.288394
9718.000000;0.286725
9717.000000;0.285355
9716.000000;0.284136
9715.000000;0.282948
9714.000000;0.281704
9713.000000;0.280314
9712.000000;0.278722
9711.000000;0.277003
9710.000000;0.275329
9709.000000;0.273794
9708.000000;0.272308
9707.000000;0.270687
9706.000000;0.268836
9705.000000;0.266826
9704.000000;0.264852
9703.000000;0.263131
9702.000000;0.261760
9701.000000;0.260592
9700.000000;0.259312
9699.000000;0.257716
9698.000000;0.255904
9697.000000;0.254130
9696.000000;0.252518
9695.000000;0.251020
9694.000000;0.249594
9693.000000;0.248295
9692.000000;0.247127
9691.000000;0.245925
9690.000000;0.244470
9689.000000;0.242697
9688.000000;0.240736
9687.000000;0.238778
9686.000000;0.236946
9685.000000;0.235292
9684.000000;0.233830
9683.000000;0.232514
9682.000000;0.231208
9681.000000;0.229743
9680.000000;0.228077
9679.000000;0.226354
9678.000000;0.224727
9677.000000;0.223114
9676.000000;0.221234
9675.000000;0.218934
9674.000000;0.216420
9673.000000;0.214088
9672.000000;0.212168
9671.000000;0.210588
9670.000000;0.209141
9669.000000;0.207664
9668.000000;0.206072
9667.000000;0.204335
9666.000000;0.202491
9665.000000;0.200627
9664.000000;0.198816
9663.000000;0.197089
9662.000000;0.195445
9661.000000;0.193841
9660.000000;0.192172
9659.000000;0.190306
9658.000000;0.188181
9657.000000;0.185840
9656.000000;0.183421
9655.000000;0.181160
9654.000000;0.179366
9653.000000;0.178209
9652.000000;0.177453
9651.000000;0.176508
9650.000000;0.174886
9649.000000;0.172616
9648.000000;0.170166
9647.000000;0.167994
9646.000000;0.166236
9645.000000;0.164728
9644.000000;0.163198
9643.000000;0.161430
9642.000000;0.159369
9641.000000;0.157118
9640.000000;0.154850
9639.000000;0.152708
9638.000000;0.150801
9637.000000;0.149205
9636.000000;0.147867
9635.000000;0.146517
9634.000000;0.144813
9633.000000;0.142636
9632.000000;0.140214
9631.000000;0.137916
9630.000000;0.135964
9629.000000;0.134315
9628.000000;0.132754
9627.000000;0.131052
9626.000000;0.129103
9625.000000;0.126986
9624.000000;0.124867
9623.000000;0.122836
9622.000000;0.120880
9621.000000;0.119015
9620.000000;0.117351
9619.000000;0.115917
9618.000000;0.114498
9617.000000;0.112750
9616.000000;0.110543
9615.000000;0.108109
9614.000000;0.105838
9613.000000;0.103926
9612.000000;0.102247
9611.000000;0.100506
9610.000000;0.098530
9609.000000;0.096420
9608.000000;0.094424
9607.000000;0.092639
9606.000000;0.090876
9605.000000;0.088874
9604.000000;0.086645
9603.000000;0.084500
9602.000000;0.082691
9601.000000;0.081117
9600.000000;0.079447
9599.000000;0.077498
9598.000000;0.075404
9597.000000;0.073405
9596.000000;0.071584
9595.000000;0.069814
9594.000000;0.067880
9593.000000;0.065638
9592.000000;0.063125
9591.000000;0.060589
9590.000000;0.058322
9589.000000;0.056384
9588.000000;0.054517
9587.000000;0.052421
9586.000000;0.050092
9585.000000;0.047788
9584.000000;0.045716
9583.000000;0.043857
9582.000000;0.042101
9581.000000;0.040356
9580.000000;0.038493
9579.000000;0.036328
9578.000000;0.033816
9577.000000;0.031199
9576.000000;0.028816
9575.000000;0.026788
9574.000000;0.024967
9573.000000;0.023147
9572.000000;0.021233
9571.000000;0.019225
9570.000000;0.017175
9569.000000;0.015156
9568.000000;0.013195
9567.000000;0.011226
9566.000000;0.009210
9565.000000;0.007240
9564.000000;0.005412
9563.000000;0.003602
9562.000000;0.001567
9561.000000;-0.000723
9560.000000;-0.003007
9559.000000;-0.005060
9558.000000;-0.006928
9557.000000;-0.008749
9556.000000;-0.010504
9555.000000;-0.012121
9554.000000;-0.013714
9553.000000;-0.015551
9552.000000;-0.017781
9551.000000;-0.020334
9550.000000;-0.023036
9549.000000;-0.025689
9548.000000;-0.028063
9547.000000;-0.029980
9546.000000;-0.031468
9545.000000;-0.032760
9544.000000;-0.034118
9543.000000;-0.035711
9542.000000;-0.037631
9541.000000;-0.039892
9540.000000;-0.042367
9539.000000;-0.044792
9538.000000;-0.046935
9537.000000;-0.048737
9536.000000;-0.050286
9535.000000;-0.051712
9534.000000;-0.053123
9533.000000;-0.054630
9532.000000;-0.056358
9531.000000;-0.058375
9530.000000;-0.060576
9529.000000;-0.062711
9528.000000;-0.064601
9527.000000;-0.066324
9526.000000;-0.068079
9525.000000;-0.069875
9524.000000;-0.071538
9523.000000;-0.073076
9522.000000;-0.074804
9521.000000;-0.076927
9520.000000;-0.079137
9519.000000;-0.080917
9518.000000;-0.082156
9517.000000;-0.083214
9516.000000;-0.084421
9515.000000;-0.085790
9514.000000;-0.087294
9513.000000;-0.089088
9512.000000;-0.091247
9511.000000;-0.093525
9510.000000;-0.095562
9509.000000;-0.097245
9508.000000;-0.098669
9507.000000;-0.099874
9506.000000;-0.100841
9505.000000;-0.101686
9504.000000;-0.102666
9503.000000;-0.103929
9502.000000;-0.105416
9501.000000;-0.107018
9500.000000;-0.108723
9499.000000;-0.110551
9498.000000;-0.112406
9497.000000;-0.114089
9496.000000;-0.115435
9495.000000;-0.116461
9494.000000;-0.117380
9493.000000;-0.118411
9492.000000;-0.119567
9491.000000;-0.120696
9490.000000;-0.121755
9489.000000;-0.122912
9488.000000;-0.124252
9487.000000;-0.125542
9486.000000;-0.126472
9485.000000;-0.127093
9484.000000;-0.127790
9483.000000;-0.128812
9482.000000;-0.130023
9481.000000;-0.131170
9480.000000;-0.132192
9479.000000;-0.133149
9478.000000;-0.134005
9477.000000;-0.134687
9476.000000;-0.135311
9475.000000;-0.136132
9474.000000;-0.137238
9473.000000;-0.138370
9472.000000;-0.139121
9471.000000;-0.139319
9470.000000;-0.139224
9469.000000;-0.139356
9468.000000;-0.140084
9467.000000;-0.141282
9466.000000;-0.142417
9465.000000;-0.143030
9464.000000;-0.143162
9463.000000;-0.143267
9462.000000;-0.143724
9461.000000;-0.144494
9460.000000;-0.145239
9459.000000;-0.145698
9458.000000;-0.145870
9457.000000;-0.145911
9456.000000;-0.145965
9455.000000;-0.146098
9454.000000;-0.146301
9453.000000;-0.146493
9452.000000;-0.146562
9451.000000;-0.146481
9450.000000;-0.146388
9449.000000;-0.146440
9448.000000;-0.146571
9447.000000;-0.146468
9446.000000;-0.145890
9445.000000;-0.144992
9444.000000;-0.144277
9443.000000;-0.144194
9442.000000;-0.144772
9441.000000;-0.145615
9440.000000;-0.146199
9439.000000;-0.146213
9438.000000;-0.145706
9437.000000;-0.144962
9436.000000;-0.144223
9435.000000;-0.143539
9434.000000;-0.142863
9433.000000;-0.142245
9432.000000;-0.141825
9431.000000;-0.141650
9430.000000;-0.141589
9429.000000;-0.141473
9428.000000;-0.141244
9427.000000;-0.140926
9426.000000;-0.140490
9425.000000;-0.139843
9424.000000;-0.138971
9423.000000;-0.138015
9422.000000;-0.137152
9421.000000;-0.136398
9420.000000;-0.135602
9419.000000;-0.134646
9418.000000;-0.133610
9417.000000;-0.132666
9416.000000;-0.131841
9415.000000;-0.130978
9414.000000;-0.129997
9413.000000;-0.129068
9412.000000;-0.128432
9411.000000;-0.128083
9410.000000;-0.127738
9409.000000;-0.127124
9408.000000;-0.126234
9407.000000;-0.125269
9406.000000;-0.124388
9405.000000;-0.123550
9404.000000;-0.122564
9403.000000;-0.121289
9402.000000;-0.119824
9401.000000;-0.118491
9400.000000;-0.117537
9399.000000;-0.116835
9398.000000;-0.115941
9397.000000;-0.114493
9396.000000;-0.112543
9395.000000;-0.110531
9394.000000;-0.108958
9393.000000;-0.108041
9392.000000;-0.107552
9391.000000;-0.106980
9390.000000;-0.105959
9389.000000;-0.104576
9388.000000;-0.103212
9387.000000;-0.102080
9386.000000;-0.101039
9385.000000;-0.099929
9384.000000;-0.098867
9383.000000;-0.098021
9382.000000;-0.097202
9381.000000;-0.095980
9380.000000;-0.094232
9379.000000;-0.092368
9378.000000;-0.090894
9377.000000;-0.089857
9376.000000;-0.088860
9375.000000;-0.087532
9374.000000;-0.085850
9373.000000;-0.084043
9372.000000;-0.082337
9371.000000;-0.080830
9370.000000;-0.079511
9369.000000;-0.078284
9368.000000;-0.076996
9367.000000;-0.075524
9366.000000;-0.073882
9365.000000;-0.072232
9364.000000;-0.070735
9363.000000;-0.069412
9362.000000;-0.068188
9361.000000;-0.067067
9360.000000;-0.066165
9359.000000;-0.065476
9358.000000;-0.064682
9357.000000;-0.063380
9356.000000;-0.061532
9355.000000;-0.059553
9354.000000;-0.057882
9353.000000;-0.056536
9352.000000;-0.055227
9351.000000;-0.053815
9350.000000;-0.052469
9349.000000;-0.051392
9348.000000;-0.050551
9347.000000;-0.049716
9346.000000;-0.048625
9345.000000;-0.047092
9344.000000;-0.045094
9343.000000;-0.042888
9342.000000;-0.040904
9341.000000;-0.039390
9340.000000;-0.038197
9339.000000;-0.037010
9338.000000;-0.035703
9337.000000;-0.034366
9336.000000;-0.033060
9335.000000;-0.031741
9334.000000;-0.030387
9333.000000;-0.029025
9332.000000;-0.027608
9331.000000;-0.026054
9330.000000;-0.024467
9329.000000;-0.023145
9328.000000;-0.022247
9327.000000;-0.021534
9326.000000;-0.020573
9325.000000;-0.019134
9324.000000;-0.017318
9323.000000;-0.015386
9322.000000;-0.013570
9321.000000;-0.012013
9320.000000;-0.010764
9319.000000;-0.009769
9318.000000;-0.008888
9317.000000;-0.007924
9316.000000;-0.006682
9315.000000;-0.005072
9314.000000;-0.003215
9313.000000;-0.001373
9312.000000;0.000259
9311.000000;0.001660
9310.000000;0.002900
9309.000000;0.004045
9308.000000;0.005176
9307.000000;0.006385
9306.000000;0.007669
9305.000000;0.008928
9304.000000;0.010151
9303.000000;0.011484
9302.000000;0.012991
9301.000000;0.014475
9300.000000;0.015711
9299.000000;0.016774
9298.000000;0.017931
9297.000000;0.019231
9296.000000;0.020446
9295.000000;0.021472
9294.000000;0.022549
9293.000000;0.023937
9292.000000;0.025547
9291.000000;0.027051
9290.000000;0.028297
9289.000000;0.029433
9288.000000;0.030635
9287.000000;0.031858
9286.000000;0.032940
9285.000000;0.033857
9284.000000;0.034811
9283.000000;0.036018
9282.000000;0.037460
9281.000000;0.038892
9280.000000;0.040118
9279.000000;0.041208
9278.000000;0.042398
9277.000000;0.043813
9276.000000;0.045359
9275.000000;0.046853
9274.000000;0.048197
9273.000000;0.049414
9272.000000;0.050611
9271.000000;0.051915
9270.000000;0.053359
9269.000000;0.054797
9268.000000;0.056014
9267.000000;0.056945
9266.000000;0.057747
9265.000000;0.058625
9264.000000;0.059656
9263.000000;0.060792
9262.000000;0.061949
9261.000000;0.063053
9260.000000;0.064065
9259.000000;0.065022
9258.000000;0.066023
9257.000000;0.067132
9256.000000;0.068310
9255.000000;0.069459
9254.000000;0.070490
9253.000000;0.071375
9252.000000;0.072219
9251.000000;0.073273
9250.000000;0.074753
9249.000000;0.076536
9248.000000;0.078152
9247.000000;0.079217
9246.000000;0.079824
9245.000000;0.080421
9244.000000;0.081334
9243.000000;0.082526
9242.000000;0.083771
9241.000000;0.084888
9240.000000;0.085797
9239.000000;0.086503
9238.000000;0.087129
9237.000000;0.087893
9236.000000;0.088953
9235.000000;0.090274
9234.000000;0.091688
9233.000000;0.093046
9232.000000;0.094311
9231.000000;0.095553
9230.000000;0.096881
9229.000000;0.098353
9228.000000;0.099894
9227.000000;0.101326
9226.000000;0.102503
9225.000000;0.103381
9224.000000;0.103974
9223.000000;0.104314
9222.000000;0.104535
9221.000000;0.104901
9220.000000;0.105642
9219.000000;0.106745
9218.000000;0.107987
9217.000000;0.109153
9216.000000;0.110184
9215.000000;0.111101
9214.000000;0.111926
9213.000000;0.112687
9212.000000;0.113433
9211.000000;0.114180
9210.000000;0.114894
9209.000000;0.115605
9208.000000;0.116461
9207.000000;0.117608
9206.000000;0.119028
9205.000000;0.120530
9204.000000;0.121893
9203.000000;0.122967
9202.000000;0.123709
9201.000000;0.124229
9200.000000;0.124777
9199.000000;0.125556
9198.000000;0.126514
9197.000000;0.127387
9196.000000;0.127995
9195.000000;0.128444
9194.000000;0.128978
9193.000000;0.129706
9192.000000;0.130545
9191.000000;0.131402
9190.000000;0.132337
9189.000000;0.133512
9188.000000;0.134988
9187.000000;0.136583
9186.000000;0.137957
9185.000000;0.138870
9184.000000;0.139386
9183.000000;0.139772
9182.000000;0.140234
9181.000000;0.140792
9180.000000;0.141379
9179.000000;0.141947
9178.000000;0.142470
9177.000000;0.142957
9176.000000;0.143544
9175.000000;0.144440
9174.000000;0.145657
9173.000000;0.146890
9172.000000;0.147805
9171.000000;0.148428
9170.000000;0.149075
9169.000000;0.149910
9168.000000;0.150751
9167.000000;0.151352
9166.000000;0.151733
9165.000000;0.152136
9164.000000;0.152752
9163.000000;0.153603
9162.000000;0.154593
9161.000000;0.155568
9160.000000;0.156375
9159.000000;0.156978
9158.000000;0.157533
9157.000000;0.158256
9156.000000;0.159217
9155.000000;0.160297
9154.000000;0.161323
9153.000000;0.162162
9152.000000;0.162727
9151.000000;0.163017
9150.000000;0.163206
9149.000000;0.163584
9148.000000;0.164324
9147.000000;0.165316
9146.000000;0.166288
9145.000000;0.167083
9144.000000;0.167779
9143.000000;0.168555
9142.000000;0.169461
9141.000000;0.170330
9140.000000;0.170929
9139.000000;0.171202
9138.000000;0.171351
9137.000000;0.171660
9136.000000;0.172234
9135.000000;0.172964
9134.000000;0.173718
9133.000000;0.174486
9132.000000;0.175322
9131.000000;0.176235
9130.000000;0.177212
9129.000000;0.178275
9128.000000;0.179379
9127.000000;0.180318
9126.000000;0.180861
9125.000000;0.181010
9124.000000;0.181021
9123.000000;0.181120
9122.000000;0.181350
9121.000000;0.181724
9120.000000;0.182374
9119.000000;0.183387
9118.000000;0.184570
9117.000000;0.185561
9116.000000;0.186189
9115.000000;0.186578
9114.000000;0.186912
9113.000000;0.187211
9112.000000;0.187420
9111.000000;0.187580
9110.000000;0.187814
9109.000000;0.188200
9108.000000;0.188711
9107.000000;0.189279
9106.000000;0.189867
9105.000000;0.190495
9104.000000;0.191229
9103.000000;0.192082
9102.000000;0.192944
9101.000000;0.193669
9100.000000;0.194274
9099.000000;0.194930
9098.000000;0.195716
9097.000000;0.196470
9096.000000;0.196989
9095.000000;0.197294
9094.000000;0.197593
9093.000000;0.198011
9092.000000;0.198511
9091.000000;0.199032
9090.000000;0.199561
9089.000000;0.200053
9088.000000;0.200435
9087.000000;0.200747
9086.000000;0.201159
9085.000000;0.201777
9084.000000;0.202492
9083.000000;0.203085
9082.000000;0.203446
9081.000000;0.203646
9080.000000;0.203876
9079.000000;0.204339
9078.000000;0.205099
9077.000000;0.205972
9076.000000;0.206631
9075.000000;0.206936
9074.000000;0.207101
9073.000000;0.207465
9072.000000;0.208140
9071.000000;0.208971
9070.000000;0.209776
9069.000000;0.210479
9068.000000;0.211038
9067.000000;0.211393
9066.000000;0.211552
9065.000000;0.211641
