Criado como novo conjunto de dados;"0307_DANIEL.spp","23763.0 Secs"
cm-1;Abs
10000.000000;1.092276
9999.000000;1.091019
9998.000000;1.089378
9997.000000;1.087865
9996.000000;1.086945
9995.000000;1.086176
9994.000000;1.084766
9993.000000;1.082543
9992.000000;1.080428
9991.000000;1.079399
9990.000000;1.079427
9989.000000;1.079537
9988.000000;1.078848
9987.000000;1.077305
9986.000000;1.075473
9985.000000;1.073919
9984.000000;1.072817
9983.000000;1.071942
9982.000000;1.070947
9981.000000;1.069700
9980.000000;1.068340
9979.000000;1.067019
9978.000000;1.065731
9977.000000;1.064469
9976.000000;1.063301
9975.000000;1.062125
9974.000000;1.060570
9973.000000;1.058498
9972.000000;1.056456
9971.000000;1.055198
9970.000000;1.054725
9969.000000;1.054203
9968.000000;1.052946
9967.000000;1.051146
9966.000000;1.049442
9965.000000;1.048141
9964.000000;1.047091
9963.000000;1.046067
9962.000000;1.044956
9961.000000;1.043655
9960.000000;1.042096
9959.000000;1.040394
9958.000000;1.038832
9957.000000;1.037661
9956.000000;1.036917
9955.000000;1.036337
9954.000000;1.035460
9953.000000;1.033995
9952.000000;1.032181
9951.000000;1.030613
9950.000000;1.029609
9949.000000;1.028947
9948.000000;1.028305
9947.000000;1.027685
9946.000000;1.027188
9945.000000;1.026602
9944.000000;1.025530
9943.000000;1.023902
9942.000000;1.022065
9941.000000;1.020392
9940.000000;1.018971
9939.000000;1.017674
9938.000000;1.016351
9937.000000;1.014952
9936.000000;1.013566
9935.000000;1.012319
9934.000000;1.011157
9933.000000;1.009806
9932.000000;1.008092
9931.000000;1.006241
9930.000000;1.004703
9929.000000;1.003696
9928.000000;1.003045
9927.000000;1.002420
9926.000000;1.001590
9925.000000;1.000467
9924.000000;0.999051
9923.000000;0.997407
9922.000000;0.995657
9921.000000;0.993962
9920.000000;0.992501
9919.000000;0.991342
9918.000000;0.990293
9917.000000;0.989008
9916.000000;0.987368
9915.000000;0.985664
9914.000000;0.984308
9913.000000;0.983449
9912.000000;0.982961
9911.000000;0.982623
9910.000000;0.982120
9909.000000;0.981025
9908.000000;0.979097
9907.000000;0.976648
9906.000000;0.974372
9905.000000;0.972761
9904.000000;0.971780
9903.000000;0.971094
9902.000000;0.970416
9901.000000;0.969601
9900.000000;0.968598
9899.000000;0.967475
9898.000000;0.966360
9897.000000;0.965247
9896.000000;0.963872
9895.000000;0.961900
9894.000000;0.959243
9893.000000;0.956212
9892.000000;0.953358
9891.000000;0.951174
9890.000000;0.949873
9889.000000;0.949381
9888.000000;0.949421
9887.000000;0.949562
9886.000000;0.949272
9885.000000;0.948167
9884.000000;0.946325
9883.000000;0.944263
9882.000000;0.942532
9881.000000;0.941317
9880.000000;0.940428
9879.000000;0.939516
9878.000000;0.938246
9877.000000;0.936455
9876.000000;0.934364
9875.000000;0.932547
9874.000000;0.931435
9873.000000;0.930803
9872.000000;0.929893
9871.000000;0.928150
9870.000000;0.925762
9869.000000;0.923459
9868.000000;0.921821
9867.000000;0.920826
9866.000000;0.919986
9865.000000;0.918915
9864.000000;0.917731
9863.000000;0.916813
9862.000000;0.916174
9861.000000;0.915276
9860.000000;0.913623
9859.000000;0.911409
9858.000000;0.909334
9857.000000;0.907849
9856.000000;0.906783
9855.000000;0.905672
9854.000000;0.904235
9853.000000;0.902488
9852.000000;0.900624
9851.000000;0.898864
9850.000000;0.897314
9849.000000;0.895877
9848.000000;0.894430
9847.000000;0.893060
9846.000000;0.891953
9845.000000;0.891032
9844.000000;0.889923
9843.000000;0.888413
9842.000000;0.886762
9841.000000;0.885366
9840.000000;0.884252
9839.000000;0.883077
9838.000000;0.881575
9837.000000;0.879787
9836.000000;0.877888
9835.000000;0.875964
9834.000000;0.874034
9833.000000;0.872122
9832.000000;0.870226
9831.000000;0.868311
9830.000000;0.866398
9829.000000;0.864625
9828.000000;0.863109
9827.000000;0.861789
9826.000000;0.860477
9825.000000;0.859094
9824.000000;0.857766
9823.000000;0.856640
9822.000000;0.855600
9821.000000;0.854279
9820.000000;0.852422
9819.000000;0.850220
9818.000000;0.848207
9817.000000;0.846793
9816.000000;0.845896
9815.000000;0.845046
9814.000000;0.843825
9813.000000;0.842168
9812.000000;0.840277
9811.000000;0.838346
9810.000000;0.836423
9809.000000;0.834515
9808.000000;0.832718
9807.000000;0.831180
9806.000000;0.829942
9805.000000;0.828861
9804.000000;0.827718
9803.000000;0.826401
9802.000000;0.824939
9801.000000;0.823358
9800.000000;0.821568
9799.000000;0.819458
9798.000000;0.817135
9797.000000;0.814973
9796.000000;0.813333
9795.000000;0.812209
9794.000000;0.811224
9793.000000;0.810014
9792.000000;0.808566
9791.000000;0.807099
9790.000000;0.805704
9789.000000;0.804176
9788.000000;0.802221
9787.000000;0.799783
9786.000000;0.797154
9785.000000;0.794795
9784.000000;0.793020
9783.000000;0.791769
9782.000000;0.790697
9781.000000;0.789499
9780.000000;0.788157
9779.000000;0.786821
9778.000000;0.785546
9777.000000;0.784207
9776.000000;0.782660
9775.000000;0.780858
9774.000000;0.778845
9773.000000;0.776751
9772.000000;0.774811
9771.000000;0.773214
9770.000000;0.771866
9769.000000;0.770440
9768.000000;0.768759
9767.000000;0.767022
9766.000000;0.765531
9765.000000;0.764255
9764.000000;0.762825
9763.000000;0.760935
9762.000000;0.758647
9761.000000;0.756287
9760.000000;0.754153
9759.000000;0.752354
9758.000000;0.750828
9757.000000;0.749440
9756.000000;0.748054
9755.000000;0.746540
9754.000000;0.744769
9753.000000;0.742673
9752.000000;0.740367
9751.000000;0.738165
9750.000000;0.736349
9749.000000;0.734900
9748.000000;0.733517
9747.000000;0.731940
9746.000000;0.730196
9745.000000;0.728476
9744.000000;0.726854
9743.000000;0.725243
9742.000000;0.723585
9741.000000;0.721983
9740.000000;0.720557
9739.000000;0.719254
9738.000000;0.717873
9737.000000;0.716272
9736.000000;0.714474
9735.000000;0.712588
9734.000000;0.710670
9733.000000;0.708710
9732.000000;0.706690
9731.000000;0.704635
9730.000000;0.702600
9729.000000;0.700631
9728.000000;0.698724
9727.000000;0.696822
9726.000000;0.694885
9725.000000;0.692899
9724.000000;0.690824
9723.000000;0.688604
9722.000000;0.686314
9721.000000;0.684192
9720.000000;0.682398
9719.000000;0.680759
9718.000000;0.678902
9717.000000;0.676683
9716.000000;0.674355
9715.000000;0.672321
9714.000000;0.670810
9713.000000;0.669773
9712.000000;0.668893
9711.000000;0.667679
9710.000000;0.665811
9709.000000;0.663505
9708.000000;0.661322
9707.000000;0.659510
9706.000000;0.657720
9705.000000;0.655527
9704.000000;0.653009
9703.000000;0.650569
9702.000000;0.648403
9701.000000;0.646433
9700.000000;0.644640
9699.000000;0.643110
9698.000000;0.641735
9697.000000;0.640184
9696.000000;0.638249
9695.000000;0.636042
9694.000000;0.633808
9693.000000;0.631690
9692.000000;0.629698
9691.000000;0.627740
9690.000000;0.625684
9689.000000;0.623515
9688.000000;0.621389
9687.000000;0.619402
9686.000000;0.617400
9685.000000;0.615231
9684.000000;0.613080
9683.000000;0.611283
9682.000000;0.609835
9681.000000;0.608368
9680.000000;0.606634
9679.000000;0.604731
9678.000000;0.602796
9677.000000;0.600803
9676.000000;0.598736
9675.000000;0.596688
9674.000000;0.594655
9673.000000;0.592472
9672.000000;0.590090
9671.000000;0.587681
9670.000000;0.585371
9669.000000;0.583093
9668.000000;0.580822
9667.000000;0.578687
9666.000000;0.576702
9665.000000;0.574626
9664.000000;0.572316
9663.000000;0.569986
9662.000000;0.567902
9661.000000;0.565996
9660.000000;0.564026
9659.000000;0.561966
9658.000000;0.559978
9657.000000;0.558113
9656.000000;0.556260
9655.000000;0.554341
9654.000000;0.552361
9653.000000;0.550304
9652.000000;0.548140
9651.000000;0.545897
9650.000000;0.543632
9649.000000;0.541399
9648.000000;0.539317
9647.000000;0.537513
9646.000000;0.535851
9645.000000;0.533907
9644.000000;0.531406
9643.000000;0.528563
9642.000000;0.525810
9641.000000;0.523315
9640.000000;0.520975
9639.000000;0.518723
9638.000000;0.516584
9637.000000;0.514508
9636.000000;0.512421
9635.000000;0.510397
9634.000000;0.508548
9633.000000;0.506770
9632.000000;0.504813
9631.000000;0.502612
9630.000000;0.500344
9629.000000;0.498146
9628.000000;0.495992
9627.000000;0.493825
9626.000000;0.491603
9625.000000;0.489243
9624.000000;0.486732
9623.000000;0.484283
9622.000000;0.482177
9621.000000;0.480387
9620.000000;0.478586
9619.000000;0.476527
9618.000000;0.474224
9617.000000;0.471755
9616.000000;0.469162
9615.000000;0.466612
9614.000000;0.464381
9613.000000;0.462492
9612.000000;0.460535
9611.000000;0.458076
9610.000000;0.455154
9609.000000;0.452232
9608.000000;0.449717
9607.000000;0.447621
9606.000000;0.445643
9605.000000;0.443478
9604.000000;0.441074
9603.000000;0.438642
9602.000000;0.436401
9601.000000;0.434328
9600.000000;0.432241
9599.000000;0.430107
9598.000000;0.428079
9597.000000;0.426201
9596.000000;0.424242
9595.000000;0.421933
9594.000000;0.419263
9593.000000;0.416442
9592.000000;0.413672
9591.000000;0.411061
9590.000000;0.408675
9589.000000;0.406519
9588.000000;0.404478
9587.000000;0.402370
9586.000000;0.400036
9585.000000;0.397414
9584.000000;0.394622
9583.000000;0.391999
9582.000000;0.389881
9581.000000;0.388199
9580.000000;0.386446
9579.000000;0.384197
9578.000000;0.381580
9577.000000;0.379024
9576.000000;0.376655
9575.000000;0.374220
9574.000000;0.371593
9573.000000;0.369039
9572.000000;0.366829
9571.000000;0.364839
9570.000000;0.362718
9569.000000;0.360334
9568.000000;0.357848
9567.000000;0.355425
9566.000000;0.353072
9565.000000;0.350760
9564.000000;0.348480
9563.000000;0.346145
9562.000000;0.343607
9561.000000;0.340875
9560.000000;0.338216
9559.000000;0.335921
9558.000000;0.334005
9557.000000;0.332195
9556.000000;0.330192
9555.000000;0.327923
9554.000000;0.325549
9553.000000;0.323301
9552.000000;0.321272
9551.000000;0.319348
9550.000000;0.317322
9549.000000;0.315080
9548.000000;0.312649
9547.000000;0.310082
9546.000000;0.307428
9545.000000;0.304831
9544.000000;0.302527
9543.000000;0.300605
9542.000000;0.298828
9541.000000;0.296837
9540.000000;0.294537
9539.000000;0.292161
9538.000000;0.289949
9537.000000;0.287870
9536.000000;0.285674
9535.000000;0.283151
9534.000000;0.280318
9533.000000;0.277459
9532.000000;0.274967
9531.000000;0.273038
9530.000000;0.271475
9529.000000;0.269860
9528.000000;0.267942
9527.000000;0.265767
9526.000000;0.263475
9525.000000;0.261171
9524.000000;0.259009
9523.000000;0.257196
9522.000000;0.255737
9521.000000;0.254326
9520.000000;0.252638
9519.000000;0.250642
9518.000000;0.248480
9517.000000;0.246197
9516.000000;0.243786
9515.000000;0.241434
9514.000000;0.239459
9513.000000;0.237965
9512.000000;0.236723
9511.000000;0.235431
9510.000000;0.233946
9509.000000;0.232249
9508.000000;0.230351
9507.000000;0.228335
9506.000000;0.226350
9505.000000;0.224466
9504.000000;0.222595
9503.000000;0.220623
9502.000000;0.218572
9501.000000;0.216565
9500.000000;0.214697
9499.000000;0.212984
9498.000000;0.211398
9497.000000;0.209882
9496.000000;0.208387
9495.000000;0.206924
9494.000000;0.205566
9493.000000;0.204340
9492.000000;0.203132
9491.000000;0.201751
9490.000000;0.200125
9489.000000;0.198421
9488.000000;0.196960
9487.000000;0.195943
9486.000000;0.195228
9485.000000;0.194415
9484.000000;0.193207
9483.000000;0.191636
9482.000000;0.189923
9481.000000;0.188238
9480.000000;0.186711
9479.000000;0.185516
9478.000000;0.184691
9477.000000;0.183913
9476.000000;0.182746
9475.000000;0.181209
9474.000000;0.179849
9473.000000;0.179096
9472.000000;0.178742
9471.000000;0.178245
9470.000000;0.177373
9469.000000;0.176307
9468.000000;0.175236
9467.000000;0.174168
9466.000000;0.173142
9465.000000;0.172324
9464.000000;0.171792
9463.000000;0.171410
9462.000000;0.171004
9461.000000;0.170538
9460.000000;0.170029
9459.000000;0.169439
9458.000000;0.168759
9457.000000;0.168092
9456.000000;0.167517
9455.000000;0.166952
9454.000000;0.166292
9453.000000;0.165644
9452.000000;0.165289
9451.000000;0.165362
9450.000000;0.165664
9449.000000;0.165831
9448.000000;0.165654
9447.000000;0.165227
9446.000000;0.164829
9445.000000;0.164694
9444.000000;0.164853
9443.000000;0.165139
9442.000000;0.165290
9441.000000;0.165110
9440.000000;0.164591
9439.000000;0.163964
9438.000000;0.163579
9437.000000;0.163664
9436.000000;0.164138
9435.000000;0.164677
9434.000000;0.164994
9433.000000;0.165082
9432.000000;0.165158
9431.000000;0.165366
9430.000000;0.165553
9429.000000;0.165429
9428.000000;0.164972
9427.000000;0.164618
9426.000000;0.164888
9425.000000;0.165825
9424.000000;0.166912
9423.000000;0.167646
9422.000000;0.168063
9421.000000;0.168551
9420.000000;0.169293
9419.000000;0.170103
9418.000000;0.170786
9417.000000;0.171380
9416.000000;0.171963
9415.000000;0.172463
9414.000000;0.172814
9413.000000;0.173147
9412.000000;0.173639
9411.000000;0.174254
9410.000000;0.174802
9409.000000;0.175207
9408.000000;0.175570
9407.000000;0.176034
9406.000000;0.176739
9405.000000;0.177836
9404.000000;0.179300
9403.000000;0.180731
9402.000000;0.181595
9401.000000;0.181804
9400.000000;0.181875
9399.000000;0.182376
9398.000000;0.183344
9397.000000;0.184386
9396.000000;0.185232
9395.000000;0.185988
9394.000000;0.186856
9393.000000;0.187821
9392.000000;0.188738
9391.000000;0.189605
9390.000000;0.190608
9389.000000;0.191881
9388.000000;0.193303
9387.000000;0.194584
9386.000000;0.195547
9385.000000;0.196281
9384.000000;0.197009
9383.000000;0.197868
9382.000000;0.198840
9381.000000;0.199846
9380.000000;0.200822
9379.000000;0.201731
9378.000000;0.202601
9377.000000;0.203582
9376.000000;0.204834
9375.000000;0.206314
9374.000000;0.207771
9373.000000;0.209010
9372.000000;0.210100
9371.000000;0.211227
9370.000000;0.212424
9369.000000;0.213576
9368.000000;0.214645
9367.000000;0.215736
9366.000000;0.216925
9365.000000;0.218131
9364.000000;0.219214
9363.000000;0.220118
9362.000000;0.220896
9361.000000;0.221692
9360.000000;0.222735
9359.000000;0.224210
9358.000000;0.225986
9357.000000;0.227586
9356.000000;0.228590
9355.000000;0.229115
9354.000000;0.229754
9353.000000;0.230986
9352.000000;0.232718
9351.000000;0.234431
9350.000000;0.235692
9349.000000;0.236459
9348.000000;0.236996
9347.000000;0.237630
9346.000000;0.238597
9345.000000;0.239936
9344.000000;0.241472
9343.000000;0.242965
9342.000000;0.244339
9341.000000;0.245706
9340.000000;0.247129
9339.000000;0.248481
9338.000000;0.249618
9337.000000;0.250636
9336.000000;0.251790
9335.000000;0.253180
9334.000000;0.254660
9333.000000;0.256036
9332.000000;0.257248
9331.000000;0.258311
9330.000000;0.259249
9329.000000;0.260161
9328.000000;0.261243
9327.000000;0.262602
9326.000000;0.264103
9325.000000;0.265479
9324.000000;0.266583
9323.000000;0.267476
9322.000000;0.268341
9321.000000;0.269376
9320.000000;0.270682
9319.000000;0.272140
9318.000000;0.273441
9317.000000;0.274357
9316.000000;0.275008
9315.000000;0.275745
9314.000000;0.276782
9313.000000;0.278013
9312.000000;0.279198
9311.000000;0.280221
9310.000000;0.281155
9309.000000;0.282137
9308.000000;0.283231
9307.000000;0.284388
9306.000000;0.285543
9305.000000;0.286756
9304.000000;0.288200
9303.000000;0.289898
9302.000000;0.291533
9301.000000;0.292677
9300.000000;0.293252
9299.000000;0.293650
9298.000000;0.294326
9297.000000;0.295386
9296.000000;0.296636
9295.000000;0.297906
9294.000000;0.299180
9293.000000;0.300457
9292.000000;0.301658
9291.000000;0.302720
9290.000000;0.303697
9289.000000;0.304713
9288.000000;0.305862
9287.000000;0.307153
9286.000000;0.308507
9285.000000;0.309774
9284.000000;0.310838
9283.000000;0.311747
9282.000000;0.312710
9281.000000;0.313888
9280.000000;0.315217
9279.000000;0.316451
9278.000000;0.317394
9277.000000;0.318044
9276.000000;0.318539
9275.000000;0.319054
9274.000000;0.319741
9273.000000;0.320670
9272.000000;0.321770
9271.000000;0.322865
9270.000000;0.323865
9269.000000;0.324855
9268.000000;0.325946
9267.000000;0.327108
9266.000000;0.328226
9265.000000;0.329272
9264.000000;0.330290
9263.000000;0.331234
9262.000000;0.331980
9261.000000;0.332560
9260.000000;0.333230
9259.000000;0.334199
9258.000000;0.335407
9257.000000;0.336636
9256.000000;0.337778
9255.000000;0.338867
9254.000000;0.339923
9253.000000;0.340877
9252.000000;0.341654
9251.000000;0.342258
9250.000000;0.342797
9249.000000;0.343467
9248.000000;0.344443
9247.000000;0.345702
9246.000000;0.346975
9245.000000;0.347982
9244.000000;0.348722
9243.000000;0.349444
9242.000000;0.350374
9241.000000;0.351510
9240.000000;0.352677
9239.000000;0.353690
9238.000000;0.354496
9237.000000;0.355202
9236.000000;0.355963
9235.000000;0.356783
9234.000000;0.357492
9233.000000;0.357989
9232.000000;0.358437
9231.000000;0.359106
9230.000000;0.360066
9229.000000;0.361145
9228.000000;0.362164
9227.000000;0.363076
9226.000000;0.363894
9225.000000;0.364624
9224.000000;0.365303
9223.000000;0.365992
9222.000000;0.366725
9221.000000;0.367539
9220.000000;0.368526
9219.000000;0.369721
9218.000000;0.370939
9217.000000;0.371883
9216.000000;0.372471
9215.000000;0.372923
9214.000000;0.373462
9213.000000;0.374094
9212.000000;0.374740
9211.000000;0.375441
9210.000000;0.376274
9209.000000;0.377167
9208.000000;0.377951
9207.000000;0.378574
9206.000000;0.379136
9205.000000;0.379744
9204.000000;0.380405
9203.000000;0.381065
9202.000000;0.381665
9201.000000;0.382181
9200.000000;0.382649
9199.000000;0.383149
9198.000000;0.383730
9197.000000;0.384382
9196.000000;0.385106
9195.000000;0.385939
9194.000000;0.386868
9193.000000;0.387793
9192.000000;0.388643
9191.000000;0.389469
9190.000000;0.390315
9189.000000;0.391082
9188.000000;0.391660
9187.000000;0.392157
9186.000000;0.392821
9185.000000;0.393707
9184.000000;0.394569
9183.000000;0.395161
9182.000000;0.395528
9181.000000;0.395902
9180.000000;0.396405
9179.000000;0.397005
9178.000000;0.397673
9177.000000;0.398435
9176.000000;0.399249
9175.000000;0.399978
9174.000000;0.400561
9173.000000;0.401102
9172.000000;0.401739
9171.000000;0.402475
9170.000000;0.403217
9169.000000;0.403900
9168.000000;0.404506
9167.000000;0.405012
9166.000000;0.405422
9165.000000;0.405811
9164.000000;0.406252
9163.000000;0.406709
9162.000000;0.407095
9161.000000;0.407427
9160.000000;0.407811
9159.000000;0.408299
9158.000000;0.408857
9157.000000;0.409483
9156.000000;0.410241
9155.000000;0.411124
9154.000000;0.412005
9153.000000;0.412770
9152.000000;0.413419
9151.000000;0.413997
9150.000000;0.414509
9149.000000;0.414980
9148.000000;0.415475
9147.000000;0.415991
9146.000000;0.416422
9145.000000;0.416735
9144.000000;0.417078
9143.000000;0.417620
9142.000000;0.418349
9141.000000;0.419149
9140.000000;0.419970
9139.000000;0.420781
9138.000000;0.421422
9137.000000;0.421712
9136.000000;0.421717
9135.000000;0.421755
9134.000000;0.422097
9133.000000;0.422741
9132.000000;0.423494
9131.000000;0.424145
9130.000000;0.424569
9129.000000;0.424775
9128.000000;0.424940
9127.000000;0.425300
9126.000000;0.425930
9125.000000;0.426665
9124.000000;0.427272
9123.000000;0.427674
9122.000000;0.428017
9121.000000;0.428524
9120.000000;0.429285
9119.000000;0.430130
9118.000000;0.430756
9117.000000;0.431026
9116.000000;0.431107
9115.000000;0.431244
9114.000000;0.431489
9113.000000;0.431737
9112.000000;0.431961
9111.000000;0.432234
9110.000000;0.432578
9109.000000;0.432968
9108.000000;0.433473
9107.000000;0.434207
9106.000000;0.435075
9105.000000;0.435779
9104.000000;0.436163
9103.000000;0.436422
9102.000000;0.436848
9101.000000;0.437505
9100.000000;0.438246
9099.000000;0.438932
9098.000000;0.439492
9097.000000;0.439866
9096.000000;0.440035
9095.000000;0.440090
9094.000000;0.440151
9093.000000;0.440235
9092.000000;0.440306
9091.000000;0.440441
9090.000000;0.440814
9089.000000;0.441490
9088.000000;0.442296
9087.000000;0.442948
9086.000000;0.443279
9085.000000;0.443334
9084.000000;0.443266
9083.000000;0.443182
9082.000000;0.443091
9081.000000;0.443006
9080.000000;0.443024
9079.000000;0.443288
9078.000000;0.443839
9077.000000;0.444560
9076.000000;0.445255
9075.000000;0.445765
9074.000000;0.446045
9073.000000;0.446182
9072.000000;0.446352
9071.000000;0.446688
9070.000000;0.447181
9069.000000;0.447708
9068.000000;0.448157
9067.000000;0.448471
9066.000000;0.448622
9065.000000;0.448636
9064.000000;0.448631
9063.000000;0.448739
9062.000000;0.448973
9061.000000;0.449246
9060.000000;0.449542
9059.000000;0.449941
9058.000000;0.450463
9057.000000;0.450994
9056.000000;0.451430
9055.000000;0.451793
9054.000000;0.452117
9053.000000;0.452325
