Criado como novo conjunto de dados;"0307_DANIEL.spp","66425.2 Secs"
cm-1;Abs
10000.000000;0.586724
9999.000000;0.585358
9998.000000;0.584312
9997.000000;0.583829
9996.000000;0.583657
9995.000000;0.583341
9994.000000;0.582633
9993.000000;0.581607
9992.000000;0.580481
9991.000000;0.579437
9990.000000;0.578571
9989.000000;0.577916
9988.000000;0.577451
9987.000000;0.577089
9986.000000;0.576704
9985.000000;0.576201
9984.000000;0.575568
9983.000000;0.574852
9982.000000;0.574100
9981.000000;0.573328
9980.000000;0.572516
9979.000000;0.571573
9978.000000;0.570360
9977.000000;0.568851
9976.000000;0.567262
9975.000000;0.565944
9974.000000;0.565104
9973.000000;0.564665
9972.000000;0.564400
9971.000000;0.564081
9970.000000;0.563519
9969.000000;0.562608
9968.000000;0.561439
9967.000000;0.560273
9966.000000;0.559278
9965.000000;0.558345
9964.000000;0.557258
9963.000000;0.556013
9962.000000;0.554843
9961.000000;0.553958
9960.000000;0.553358
9959.000000;0.552906
9958.000000;0.552469
9957.000000;0.551958
9956.000000;0.551292
9955.000000;0.550420
9954.000000;0.549380
9953.000000;0.548308
9952.000000;0.547357
9951.000000;0.546589
9950.000000;0.545953
9949.000000;0.545363
9948.000000;0.544754
9947.000000;0.544059
9946.000000;0.543173
9945.000000;0.542056
9944.000000;0.540830
9943.000000;0.539655
9942.000000;0.538531
9941.000000;0.537342
9940.000000;0.536137
9939.000000;0.535202
9938.000000;0.534735
9937.000000;0.534568
9936.000000;0.534292
9935.000000;0.533617
9934.000000;0.532516
9933.000000;0.531145
9932.000000;0.529731
9931.000000;0.528484
9930.000000;0.527463
9929.000000;0.526553
9928.000000;0.525637
9927.000000;0.524731
9926.000000;0.523871
9925.000000;0.522975
9924.000000;0.521976
9923.000000;0.521019
9922.000000;0.520325
9921.000000;0.519880
9920.000000;0.519425
9919.000000;0.518768
9918.000000;0.517954
9917.000000;0.517088
9916.000000;0.516196
9915.000000;0.515317
9914.000000;0.514566
9913.000000;0.513933
9912.000000;0.513147
9911.000000;0.511903
9910.000000;0.510227
9909.000000;0.508498
9908.000000;0.507106
9907.000000;0.506137
9906.000000;0.505380
9905.000000;0.504551
9904.000000;0.503510
9903.000000;0.502328
9902.000000;0.501205
9901.000000;0.500300
9900.000000;0.499622
9899.000000;0.499046
9898.000000;0.498420
9897.000000;0.497648
9896.000000;0.496698
9895.000000;0.495573
9894.000000;0.494302
9893.000000;0.492960
9892.000000;0.491682
9891.000000;0.490603
9890.000000;0.489771
9889.000000;0.489090
9888.000000;0.488382
9887.000000;0.487526
9886.000000;0.486556
9885.000000;0.485614
9884.000000;0.484790
9883.000000;0.484003
9882.000000;0.483079
9881.000000;0.481954
9880.000000;0.480785
9879.000000;0.479803
9878.000000;0.479088
9877.000000;0.478481
9876.000000;0.477715
9875.000000;0.476602
9874.000000;0.475177
9873.000000;0.473698
9872.000000;0.472473
9871.000000;0.471598
9870.000000;0.470864
9869.000000;0.470015
9868.000000;0.469032
9867.000000;0.468086
9866.000000;0.467234
9865.000000;0.466311
9864.000000;0.465139
9863.000000;0.463737
9862.000000;0.462290
9861.000000;0.461003
9860.000000;0.459999
9859.000000;0.459220
9858.000000;0.458417
9857.000000;0.457351
9856.000000;0.456040
9855.000000;0.454724
9854.000000;0.453550
9853.000000;0.452465
9852.000000;0.451399
9851.000000;0.450349
9850.000000;0.449186
9849.000000;0.447662
9848.000000;0.445777
9847.000000;0.443963
9846.000000;0.442670
9845.000000;0.441906
9844.000000;0.441377
9843.000000;0.440915
9842.000000;0.440494
9841.000000;0.439928
9840.000000;0.438901
9839.000000;0.437382
9838.000000;0.435740
9837.000000;0.434332
9836.000000;0.433160
9835.000000;0.432002
9834.000000;0.430713
9833.000000;0.429286
9832.000000;0.427789
9831.000000;0.426367
9830.000000;0.425209
9829.000000;0.424381
9828.000000;0.423751
9827.000000;0.423137
9826.000000;0.422457
9825.000000;0.421662
9824.000000;0.420601
9823.000000;0.419118
9822.000000;0.417288
9821.000000;0.415486
9820.000000;0.414130
9819.000000;0.413321
9818.000000;0.412710
9817.000000;0.411780
9816.000000;0.410343
9815.000000;0.408733
9814.000000;0.407436
9813.000000;0.406554
9812.000000;0.405718
9811.000000;0.404519
9810.000000;0.402905
9809.000000;0.401114
9808.000000;0.399344
9807.000000;0.397613
9806.000000;0.395898
9805.000000;0.394321
9804.000000;0.393110
9803.000000;0.392349
9802.000000;0.391768
9801.000000;0.390891
9800.000000;0.389520
9799.000000;0.388015
9798.000000;0.386926
9797.000000;0.386347
9796.000000;0.385757
9795.000000;0.384593
9794.000000;0.382842
9793.000000;0.380992
9792.000000;0.379496
9791.000000;0.378457
9790.000000;0.377720
9789.000000;0.377060
9788.000000;0.376224
9787.000000;0.374968
9786.000000;0.373241
9785.000000;0.371295
9784.000000;0.369510
9783.000000;0.368038
9782.000000;0.366706
9781.000000;0.365302
9780.000000;0.363887
9779.000000;0.362682
9778.000000;0.361698
9777.000000;0.360653
9776.000000;0.359338
9775.000000;0.357911
9774.000000;0.356647
9773.000000;0.355463
9772.000000;0.353946
9771.000000;0.351914
9770.000000;0.349770
9769.000000;0.348140
9768.000000;0.347241
9767.000000;0.346722
9766.000000;0.346083
9765.000000;0.345115
9764.000000;0.343919
9763.000000;0.342629
9762.000000;0.341236
9761.000000;0.339686
9760.000000;0.338052
9759.000000;0.336530
9758.000000;0.335233
9757.000000;0.334077
9756.000000;0.332891
9755.000000;0.331626
9754.000000;0.330382
9753.000000;0.329230
9752.000000;0.328094
9751.000000;0.326849
9750.000000;0.325488
9749.000000;0.324141
9748.000000;0.322909
9747.000000;0.321719
9746.000000;0.320378
9745.000000;0.318757
9744.000000;0.316919
9743.000000;0.315051
9742.000000;0.313303
9741.000000;0.311716
9740.000000;0.310259
9739.000000;0.308856
9738.000000;0.307385
9737.000000;0.305757
9736.000000;0.304057
9735.000000;0.302512
9734.000000;0.301232
9733.000000;0.300039
9732.000000;0.298662
9731.000000;0.297033
9730.000000;0.295308
9729.000000;0.293618
9728.000000;0.291942
9727.000000;0.290227
9726.000000;0.288507
9725.000000;0.286845
9724.000000;0.285296
9723.000000;0.283959
9722.000000;0.282959
9721.000000;0.282229
9720.000000;0.281394
9719.000000;0.280040
9718.000000;0.278126
9717.000000;0.276045
9716.000000;0.274231
9715.000000;0.272770
9714.000000;0.271425
9713.000000;0.269946
9712.000000;0.268269
9711.000000;0.266480
9710.000000;0.264718
9709.000000;0.263158
9708.000000;0.261940
9707.000000;0.260994
9706.000000;0.259984
9705.000000;0.258550
9704.000000;0.256635
9703.000000;0.254473
9702.000000;0.252280
9701.000000;0.250118
9700.000000;0.248087
9699.000000;0.246416
9698.000000;0.245196
9697.000000;0.244122
9696.000000;0.242720
9695.000000;0.240849
9694.000000;0.238825
9693.000000;0.237042
9692.000000;0.235600
9691.000000;0.234336
9690.000000;0.233040
9689.000000;0.231566
9688.000000;0.229808
9687.000000;0.227716
9686.000000;0.225337
9685.000000;0.222851
9684.000000;0.220566
9683.000000;0.218814
9682.000000;0.217718
9681.000000;0.217008
9680.000000;0.216173
9679.000000;0.214879
9678.000000;0.213198
9677.000000;0.211385
9676.000000;0.209546
9675.000000;0.207634
9674.000000;0.205666
9673.000000;0.203761
9672.000000;0.201930
9671.000000;0.200016
9670.000000;0.197937
9669.000000;0.195908
9668.000000;0.194261
9667.000000;0.193031
9666.000000;0.191819
9665.000000;0.190169
9664.000000;0.188043
9663.000000;0.185866
9662.000000;0.184103
9661.000000;0.182814
9660.000000;0.181619
9659.000000;0.180040
9658.000000;0.177914
9657.000000;0.175529
9656.000000;0.173363
9655.000000;0.171649
9654.000000;0.170157
9653.000000;0.168475
9652.000000;0.166518
9651.000000;0.164667
9650.000000;0.163315
9649.000000;0.162361
9648.000000;0.161274
9647.000000;0.159661
9646.000000;0.157628
9645.000000;0.155531
9644.000000;0.153540
9643.000000;0.151566
9642.000000;0.149515
9641.000000;0.147477
9640.000000;0.145606
9639.000000;0.143925
9638.000000;0.142280
9637.000000;0.140470
9636.000000;0.138386
9635.000000;0.136079
9634.000000;0.133736
9633.000000;0.131564
9632.000000;0.129644
9631.000000;0.127882
9630.000000;0.126125
9629.000000;0.124314
9628.000000;0.122515
9627.000000;0.120782
9626.000000;0.119062
9625.000000;0.117257
9624.000000;0.115336
9623.000000;0.113324
9622.000000;0.111220
9621.000000;0.109001
9620.000000;0.106735
9619.000000;0.104583
9618.000000;0.102632
9617.000000;0.100779
9616.000000;0.098841
9615.000000;0.096777
9614.000000;0.094723
9613.000000;0.092801
9612.000000;0.090966
9611.000000;0.089103
9610.000000;0.087217
9609.000000;0.085428
9608.000000;0.083779
9607.000000;0.082131
9606.000000;0.080334
9605.000000;0.078434
9604.000000;0.076603
9603.000000;0.074859
9602.000000;0.072986
9601.000000;0.070824
9600.000000;0.068509
9599.000000;0.066326
9598.000000;0.064358
9597.000000;0.062430
9596.000000;0.060368
9595.000000;0.058191
9594.000000;0.056013
9593.000000;0.053900
9592.000000;0.051856
9591.000000;0.049835
9590.000000;0.047747
9589.000000;0.045549
9588.000000;0.043388
9587.000000;0.041506
9586.000000;0.039877
9585.000000;0.038091
9584.000000;0.035760
9583.000000;0.032990
9582.000000;0.030270
9581.000000;0.027951
9580.000000;0.025990
9579.000000;0.024192
9578.000000;0.022457
9577.000000;0.020727
9576.000000;0.018869
9575.000000;0.016800
9574.000000;0.014639
9573.000000;0.012607
9572.000000;0.010761
9571.000000;0.008951
9570.000000;0.007008
9569.000000;0.004888
9568.000000;0.002659
9567.000000;0.000450
9566.000000;-0.001581
9565.000000;-0.003346
9564.000000;-0.004945
9563.000000;-0.006595
9562.000000;-0.008399
9561.000000;-0.010251
9560.000000;-0.012050
9559.000000;-0.013883
9558.000000;-0.015884
9557.000000;-0.017968
9556.000000;-0.019896
9555.000000;-0.021631
9554.000000;-0.023443
9553.000000;-0.025570
9552.000000;-0.027912
9551.000000;-0.030205
9550.000000;-0.032382
9549.000000;-0.034607
9548.000000;-0.036991
9547.000000;-0.039399
9546.000000;-0.041562
9545.000000;-0.043292
9544.000000;-0.044599
9543.000000;-0.045707
9542.000000;-0.046968
9541.000000;-0.048661
9540.000000;-0.050807
9539.000000;-0.053192
9538.000000;-0.055551
9537.000000;-0.057676
9536.000000;-0.059442
9535.000000;-0.060878
9534.000000;-0.062232
9533.000000;-0.063838
9532.000000;-0.065855
9531.000000;-0.068161
9530.000000;-0.070515
9529.000000;-0.072724
9528.000000;-0.074683
9527.000000;-0.076388
9526.000000;-0.077953
9525.000000;-0.079505
9524.000000;-0.081054
9523.000000;-0.082592
9522.000000;-0.084306
9521.000000;-0.086473
9520.000000;-0.089046
9519.000000;-0.091520
9518.000000;-0.093394
9517.000000;-0.094657
9516.000000;-0.095700
9515.000000;-0.096872
9514.000000;-0.098257
9513.000000;-0.099800
9512.000000;-0.101447
9511.000000;-0.103164
9510.000000;-0.104947
9509.000000;-0.106827
9508.000000;-0.108764
9507.000000;-0.110565
9506.000000;-0.112042
9505.000000;-0.113249
9504.000000;-0.114414
9503.000000;-0.115627
9502.000000;-0.116723
9501.000000;-0.117547
9500.000000;-0.118251
9499.000000;-0.119239
9498.000000;-0.120797
9497.000000;-0.122792
9496.000000;-0.124737
9495.000000;-0.126195
9494.000000;-0.127148
9493.000000;-0.127967
9492.000000;-0.129017
9491.000000;-0.130346
9490.000000;-0.131764
9489.000000;-0.133088
9488.000000;-0.134203
9487.000000;-0.135035
9486.000000;-0.135627
9485.000000;-0.136221
9484.000000;-0.137108
9483.000000;-0.138376
9482.000000;-0.139857
9481.000000;-0.141265
9480.000000;-0.142311
9479.000000;-0.142817
9478.000000;-0.142922
9477.000000;-0.143135
9476.000000;-0.143947
9475.000000;-0.145331
9474.000000;-0.146775
9473.000000;-0.147830
9472.000000;-0.148440
9471.000000;-0.148767
9470.000000;-0.148924
9469.000000;-0.149047
9468.000000;-0.149406
9467.000000;-0.150230
9466.000000;-0.151439
9465.000000;-0.152657
9464.000000;-0.153494
9463.000000;-0.153801
9462.000000;-0.153774
9461.000000;-0.153864
9460.000000;-0.154424
9459.000000;-0.155316
9458.000000;-0.155972
9457.000000;-0.155987
9456.000000;-0.155567
9455.000000;-0.155254
9454.000000;-0.155289
9453.000000;-0.155442
9452.000000;-0.155435
9451.000000;-0.155324
9450.000000;-0.155389
9449.000000;-0.155797
9448.000000;-0.156453
9447.000000;-0.157078
9446.000000;-0.157386
9445.000000;-0.157274
9444.000000;-0.156928
9443.000000;-0.156686
9442.000000;-0.156719
9441.000000;-0.156866
9440.000000;-0.156806
9439.000000;-0.156370
9438.000000;-0.155657
9437.000000;-0.154885
9436.000000;-0.154165
9435.000000;-0.153426
9434.000000;-0.152552
9433.000000;-0.151615
9432.000000;-0.150936
9431.000000;-0.150805
9430.000000;-0.151107
9429.000000;-0.151301
9428.000000;-0.150866
9427.000000;-0.149762
9426.000000;-0.148410
9425.000000;-0.147257
9424.000000;-0.146448
9423.000000;-0.145876
9422.000000;-0.145405
9421.000000;-0.144948
9420.000000;-0.144402
9419.000000;-0.143638
9418.000000;-0.142616
9417.000000;-0.141474
9416.000000;-0.140441
9415.000000;-0.139654
9414.000000;-0.139067
9413.000000;-0.138534
9412.000000;-0.137955
9411.000000;-0.137318
9410.000000;-0.136621
9409.000000;-0.135806
9408.000000;-0.134808
9407.000000;-0.133641
9406.000000;-0.132394
9405.000000;-0.131162
9404.000000;-0.130007
9403.000000;-0.128960
9402.000000;-0.128018
9401.000000;-0.127151
9400.000000;-0.126354
9399.000000;-0.125656
9398.000000;-0.125016
9397.000000;-0.124223
9396.000000;-0.123029
9395.000000;-0.121434
9394.000000;-0.119747
9393.000000;-0.118294
9392.000000;-0.117128
9391.000000;-0.116095
9390.000000;-0.115075
9389.000000;-0.114043
9388.000000;-0.112966
9387.000000;-0.111802
9386.000000;-0.110619
9385.000000;-0.109553
9384.000000;-0.108594
9383.000000;-0.107528
9382.000000;-0.106163
9381.000000;-0.104573
9380.000000;-0.103027
9379.000000;-0.101727
9378.000000;-0.100625
9377.000000;-0.099499
9376.000000;-0.098172
9375.000000;-0.096683
9374.000000;-0.095221
9373.000000;-0.093850
9372.000000;-0.092358
9371.000000;-0.090501
9370.000000;-0.088399
9369.000000;-0.086546
9368.000000;-0.085339
9367.000000;-0.084687
9366.000000;-0.084151
9365.000000;-0.083397
9364.000000;-0.082363
9363.000000;-0.081070
9362.000000;-0.079459
9361.000000;-0.077508
9360.000000;-0.075414
9359.000000;-0.073523
9358.000000;-0.072034
9357.000000;-0.070825
9356.000000;-0.069592
9355.000000;-0.068149
9354.000000;-0.066560
9353.000000;-0.065011
9352.000000;-0.063634
9351.000000;-0.062430
9350.000000;-0.061304
9349.000000;-0.060108
9348.000000;-0.058732
9347.000000;-0.057214
9346.000000;-0.055712
9345.000000;-0.054339
9344.000000;-0.053064
9343.000000;-0.051808
9342.000000;-0.050545
9341.000000;-0.049265
9340.000000;-0.047938
9339.000000;-0.046607
9338.000000;-0.045413
9337.000000;-0.044402
9336.000000;-0.043377
9335.000000;-0.042070
9334.000000;-0.040380
9333.000000;-0.038350
9332.000000;-0.036071
9331.000000;-0.033796
9330.000000;-0.032024
9329.000000;-0.031108
9328.000000;-0.030776
9327.000000;-0.030306
9326.000000;-0.029239
9325.000000;-0.027673
9324.000000;-0.025890
9323.000000;-0.024017
9322.000000;-0.022181
9321.000000;-0.020658
9320.000000;-0.019628
9319.000000;-0.018915
9318.000000;-0.018162
9317.000000;-0.017125
9316.000000;-0.015725
9315.000000;-0.013989
9314.000000;-0.012112
9313.000000;-0.010420
9312.000000;-0.009091
9311.000000;-0.007987
9310.000000;-0.006863
9309.000000;-0.005595
9308.000000;-0.004128
9307.000000;-0.002426
9306.000000;-0.000636
9305.000000;0.000931
9304.000000;0.002151
9303.000000;0.003252
9302.000000;0.004428
9301.000000;0.005521
9300.000000;0.006362
9299.000000;0.007186
9298.000000;0.008361
9297.000000;0.009836
9296.000000;0.011242
9295.000000;0.012481
9294.000000;0.013839
9293.000000;0.015516
9292.000000;0.017366
9291.000000;0.019158
9290.000000;0.020793
9289.000000;0.022205
9288.000000;0.023337
9287.000000;0.024327
9286.000000;0.025472
9285.000000;0.026871
9284.000000;0.028303
9283.000000;0.029555
9282.000000;0.030666
9281.000000;0.031764
9280.000000;0.032886
9279.000000;0.034085
9278.000000;0.035499
9277.000000;0.037118
9276.000000;0.038631
9275.000000;0.039721
9274.000000;0.040435
9273.000000;0.041085
9272.000000;0.041861
9271.000000;0.042698
9270.000000;0.043528
9269.000000;0.044479
9268.000000;0.045741
9267.000000;0.047331
9266.000000;0.049034
9265.000000;0.050590
9264.000000;0.051884
9263.000000;0.052953
9262.000000;0.053871
9261.000000;0.054698
9260.000000;0.055560
9259.000000;0.056623
9258.000000;0.057920
9257.000000;0.059275
9256.000000;0.060519
9255.000000;0.061700
9254.000000;0.062940
9253.000000;0.064174
9252.000000;0.065225
9251.000000;0.066106
9250.000000;0.067042
9249.000000;0.068138
9248.000000;0.069217
9247.000000;0.070063
9246.000000;0.070687
9245.000000;0.071284
9244.000000;0.072043
9243.000000;0.073068
9242.000000;0.074379
9241.000000;0.075871
9240.000000;0.077371
9239.000000;0.078790
9238.000000;0.080195
9237.000000;0.081677
9236.000000;0.083200
9235.000000;0.084628
9234.000000;0.085833
9233.000000;0.086748
9232.000000;0.087393
9231.000000;0.087903
9230.000000;0.088463
9229.000000;0.089171
9228.000000;0.090001
9227.000000;0.090897
9226.000000;0.091862
9225.000000;0.092911
9224.000000;0.094028
9223.000000;0.095179
9222.000000;0.096306
9221.000000;0.097330
9220.000000;0.098230
9219.000000;0.099094
9218.000000;0.100012
9217.000000;0.100910
9216.000000;0.101656
9215.000000;0.102317
9214.000000;0.103141
9213.000000;0.104222
9212.000000;0.105367
9211.000000;0.106361
9210.000000;0.107255
9209.000000;0.108254
9208.000000;0.109436
9207.000000;0.110699
9206.000000;0.111926
9205.000000;0.113058
9204.000000;0.114027
9203.000000;0.114771
9202.000000;0.115326
9201.000000;0.115819
9200.000000;0.116369
9199.000000;0.117051
9198.000000;0.117915
9197.000000;0.118969
9196.000000;0.120122
9195.000000;0.121236
9194.000000;0.122238
9193.000000;0.123171
9192.000000;0.124112
9191.000000;0.125068
9190.000000;0.125972
9189.000000;0.126764
9188.000000;0.127485
9187.000000;0.128253
9186.000000;0.129126
9185.000000;0.130025
9184.000000;0.130826
9183.000000;0.131518
9182.000000;0.132173
9181.000000;0.132798
9180.000000;0.133370
9179.000000;0.134011
9178.000000;0.134953
9177.000000;0.136230
9176.000000;0.137514
9175.000000;0.138413
9174.000000;0.138885
9173.000000;0.139258
9172.000000;0.139871
9171.000000;0.140783
9170.000000;0.141814
9169.000000;0.142732
9168.000000;0.143407
9167.000000;0.143865
9166.000000;0.144265
9165.000000;0.144772
9164.000000;0.145438
9163.000000;0.146210
9162.000000;0.147034
9161.000000;0.147903
9160.000000;0.148842
9159.000000;0.149883
9158.000000;0.151029
9157.000000;0.152204
9156.000000;0.153236
9155.000000;0.153988
9154.000000;0.154503
9153.000000;0.154974
9152.000000;0.155542
9151.000000;0.156193
9150.000000;0.156865
9149.000000;0.157586
9148.000000;0.158442
9147.000000;0.159418
9146.000000;0.160347
9145.000000;0.161036
9144.000000;0.161439
9143.000000;0.161693
9142.000000;0.161981
9141.000000;0.162384
9140.000000;0.162868
9139.000000;0.163387
9138.000000;0.163961
9137.000000;0.164643
9136.000000;0.165443
9135.000000;0.166287
9134.000000;0.167072
9133.000000;0.167732
9132.000000;0.168260
9131.000000;0.168685
9130.000000;0.169057
9129.000000;0.169450
9128.000000;0.169951
9127.000000;0.170621
9126.000000;0.171451
9125.000000;0.172384
9124.000000;0.173377
9123.000000;0.174401
9122.000000;0.175383
9121.000000;0.176177
9120.000000;0.176678
9119.000000;0.176924
9118.000000;0.177065
9117.000000;0.177233
9116.000000;0.177497
9115.000000;0.177924
9114.000000;0.178588
9113.000000;0.179477
9112.000000;0.180454
9111.000000;0.181382
9110.000000;0.182256
9109.000000;0.183136
9108.000000;0.183985
9107.000000;0.184651
9106.000000;0.185042
9105.000000;0.185280
9104.000000;0.185615
9103.000000;0.186186
9102.000000;0.186914
9101.000000;0.187584
9100.000000;0.188026
9099.000000;0.188228
9098.000000;0.188328
9097.000000;0.188499
9096.000000;0.188824
9095.000000;0.189254
9094.000000;0.189726
9093.000000;0.190298
9092.000000;0.191086
9091.000000;0.192047
9090.000000;0.192894
9089.000000;0.193342
9088.000000;0.193415
9087.000000;0.193426
9086.000000;0.193672
9085.000000;0.194222
9084.000000;0.194997
9083.000000;0.195904
9082.000000;0.196833
9081.000000;0.197611
9080.000000;0.198105
9079.000000;0.198344
9078.000000;0.198470
9077.000000;0.198606
9076.000000;0.198820
9075.000000;0.199173
9074.000000;0.199692
9073.000000;0.200297
9072.000000;0.200863
9071.000000;0.201377
9070.000000;0.201952
9069.000000;0.202631
9068.000000;0.203289
9067.000000;0.203782
9066.000000;0.204166
9065.000000;0.204628
