Criado como novo conjunto de dados;"0307_DANIEL.spp","46264.7 Secs"
cm-1;Abs
10000.000000;1.102776
9999.000000;1.101660
9998.000000;1.100547
9997.000000;1.099438
9996.000000;1.098329
9995.000000;1.097228
9994.000000;1.096121
9993.000000;1.095032
9992.000000;1.093920
9991.000000;1.092857
9990.000000;1.091700
9989.000000;1.090994
9988.000000;1.090992
9987.000000;1.090909
9986.000000;1.090128
9985.000000;1.088590
9984.000000;1.086684
9983.000000;1.084657
9982.000000;1.082669
9981.000000;1.081000
9980.000000;1.079831
9979.000000;1.078922
9978.000000;1.077872
9977.000000;1.076618
9976.000000;1.075404
9975.000000;1.074328
9974.000000;1.073229
9973.000000;1.071979
9972.000000;1.070627
9971.000000;1.069273
9970.000000;1.068006
9969.000000;1.066963
9968.000000;1.066220
9967.000000;1.065590
9966.000000;1.064734
9965.000000;1.063505
9964.000000;1.062062
9963.000000;1.060604
9962.000000;1.059140
9961.000000;1.057571
9960.000000;1.055912
9959.000000;1.054329
9958.000000;1.052949
9957.000000;1.051690
9956.000000;1.050359
9955.000000;1.048950
9954.000000;1.047757
9953.000000;1.047030
9952.000000;1.046578
9951.000000;1.045917
9950.000000;1.044823
9949.000000;1.043508
9948.000000;1.042172
9947.000000;1.040672
9946.000000;1.038839
9945.000000;1.036922
9944.000000;1.035388
9943.000000;1.034368
9942.000000;1.033524
9941.000000;1.032473
9940.000000;1.031138
9939.000000;1.029696
9938.000000;1.028340
9937.000000;1.027130
9936.000000;1.025984
9935.000000;1.024758
9934.000000;1.023407
9933.000000;1.022069
9932.000000;1.020933
9931.000000;1.020014
9930.000000;1.019101
9929.000000;1.017918
9928.000000;1.016365
9927.000000;1.014615
9926.000000;1.012980
9925.000000;1.011636
9924.000000;1.010487
9923.000000;1.009330
9922.000000;1.008109
9921.000000;1.006881
9920.000000;1.005592
9919.000000;1.004054
9918.000000;1.002201
9917.000000;1.000218
9916.000000;0.998357
9915.000000;0.996734
9914.000000;0.995346
9913.000000;0.994109
9912.000000;0.992864
9911.000000;0.991492
9910.000000;0.990105
9909.000000;0.988994
9908.000000;0.988291
9907.000000;0.987769
9906.000000;0.987076
9905.000000;0.986085
9904.000000;0.984890
9903.000000;0.983551
9902.000000;0.981976
9901.000000;0.980086
9900.000000;0.977980
9899.000000;0.975924
9898.000000;0.974176
9897.000000;0.972813
9896.000000;0.971701
9895.000000;0.970691
9894.000000;0.969802
9893.000000;0.969149
9892.000000;0.968673
9891.000000;0.968012
9890.000000;0.966705
9889.000000;0.964515
9888.000000;0.961642
9887.000000;0.958747
9886.000000;0.956646
9885.000000;0.955733
9884.000000;0.955593
9883.000000;0.955328
9882.000000;0.954343
9881.000000;0.952746
9880.000000;0.950999
9879.000000;0.949405
9878.000000;0.948041
9877.000000;0.946942
9876.000000;0.946114
9875.000000;0.945376
9874.000000;0.944369
9873.000000;0.942800
9872.000000;0.940668
9871.000000;0.938321
9870.000000;0.936271
9869.000000;0.934825
9868.000000;0.933800
9867.000000;0.932661
9866.000000;0.931056
9865.000000;0.929162
9864.000000;0.927472
9863.000000;0.926303
9862.000000;0.925565
9861.000000;0.924935
9860.000000;0.924155
9859.000000;0.923168
9858.000000;0.922044
9857.000000;0.920792
9856.000000;0.919289
9855.000000;0.917429
9854.000000;0.915341
9853.000000;0.913357
9852.000000;0.911729
9851.000000;0.910413
9850.000000;0.909141
9849.000000;0.907682
9848.000000;0.906044
9847.000000;0.904456
9846.000000;0.903120
9845.000000;0.901933
9844.000000;0.900512
9843.000000;0.898589
9842.000000;0.896396
9841.000000;0.894521
9840.000000;0.893368
9839.000000;0.892790
9838.000000;0.892220
9837.000000;0.891096
9836.000000;0.889243
9835.000000;0.886959
9834.000000;0.884735
9833.000000;0.882800
9832.000000;0.880940
9831.000000;0.878829
9830.000000;0.876465
9829.000000;0.874208
9828.000000;0.872433
9827.000000;0.871272
9826.000000;0.870617
9825.000000;0.870175
9824.000000;0.869519
9823.000000;0.868300
9822.000000;0.866522
9821.000000;0.864519
9820.000000;0.862650
9819.000000;0.861067
9818.000000;0.859748
9817.000000;0.858559
9816.000000;0.857280
9815.000000;0.855742
9814.000000;0.854013
9813.000000;0.852360
9812.000000;0.850961
9811.000000;0.849738
9810.000000;0.848456
9809.000000;0.846899
9808.000000;0.844970
9807.000000;0.842769
9806.000000;0.840579
9805.000000;0.838674
9804.000000;0.837090
9803.000000;0.835673
9802.000000;0.834297
9801.000000;0.832924
9800.000000;0.831472
9799.000000;0.829801
9798.000000;0.827880
9797.000000;0.825855
9796.000000;0.823903
9795.000000;0.822134
9794.000000;0.820593
9793.000000;0.819233
9792.000000;0.817896
9791.000000;0.816470
9790.000000;0.815059
9789.000000;0.813835
9788.000000;0.812678
9787.000000;0.811206
9786.000000;0.809217
9785.000000;0.806965
9784.000000;0.804911
9783.000000;0.803291
9782.000000;0.801971
9781.000000;0.800598
9780.000000;0.798891
9779.000000;0.796871
9778.000000;0.794873
9777.000000;0.793212
9776.000000;0.791866
9775.000000;0.790572
9774.000000;0.789165
9773.000000;0.787644
9772.000000;0.785961
9771.000000;0.784013
9770.000000;0.781877
9769.000000;0.779799
9768.000000;0.777871
9767.000000;0.775953
9766.000000;0.774000
9765.000000;0.772218
9764.000000;0.770756
9763.000000;0.769462
9762.000000;0.768085
9761.000000;0.766554
9760.000000;0.764865
9759.000000;0.762916
9758.000000;0.760690
9757.000000;0.758497
9756.000000;0.756710
9755.000000;0.755291
9754.000000;0.753795
9753.000000;0.751935
9752.000000;0.749945
9751.000000;0.748282
9750.000000;0.747067
9749.000000;0.745912
9748.000000;0.744291
9747.000000;0.742026
9746.000000;0.739407
9745.000000;0.736897
9744.000000;0.734797
9743.000000;0.733183
9742.000000;0.732002
9741.000000;0.731059
9740.000000;0.729959
9739.000000;0.728305
9738.000000;0.726112
9737.000000;0.723903
9736.000000;0.722245
9735.000000;0.721203
9734.000000;0.720324
9733.000000;0.719145
9732.000000;0.717599
9731.000000;0.715879
9730.000000;0.714026
9729.000000;0.711823
9728.000000;0.709147
9727.000000;0.706271
9726.000000;0.703652
9725.000000;0.701429
9724.000000;0.699311
9723.000000;0.697004
9722.000000;0.694582
9721.000000;0.692341
9720.000000;0.690453
9719.000000;0.688889
9718.000000;0.687517
9717.000000;0.686101
9716.000000;0.684325
9715.000000;0.682081
9714.000000;0.679686
9713.000000;0.677618
9712.000000;0.676055
9711.000000;0.674827
9710.000000;0.673707
9709.000000;0.672489
9708.000000;0.670833
9707.000000;0.668384
9706.000000;0.665225
9705.000000;0.661955
9704.000000;0.659185
9703.000000;0.657058
9702.000000;0.655359
9701.000000;0.653889
9700.000000;0.652560
9699.000000;0.651248
9698.000000;0.649762
9697.000000;0.647978
9696.000000;0.645937
9695.000000;0.643827
9694.000000;0.641892
9693.000000;0.640262
9692.000000;0.638796
9691.000000;0.637133
9690.000000;0.634993
9689.000000;0.632443
9688.000000;0.629867
9687.000000;0.627693
9686.000000;0.626112
9685.000000;0.624970
9684.000000;0.623892
9683.000000;0.622540
9682.000000;0.620795
9681.000000;0.618731
9680.000000;0.616500
9679.000000;0.614291
9678.000000;0.612263
9677.000000;0.610375
9676.000000;0.608339
9675.000000;0.605914
9674.000000;0.603242
9673.000000;0.600752
9672.000000;0.598716
9671.000000;0.597002
9670.000000;0.595240
9669.000000;0.593115
9668.000000;0.590565
9667.000000;0.587825
9666.000000;0.585303
9665.000000;0.583251
9664.000000;0.581482
9663.000000;0.579511
9662.000000;0.577032
9661.000000;0.574216
9660.000000;0.571553
9659.000000;0.569437
9658.000000;0.567852
9657.000000;0.566377
9656.000000;0.564555
9655.000000;0.562328
9654.000000;0.560052
9653.000000;0.557991
9652.000000;0.555970
9651.000000;0.553677
9650.000000;0.551152
9649.000000;0.548713
9648.000000;0.546529
9647.000000;0.544536
9646.000000;0.542723
9645.000000;0.541109
9644.000000;0.539410
9643.000000;0.537119
9642.000000;0.534129
9641.000000;0.531031
9640.000000;0.528543
9639.000000;0.526799
9638.000000;0.525328
9637.000000;0.523593
9636.000000;0.521395
9635.000000;0.518882
9634.000000;0.516342
9633.000000;0.513994
9632.000000;0.511824
9631.000000;0.509634
9630.000000;0.507272
9629.000000;0.504789
9628.000000;0.502366
9627.000000;0.500163
9626.000000;0.498213
9625.000000;0.496371
9624.000000;0.494361
9623.000000;0.492023
9622.000000;0.489557
9621.000000;0.487365
9620.000000;0.485577
9619.000000;0.483855
9618.000000;0.481757
9617.000000;0.479209
9616.000000;0.476535
9615.000000;0.474084
9614.000000;0.471902
9613.000000;0.469743
9612.000000;0.467360
9611.000000;0.464768
9610.000000;0.462199
9609.000000;0.459821
9608.000000;0.457596
9607.000000;0.455463
9606.000000;0.453495
9605.000000;0.451708
9604.000000;0.449831
9603.000000;0.447553
9602.000000;0.444970
9601.000000;0.442545
9600.000000;0.440561
9599.000000;0.438820
9598.000000;0.436891
9597.000000;0.434478
9596.000000;0.431527
9595.000000;0.428242
9594.000000;0.425071
9593.000000;0.422442
9592.000000;0.420345
9591.000000;0.418308
9590.000000;0.415933
9589.000000;0.413324
9588.000000;0.410895
9587.000000;0.408887
9586.000000;0.407201
9585.000000;0.405558
9584.000000;0.403673
9583.000000;0.401369
9582.000000;0.398692
9581.000000;0.395901
9580.000000;0.393241
9579.000000;0.390744
9578.000000;0.388308
9577.000000;0.385916
9576.000000;0.383684
9575.000000;0.381704
9574.000000;0.379878
9573.000000;0.377933
9572.000000;0.375579
9571.000000;0.372710
9570.000000;0.369459
9569.000000;0.366123
9568.000000;0.363076
9567.000000;0.360668
9566.000000;0.359014
9565.000000;0.357750
9564.000000;0.356199
9563.000000;0.353996
9562.000000;0.351443
9561.000000;0.349075
9560.000000;0.347008
9559.000000;0.344978
9558.000000;0.342852
9557.000000;0.340730
9556.000000;0.338571
9555.000000;0.336140
9554.000000;0.333436
9553.000000;0.330795
9552.000000;0.328406
9551.000000;0.326041
9550.000000;0.323467
9549.000000;0.320851
9548.000000;0.318502
9547.000000;0.316421
9546.000000;0.314388
9545.000000;0.312337
9544.000000;0.310372
9543.000000;0.308480
9542.000000;0.306468
9541.000000;0.304216
9540.000000;0.301820
9539.000000;0.299506
9538.000000;0.297442
9537.000000;0.295583
9536.000000;0.293605
9535.000000;0.291179
9534.000000;0.288402
9533.000000;0.285809
9532.000000;0.283781
9531.000000;0.282070
9530.000000;0.280112
9529.000000;0.277682
9528.000000;0.275050
9527.000000;0.272543
9526.000000;0.270230
9525.000000;0.268047
9524.000000;0.266012
9523.000000;0.264191
9522.000000;0.262542
9521.000000;0.260880
9520.000000;0.258976
9519.000000;0.256701
9518.000000;0.254133
9517.000000;0.251534
9516.000000;0.249176
9515.000000;0.247196
9514.000000;0.245595
9513.000000;0.244318
9512.000000;0.243241
9511.000000;0.242129
9510.000000;0.240717
9509.000000;0.238873
9508.000000;0.236697
9507.000000;0.234478
9506.000000;0.232518
9505.000000;0.230881
9504.000000;0.229292
9503.000000;0.227389
9502.000000;0.225117
9501.000000;0.222794
9500.000000;0.220734
9499.000000;0.218957
9498.000000;0.217337
9497.000000;0.215873
9496.000000;0.214619
9495.000000;0.213410
9494.000000;0.211918
9493.000000;0.210044
9492.000000;0.208109
9491.000000;0.206527
9490.000000;0.205369
9489.000000;0.204363
9488.000000;0.203304
9487.000000;0.202323
9486.000000;0.201625
9485.000000;0.201036
9484.000000;0.200025
9483.000000;0.198282
9482.000000;0.196146
9481.000000;0.194284
9480.000000;0.193035
9479.000000;0.192185
9478.000000;0.191356
9477.000000;0.190386
9476.000000;0.189316
9475.000000;0.188201
9474.000000;0.187072
9473.000000;0.185956
9472.000000;0.184851
9471.000000;0.183751
9470.000000;0.182749
9469.000000;0.181968
9468.000000;0.181345
9467.000000;0.180578
9466.000000;0.179443
9465.000000;0.178060
9464.000000;0.176746
9463.000000;0.175696
9462.000000;0.174931
9461.000000;0.174461
9460.000000;0.174311
9459.000000;0.174363
9458.000000;0.174354
9457.000000;0.174087
9456.000000;0.173589
9455.000000;0.173014
9454.000000;0.172489
9453.000000;0.172105
9452.000000;0.171957
9451.000000;0.172052
9450.000000;0.172189
9449.000000;0.172060
9448.000000;0.171550
9447.000000;0.170861
9446.000000;0.170265
9445.000000;0.169814
9444.000000;0.169391
9443.000000;0.168969
9442.000000;0.168654
9441.000000;0.168513
9440.000000;0.168562
9439.000000;0.168912
9438.000000;0.169665
9437.000000;0.170541
9436.000000;0.170910
9435.000000;0.170459
9434.000000;0.169644
9433.000000;0.169217
9432.000000;0.169408
9431.000000;0.169840
9430.000000;0.170160
9429.000000;0.170432
9428.000000;0.170893
9427.000000;0.171597
9426.000000;0.172395
9425.000000;0.173063
9424.000000;0.173401
9423.000000;0.173400
9422.000000;0.173366
9421.000000;0.173689
9420.000000;0.174419
9419.000000;0.175241
9418.000000;0.175903
9417.000000;0.176450
9416.000000;0.176974
9415.000000;0.177368
9414.000000;0.177510
9413.000000;0.177512
9412.000000;0.177613
9411.000000;0.177939
9410.000000;0.178494
9409.000000;0.179283
9408.000000;0.180280
9407.000000;0.181367
9406.000000;0.182444
9405.000000;0.183521
9404.000000;0.184599
9403.000000;0.185541
9402.000000;0.186243
9401.000000;0.186869
9400.000000;0.187728
9399.000000;0.188896
9398.000000;0.190097
9397.000000;0.191005
9396.000000;0.191566
9395.000000;0.192003
9394.000000;0.192570
9393.000000;0.193365
9392.000000;0.194315
9391.000000;0.195264
9390.000000;0.196088
9389.000000;0.196757
9388.000000;0.197356
9387.000000;0.198039
9386.000000;0.198960
9385.000000;0.200179
9384.000000;0.201609
9383.000000;0.203070
9382.000000;0.204406
9381.000000;0.205580
9380.000000;0.206674
9379.000000;0.207789
9378.000000;0.208928
9377.000000;0.209978
9376.000000;0.210835
9375.000000;0.211542
9374.000000;0.212244
9373.000000;0.213022
9372.000000;0.213878
9371.000000;0.214878
9370.000000;0.216170
9369.000000;0.217768
9368.000000;0.219424
9367.000000;0.220845
9366.000000;0.221979
9365.000000;0.222984
9364.000000;0.223983
9363.000000;0.225004
9362.000000;0.226105
9361.000000;0.227374
9360.000000;0.228774
9359.000000;0.230122
9358.000000;0.231253
9357.000000;0.232168
9356.000000;0.233023
9355.000000;0.234037
9354.000000;0.235356
9353.000000;0.236899
9352.000000;0.238350
9351.000000;0.239429
9350.000000;0.240184
9349.000000;0.240927
9348.000000;0.241896
9347.000000;0.243085
9346.000000;0.244371
9345.000000;0.245680
9344.000000;0.247003
9343.000000;0.248352
9342.000000;0.249716
9341.000000;0.251003
9340.000000;0.252055
9339.000000;0.252840
9338.000000;0.253582
9337.000000;0.254581
9336.000000;0.255900
9335.000000;0.257344
9334.000000;0.258714
9333.000000;0.259941
9332.000000;0.261004
9331.000000;0.261888
9330.000000;0.262689
9329.000000;0.263575
9328.000000;0.264597
9327.000000;0.265675
9326.000000;0.266807
9325.000000;0.268120
9324.000000;0.269634
9323.000000;0.271127
9322.000000;0.272372
9321.000000;0.273415
9320.000000;0.274493
9319.000000;0.275740
9318.000000;0.277065
9317.000000;0.278280
9316.000000;0.279277
9315.000000;0.280110
9314.000000;0.280953
9313.000000;0.281967
9312.000000;0.283164
9311.000000;0.284429
9310.000000;0.285667
9309.000000;0.286871
9308.000000;0.288045
9307.000000;0.289151
9306.000000;0.290183
9305.000000;0.291224
9304.000000;0.292376
9303.000000;0.293637
9302.000000;0.294886
9301.000000;0.295971
9300.000000;0.296835
9299.000000;0.297624
9298.000000;0.298627
9297.000000;0.300032
9296.000000;0.301706
9295.000000;0.303303
9294.000000;0.304578
9293.000000;0.305522
9292.000000;0.306230
9291.000000;0.306792
9290.000000;0.307366
9289.000000;0.308194
9288.000000;0.309412
9287.000000;0.310863
9286.000000;0.312225
9285.000000;0.313300
9284.000000;0.314123
9283.000000;0.314806
9282.000000;0.315400
9281.000000;0.315954
9280.000000;0.316633
9279.000000;0.317646
9278.000000;0.318990
9277.000000;0.320368
9276.000000;0.321472
9275.000000;0.322336
9274.000000;0.323292
9273.000000;0.324561
9272.000000;0.325998
9271.000000;0.327292
9270.000000;0.328286
9269.000000;0.329034
9268.000000;0.329653
9267.000000;0.330266
9266.000000;0.331001
9265.000000;0.331900
9264.000000;0.332874
9263.000000;0.333852
9262.000000;0.334924
9261.000000;0.336182
9260.000000;0.337478
9259.000000;0.338518
9258.000000;0.339203
9257.000000;0.339746
9256.000000;0.340457
9255.000000;0.341506
9254.000000;0.342845
9253.000000;0.344224
9252.000000;0.345316
9251.000000;0.346003
9250.000000;0.346554
9249.000000;0.347347
9248.000000;0.348423
9247.000000;0.349471
9246.000000;0.350263
9245.000000;0.350911
9244.000000;0.351630
9243.000000;0.352429
9242.000000;0.353163
9241.000000;0.353779
9240.000000;0.354375
9239.000000;0.355076
9238.000000;0.355946
9237.000000;0.356980
9236.000000;0.358128
9235.000000;0.359329
9234.000000;0.360524
9233.000000;0.361607
9232.000000;0.362434
9231.000000;0.362996
9230.000000;0.363539
9229.000000;0.364365
9228.000000;0.365476
9227.000000;0.366551
9226.000000;0.367316
9225.000000;0.367818
9224.000000;0.368299
9223.000000;0.368925
9222.000000;0.369714
9221.000000;0.370594
9220.000000;0.371461
9219.000000;0.372234
9218.000000;0.372932
9217.000000;0.373636
9216.000000;0.374348
9215.000000;0.374969
9214.000000;0.375477
9213.000000;0.376010
9212.000000;0.376697
9211.000000;0.377500
9210.000000;0.378312
9209.000000;0.379139
9208.000000;0.380084
9207.000000;0.381171
9206.000000;0.382276
9205.000000;0.383231
9204.000000;0.383970
9203.000000;0.384569
9202.000000;0.385181
9201.000000;0.385902
9200.000000;0.386676
9199.000000;0.387349
9198.000000;0.387807
9197.000000;0.388076
9196.000000;0.388317
9195.000000;0.388752
9194.000000;0.389541
9193.000000;0.390636
9192.000000;0.391769
9191.000000;0.392679
9190.000000;0.393340
9189.000000;0.393918
9188.000000;0.394529
9187.000000;0.395158
9186.000000;0.395796
9185.000000;0.396498
9184.000000;0.397292
9183.000000;0.398107
9182.000000;0.398862
9181.000000;0.399518
9180.000000;0.400054
9179.000000;0.400466
9178.000000;0.400834
9177.000000;0.401264
9176.000000;0.401770
9175.000000;0.402276
9174.000000;0.402793
9173.000000;0.403447
9172.000000;0.404304
9171.000000;0.405240
9170.000000;0.406054
9169.000000;0.406636
9168.000000;0.406976
9167.000000;0.407138
9166.000000;0.407271
9165.000000;0.407559
9164.000000;0.408063
9163.000000;0.408664
9162.000000;0.409219
9161.000000;0.409709
9160.000000;0.410185
9159.000000;0.410661
9158.000000;0.411153
9157.000000;0.411748
9156.000000;0.412517
9155.000000;0.413381
9154.000000;0.414162
9153.000000;0.414787
9152.000000;0.415385
9151.000000;0.416152
9150.000000;0.417142
9149.000000;0.418164
9148.000000;0.418927
9147.000000;0.419296
9146.000000;0.419429
9145.000000;0.419616
9144.000000;0.419997
9143.000000;0.420499
9142.000000;0.421039
9141.000000;0.421642
9140.000000;0.422316
9139.000000;0.422931
9138.000000;0.423324
9137.000000;0.423510
9136.000000;0.423672
9135.000000;0.423973
9134.000000;0.424439
9133.000000;0.424992
9132.000000;0.425535
9131.000000;0.426005
9130.000000;0.426425
9129.000000;0.426897
9128.000000;0.427487
9127.000000;0.428089
9126.000000;0.428480
9125.000000;0.428560
9124.000000;0.428509
9123.000000;0.428661
9122.000000;0.429209
9121.000000;0.430028
9120.000000;0.430797
9119.000000;0.431275
9118.000000;0.431488
9117.000000;0.431649
9116.000000;0.431954
9115.000000;0.432466
9114.000000;0.433130
9113.000000;0.433846
9112.000000;0.434493
9111.000000;0.434934
9110.000000;0.435091
9109.000000;0.435040
9108.000000;0.435034
9107.000000;0.435336
9106.000000;0.435988
9105.000000;0.436739
9104.000000;0.437269
9103.000000;0.437494
9102.000000;0.437610
9101.000000;0.437846
9100.000000;0.438235
9099.000000;0.438652
9098.000000;0.438988
9097.000000;0.439244
9096.000000;0.439495
9095.000000;0.439850
9094.000000;0.440409
9093.000000;0.441190
9092.000000;0.442087
9091.000000;0.442909
9090.000000;0.443485
9089.000000;0.443751
9088.000000;0.443793
9087.000000;0.443804
9086.000000;0.443933
9085.000000;0.444166
9084.000000;0.444409
9083.000000;0.444698
9082.000000;0.445183
9081.000000;0.445855
9080.000000;0.446440
9079.000000;0.446692
9078.000000;0.446714
9077.000000;0.446832
9076.000000;0.447217
9075.000000;0.447764
9074.000000;0.448314
9073.000000;0.448817
9072.000000;0.449257
9071.000000;0.449590
9070.000000;0.449814
9069.000000;0.450002
9068.000000;0.450190
9067.000000;0.450299
9066.000000;0.450261
9065.000000;0.450166
9064.000000;0.450223
9063.000000;0.450536
9062.000000;0.450975
9061.000000;0.451305
9060.000000;0.451467
9059.000000;0.451649
9058.000000;0.452037
9057.000000;0.452503
9056.000000;0.452706
9055.000000;0.452516
9054.000000;0.452224
9053.000000;0.452234
