Criado como novo conjunto de dados;"0307_DANIEL.spp","58324.8 Secs"
cm-1;Abs
10000.000000;0.495863
9999.000000;0.495379
9998.000000;0.494823
9997.000000;0.494125
9996.000000;0.493341
9995.000000;0.492547
9994.000000;0.491754
9993.000000;0.490954
9992.000000;0.490194
9991.000000;0.489586
9990.000000;0.489204
9989.000000;0.488999
9988.000000;0.488810
9987.000000;0.488441
9986.000000;0.487725
9985.000000;0.486615
9984.000000;0.485314
9983.000000;0.484239
9982.000000;0.483690
9981.000000;0.483532
9980.000000;0.483296
9979.000000;0.482636
9978.000000;0.481607
9977.000000;0.480486
9976.000000;0.479460
9975.000000;0.478552
9974.000000;0.477744
9973.000000;0.477006
9972.000000;0.476248
9971.000000;0.475325
9970.000000;0.474182
9969.000000;0.472961
9968.000000;0.471945
9967.000000;0.471330
9966.000000;0.470998
9965.000000;0.470566
9964.000000;0.469738
9963.000000;0.468619
9962.000000;0.467590
9961.000000;0.466857
9960.000000;0.466246
9959.000000;0.465458
9958.000000;0.464422
9957.000000;0.463306
9956.000000;0.462269
9955.000000;0.461323
9954.000000;0.460415
9953.000000;0.459568
9952.000000;0.458888
9951.000000;0.458447
9950.000000;0.458137
9949.000000;0.457662
9948.000000;0.456795
9947.000000;0.455679
9946.000000;0.454730
9945.000000;0.454149
9944.000000;0.453626
9943.000000;0.452691
9942.000000;0.451302
9941.000000;0.449922
9940.000000;0.448984
9939.000000;0.448468
9938.000000;0.448023
9937.000000;0.447364
9936.000000;0.446426
9935.000000;0.445266
9934.000000;0.443985
9933.000000;0.442744
9932.000000;0.441700
9931.000000;0.440875
9930.000000;0.440144
9929.000000;0.439365
9928.000000;0.438489
9927.000000;0.437495
9926.000000;0.436331
9925.000000;0.434964
9924.000000;0.433506
9923.000000;0.432185
9922.000000;0.431172
9921.000000;0.430456
9920.000000;0.429877
9919.000000;0.429272
9918.000000;0.428560
9917.000000;0.427718
9916.000000;0.426748
9915.000000;0.425699
9914.000000;0.424689
9913.000000;0.423840
9912.000000;0.423162
9911.000000;0.422510
9910.000000;0.421717
9909.000000;0.420771
9908.000000;0.419827
9907.000000;0.419033
9906.000000;0.418361
9905.000000;0.417659
9904.000000;0.416831
9903.000000;0.415924
9902.000000;0.415010
9901.000000;0.414063
9900.000000;0.412980
9899.000000;0.411707
9898.000000;0.410314
9897.000000;0.408948
9896.000000;0.407737
9895.000000;0.406709
9894.000000;0.405768
9893.000000;0.404783
9892.000000;0.403703
9891.000000;0.402591
9890.000000;0.401516
9889.000000;0.400463
9888.000000;0.399397
9887.000000;0.398401
9886.000000;0.397642
9885.000000;0.397165
9884.000000;0.396750
9883.000000;0.396047
9882.000000;0.394875
9881.000000;0.393387
9880.000000;0.391921
9879.000000;0.390712
9878.000000;0.389713
9877.000000;0.388708
9876.000000;0.387568
9875.000000;0.386396
9874.000000;0.385410
9873.000000;0.384698
9872.000000;0.384120
9871.000000;0.383443
9870.000000;0.382538
9869.000000;0.381435
9868.000000;0.380227
9867.000000;0.378982
9866.000000;0.377758
9865.000000;0.376645
9864.000000;0.375736
9863.000000;0.375006
9862.000000;0.374263
9861.000000;0.373290
9860.000000;0.372057
9859.000000;0.370761
9858.000000;0.369629
9857.000000;0.368719
9856.000000;0.367925
9855.000000;0.367134
9854.000000;0.366308
9853.000000;0.365418
9852.000000;0.364408
9851.000000;0.363244
9850.000000;0.361987
9849.000000;0.360761
9848.000000;0.359671
9847.000000;0.358731
9846.000000;0.357832
9845.000000;0.356794
9844.000000;0.355495
9843.000000;0.353999
9842.000000;0.352505
9841.000000;0.351146
9840.000000;0.349897
9839.000000;0.348695
9838.000000;0.347590
9837.000000;0.346672
9836.000000;0.345889
9835.000000;0.345030
9834.000000;0.343931
9833.000000;0.342618
9832.000000;0.341236
9831.000000;0.339891
9830.000000;0.338624
9829.000000;0.337466
9828.000000;0.336426
9827.000000;0.335438
9826.000000;0.334391
9825.000000;0.333267
9824.000000;0.332180
9823.000000;0.331263
9822.000000;0.330531
9821.000000;0.329874
9820.000000;0.329132
9819.000000;0.328141
9818.000000;0.326768
9817.000000;0.325012
9816.000000;0.323107
9815.000000;0.321439
9814.000000;0.320268
9813.000000;0.319507
9812.000000;0.318804
9811.000000;0.317866
9810.000000;0.316676
9809.000000;0.315397
9808.000000;0.314127
9807.000000;0.312834
9806.000000;0.311503
9805.000000;0.310230
9804.000000;0.309091
9803.000000;0.307985
9802.000000;0.306713
9801.000000;0.305220
9800.000000;0.303656
9799.000000;0.302196
9798.000000;0.300915
9797.000000;0.299862
9796.000000;0.299109
9795.000000;0.298578
9794.000000;0.297928
9793.000000;0.296804
9792.000000;0.295206
9791.000000;0.293469
9790.000000;0.291863
9789.000000;0.290360
9788.000000;0.288841
9787.000000;0.287361
9786.000000;0.286059
9785.000000;0.284934
9784.000000;0.283832
9783.000000;0.282637
9782.000000;0.281335
9781.000000;0.279953
9780.000000;0.278556
9779.000000;0.277286
9778.000000;0.276251
9777.000000;0.275329
9776.000000;0.274225
9775.000000;0.272771
9774.000000;0.271098
9773.000000;0.269458
9772.000000;0.267975
9771.000000;0.266649
9770.000000;0.265493
9769.000000;0.264519
9768.000000;0.263619
9767.000000;0.262561
9766.000000;0.261151
9765.000000;0.259380
9764.000000;0.257448
9763.000000;0.255670
9762.000000;0.254306
9761.000000;0.253366
9760.000000;0.252536
9759.000000;0.251423
9758.000000;0.249902
9757.000000;0.248206
9756.000000;0.246655
9755.000000;0.245345
9754.000000;0.244117
9753.000000;0.242778
9752.000000;0.241271
9751.000000;0.239678
9750.000000;0.238133
9749.000000;0.236734
9748.000000;0.235492
9747.000000;0.234305
9746.000000;0.233002
9745.000000;0.231468
9744.000000;0.229755
9743.000000;0.228083
9742.000000;0.226691
9741.000000;0.225629
9740.000000;0.224678
9739.000000;0.223498
9738.000000;0.221909
9737.000000;0.220061
9736.000000;0.218327
9735.000000;0.217010
9734.000000;0.216110
9733.000000;0.215320
9732.000000;0.214246
9731.000000;0.212663
9730.000000;0.210610
9729.000000;0.208314
9728.000000;0.206062
9727.000000;0.204119
9726.000000;0.202634
9725.000000;0.201551
9724.000000;0.200624
9723.000000;0.199596
9722.000000;0.198377
9721.000000;0.197020
9720.000000;0.195572
9719.000000;0.194026
9718.000000;0.192399
9717.000000;0.190758
9716.000000;0.189139
9715.000000;0.187516
9714.000000;0.185881
9713.000000;0.184295
9712.000000;0.182817
9711.000000;0.181463
9710.000000;0.180219
9709.000000;0.179017
9708.000000;0.177667
9707.000000;0.175970
9706.000000;0.174001
9705.000000;0.172150
9704.000000;0.170730
9703.000000;0.169591
9702.000000;0.168273
9701.000000;0.166522
9700.000000;0.164514
9699.000000;0.162588
9698.000000;0.160913
9697.000000;0.159444
9696.000000;0.158045
9695.000000;0.156595
9694.000000;0.155055
9693.000000;0.153507
9692.000000;0.152050
9691.000000;0.150649
9690.000000;0.149143
9689.000000;0.147438
9688.000000;0.145598
9687.000000;0.143726
9686.000000;0.141893
9685.000000;0.140189
9684.000000;0.138715
9683.000000;0.137404
9682.000000;0.135982
9681.000000;0.134223
9680.000000;0.132194
9679.000000;0.130147
9678.000000;0.128243
9677.000000;0.126483
9676.000000;0.124806
9675.000000;0.123120
9674.000000;0.121297
9673.000000;0.119309
9672.000000;0.117354
9671.000000;0.115685
9670.000000;0.114290
9669.000000;0.112863
9668.000000;0.111155
9667.000000;0.109220
9666.000000;0.107273
9665.000000;0.105423
9664.000000;0.103614
9663.000000;0.101775
9662.000000;0.099927
9661.000000;0.098162
9660.000000;0.096545
9659.000000;0.095043
9658.000000;0.093518
9657.000000;0.091834
9656.000000;0.089984
9655.000000;0.088116
9654.000000;0.086399
9653.000000;0.084885
9652.000000;0.083477
9651.000000;0.082012
9650.000000;0.080385
9649.000000;0.078633
9648.000000;0.076886
9647.000000;0.075201
9646.000000;0.073471
9645.000000;0.071556
9644.000000;0.069469
9643.000000;0.067368
9642.000000;0.065338
9641.000000;0.063320
9640.000000;0.061271
9639.000000;0.059304
9638.000000;0.057575
9637.000000;0.056074
9636.000000;0.054634
9635.000000;0.053111
9634.000000;0.051475
9633.000000;0.049699
9632.000000;0.047661
9631.000000;0.045268
9630.000000;0.042661
9629.000000;0.040202
9628.000000;0.038165
9627.000000;0.036472
9626.000000;0.034800
9625.000000;0.032947
9624.000000;0.030996
9623.000000;0.029126
9622.000000;0.027373
9621.000000;0.025675
9620.000000;0.024035
9619.000000;0.022485
9618.000000;0.020887
9617.000000;0.018929
9616.000000;0.016435
9615.000000;0.013624
9614.000000;0.010981
9613.000000;0.008866
9612.000000;0.007252
9611.000000;0.005801
9610.000000;0.004136
9609.000000;0.002101
9608.000000;-0.000203
9607.000000;-0.002542
9606.000000;-0.004720
9605.000000;-0.006652
9604.000000;-0.008360
9603.000000;-0.009952
9602.000000;-0.011575
9601.000000;-0.013314
9600.000000;-0.015148
9599.000000;-0.017015
9598.000000;-0.018904
9597.000000;-0.020822
9596.000000;-0.022732
9595.000000;-0.024597
9594.000000;-0.026495
9593.000000;-0.028571
9592.000000;-0.030825
9591.000000;-0.033045
9590.000000;-0.035010
9589.000000;-0.036748
9588.000000;-0.038528
9587.000000;-0.040604
9586.000000;-0.042996
9585.000000;-0.045490
9584.000000;-0.047801
9583.000000;-0.049749
9582.000000;-0.051372
9581.000000;-0.052917
9580.000000;-0.054684
9579.000000;-0.056819
9578.000000;-0.059219
9577.000000;-0.061636
9576.000000;-0.063878
9575.000000;-0.065905
9574.000000;-0.067755
9573.000000;-0.069460
9572.000000;-0.071064
9571.000000;-0.072698
9570.000000;-0.074547
9569.000000;-0.076734
9568.000000;-0.079222
9567.000000;-0.081823
9566.000000;-0.084260
9565.000000;-0.086294
9564.000000;-0.087886
9563.000000;-0.089259
9562.000000;-0.090738
9561.000000;-0.092511
9560.000000;-0.094599
9559.000000;-0.096970
9558.000000;-0.099529
9557.000000;-0.101986
9556.000000;-0.103988
9555.000000;-0.105528
9554.000000;-0.107056
9553.000000;-0.109013
9552.000000;-0.111344
9551.000000;-0.113668
9550.000000;-0.115839
9549.000000;-0.118058
9548.000000;-0.120420
9547.000000;-0.122633
9546.000000;-0.124345
9545.000000;-0.125616
9544.000000;-0.126901
9543.000000;-0.128623
9542.000000;-0.130844
9541.000000;-0.133300
9540.000000;-0.135659
9539.000000;-0.137762
9538.000000;-0.139690
9537.000000;-0.141617
9536.000000;-0.143592
9535.000000;-0.145512
9534.000000;-0.147300
9533.000000;-0.149038
9532.000000;-0.150847
9531.000000;-0.152699
9530.000000;-0.154402
9529.000000;-0.155771
9528.000000;-0.156792
9527.000000;-0.157676
9526.000000;-0.158778
9525.000000;-0.160388
9524.000000;-0.162512
9523.000000;-0.164846
9522.000000;-0.167028
9521.000000;-0.168914
9520.000000;-0.170597
9519.000000;-0.172207
9518.000000;-0.173757
9517.000000;-0.175177
9516.000000;-0.176432
9515.000000;-0.177578
9514.000000;-0.178721
9513.000000;-0.179953
9512.000000;-0.181326
9511.000000;-0.182867
9510.000000;-0.184601
9509.000000;-0.186518
9508.000000;-0.188534
9507.000000;-0.190511
9506.000000;-0.192361
9505.000000;-0.194108
9504.000000;-0.195840
9503.000000;-0.197558
9502.000000;-0.199102
9501.000000;-0.200273
9500.000000;-0.201089
9499.000000;-0.201887
9498.000000;-0.203088
9497.000000;-0.204812
9496.000000;-0.206781
9495.000000;-0.208603
9494.000000;-0.210105
9493.000000;-0.211355
9492.000000;-0.212469
9491.000000;-0.213515
9490.000000;-0.214530
9489.000000;-0.215528
9488.000000;-0.216465
9487.000000;-0.217304
9486.000000;-0.218060
9485.000000;-0.218759
9484.000000;-0.219405
9483.000000;-0.220116
9482.000000;-0.221156
9481.000000;-0.222623
9480.000000;-0.224136
9479.000000;-0.225097
9478.000000;-0.225337
9477.000000;-0.225314
9476.000000;-0.225586
9475.000000;-0.226257
9474.000000;-0.227070
9473.000000;-0.227825
9472.000000;-0.228514
9471.000000;-0.229143
9470.000000;-0.229676
9469.000000;-0.230162
9468.000000;-0.230732
9467.000000;-0.231467
9466.000000;-0.232331
9465.000000;-0.233201
9464.000000;-0.233888
9463.000000;-0.234222
9462.000000;-0.234271
9461.000000;-0.234392
9460.000000;-0.234870
9459.000000;-0.235536
9458.000000;-0.235953
9457.000000;-0.235993
9456.000000;-0.235994
9455.000000;-0.236255
9454.000000;-0.236606
9453.000000;-0.236652
9452.000000;-0.236328
9451.000000;-0.235969
9450.000000;-0.235864
9449.000000;-0.235929
9448.000000;-0.235872
9447.000000;-0.235543
9446.000000;-0.235069
9445.000000;-0.234689
9444.000000;-0.234552
9443.000000;-0.234626
9442.000000;-0.234755
9441.000000;-0.234785
9440.000000;-0.234675
9439.000000;-0.234541
9438.000000;-0.234558
9437.000000;-0.234768
9436.000000;-0.234976
9435.000000;-0.234859
9434.000000;-0.234235
9433.000000;-0.233228
9432.000000;-0.232159
9431.000000;-0.231295
9430.000000;-0.230715
9429.000000;-0.230341
9428.000000;-0.230015
9427.000000;-0.229558
9426.000000;-0.228855
9425.000000;-0.227930
9424.000000;-0.226925
9423.000000;-0.225991
9422.000000;-0.225215
9421.000000;-0.224628
9420.000000;-0.224201
9419.000000;-0.223808
9418.000000;-0.223271
9417.000000;-0.222492
9416.000000;-0.221533
9415.000000;-0.220544
9414.000000;-0.219637
9413.000000;-0.218845
9412.000000;-0.218153
9411.000000;-0.217514
9410.000000;-0.216851
9409.000000;-0.216078
9408.000000;-0.215135
9407.000000;-0.214000
9406.000000;-0.212690
9405.000000;-0.211289
9404.000000;-0.209953
9403.000000;-0.208826
9402.000000;-0.207913
9401.000000;-0.207060
9400.000000;-0.206095
9399.000000;-0.205003
9398.000000;-0.203919
9397.000000;-0.202933
9396.000000;-0.201950
9395.000000;-0.200805
9394.000000;-0.199495
9393.000000;-0.198188
9392.000000;-0.197006
9391.000000;-0.195877
9390.000000;-0.194669
9389.000000;-0.193382
9388.000000;-0.192106
9387.000000;-0.190846
9386.000000;-0.189507
9385.000000;-0.188081
9384.000000;-0.186734
9383.000000;-0.185632
9382.000000;-0.184719
9381.000000;-0.183725
9380.000000;-0.182419
9379.000000;-0.180831
9378.000000;-0.179204
9377.000000;-0.177735
9376.000000;-0.176380
9375.000000;-0.174960
9374.000000;-0.173403
9373.000000;-0.171818
9372.000000;-0.170335
9371.000000;-0.168970
9370.000000;-0.167694
9369.000000;-0.166513
9368.000000;-0.165380
9367.000000;-0.164112
9366.000000;-0.162567
9365.000000;-0.160873
9364.000000;-0.159368
9363.000000;-0.158260
9362.000000;-0.157427
9361.000000;-0.156584
9360.000000;-0.155542
9359.000000;-0.154267
9358.000000;-0.152799
9357.000000;-0.151189
9356.000000;-0.149481
9355.000000;-0.147684
9354.000000;-0.145803
9353.000000;-0.143934
9352.000000;-0.142276
9351.000000;-0.140968
9350.000000;-0.139920
9349.000000;-0.138869
9348.000000;-0.137620
9347.000000;-0.136185
9346.000000;-0.134692
9345.000000;-0.133187
9344.000000;-0.131577
9343.000000;-0.129768
9342.000000;-0.127848
9341.000000;-0.126081
9340.000000;-0.124690
9339.000000;-0.123644
9338.000000;-0.122677
9337.000000;-0.121518
9336.000000;-0.120085
9335.000000;-0.118474
9334.000000;-0.116831
9333.000000;-0.115268
9332.000000;-0.113851
9331.000000;-0.112593
9330.000000;-0.111438
9329.000000;-0.110281
9328.000000;-0.109042
9327.000000;-0.107720
9326.000000;-0.106351
9325.000000;-0.104941
9324.000000;-0.103460
9323.000000;-0.101926
9322.000000;-0.100436
9321.000000;-0.099081
9320.000000;-0.097855
9319.000000;-0.096699
9318.000000;-0.095576
9317.000000;-0.094431
9316.000000;-0.093116
9315.000000;-0.091508
9314.000000;-0.089740
9313.000000;-0.088174
9312.000000;-0.087031
9311.000000;-0.086124
9310.000000;-0.085053
9309.000000;-0.083619
9308.000000;-0.081946
9307.000000;-0.080265
9306.000000;-0.078694
9305.000000;-0.077205
9304.000000;-0.075704
9303.000000;-0.074123
9302.000000;-0.072531
9301.000000;-0.071142
9300.000000;-0.070119
9299.000000;-0.069353
9298.000000;-0.068517
9297.000000;-0.067328
9296.000000;-0.065722
9295.000000;-0.063837
9294.000000;-0.061960
9293.000000;-0.060426
9292.000000;-0.059360
9291.000000;-0.058469
9290.000000;-0.057266
9289.000000;-0.055605
9288.000000;-0.053855
9287.000000;-0.052463
9286.000000;-0.051464
9285.000000;-0.050526
9284.000000;-0.049371
9283.000000;-0.047987
9282.000000;-0.046524
9281.000000;-0.045130
9280.000000;-0.043895
9279.000000;-0.042800
9278.000000;-0.041731
9277.000000;-0.040596
9276.000000;-0.039419
9275.000000;-0.038233
9274.000000;-0.036987
9273.000000;-0.035656
9272.000000;-0.034376
9271.000000;-0.033285
9270.000000;-0.032264
9269.000000;-0.031028
9268.000000;-0.029515
9267.000000;-0.028007
9266.000000;-0.026785
9265.000000;-0.025821
9264.000000;-0.024887
9263.000000;-0.023836
9262.000000;-0.022636
9261.000000;-0.021296
9260.000000;-0.019920
9259.000000;-0.018740
9258.000000;-0.017884
9257.000000;-0.017122
9256.000000;-0.016059
9255.000000;-0.014600
9254.000000;-0.013064
9253.000000;-0.011768
9252.000000;-0.010673
9251.000000;-0.009553
9250.000000;-0.008371
9249.000000;-0.007308
9248.000000;-0.006448
9247.000000;-0.005626
9246.000000;-0.004632
9245.000000;-0.003475
9244.000000;-0.002334
9243.000000;-0.001308
9242.000000;-0.000301
9241.000000;0.000832
9240.000000;0.002076
9239.000000;0.003245
9238.000000;0.004195
9237.000000;0.005015
9236.000000;0.005957
9235.000000;0.007147
9234.000000;0.008440
9233.000000;0.009587
9232.000000;0.010528
9231.000000;0.011449
9230.000000;0.012532
9229.000000;0.013720
9228.000000;0.014793
9227.000000;0.015634
9226.000000;0.016352
9225.000000;0.017154
9224.000000;0.018139
9223.000000;0.019260
9222.000000;0.020436
9221.000000;0.021641
9220.000000;0.022850
9219.000000;0.023983
9218.000000;0.024947
9217.000000;0.025758
9216.000000;0.026553
9215.000000;0.027472
9214.000000;0.028539
9213.000000;0.029675
9212.000000;0.030801
9211.000000;0.031900
9210.000000;0.032991
9209.000000;0.034100
9208.000000;0.035229
9207.000000;0.036321
9206.000000;0.037251
9205.000000;0.037930
9204.000000;0.038427
9203.000000;0.038944
9202.000000;0.039627
9201.000000;0.040448
9200.000000;0.041317
9199.000000;0.042258
9198.000000;0.043375
9197.000000;0.044655
9196.000000;0.045901
9195.000000;0.046924
9194.000000;0.047728
9193.000000;0.048437
9192.000000;0.049111
9191.000000;0.049730
9190.000000;0.050342
9189.000000;0.051075
9188.000000;0.051991
9187.000000;0.052998
9186.000000;0.053977
9185.000000;0.054905
9184.000000;0.055797
9183.000000;0.056614
9182.000000;0.057328
9181.000000;0.058030
9180.000000;0.058868
9179.000000;0.059852
9178.000000;0.060824
9177.000000;0.061625
9176.000000;0.062233
9175.000000;0.062738
9174.000000;0.063267
9173.000000;0.063962
9172.000000;0.064914
9171.000000;0.066057
9170.000000;0.067178
9169.000000;0.068118
9168.000000;0.068930
9167.000000;0.069772
9166.000000;0.070695
9165.000000;0.071586
9164.000000;0.072293
9163.000000;0.072790
9162.000000;0.073217
9161.000000;0.073808
9160.000000;0.074706
9159.000000;0.075796
9158.000000;0.076755
9157.000000;0.077336
9156.000000;0.077616
9155.000000;0.077906
9154.000000;0.078467
9153.000000;0.079357
9152.000000;0.080497
9151.000000;0.081755
9150.000000;0.082939
9149.000000;0.083829
9148.000000;0.084328
9147.000000;0.084581
9146.000000;0.084878
9145.000000;0.085430
9144.000000;0.086245
9143.000000;0.087198
9142.000000;0.088160
9141.000000;0.089066
9140.000000;0.089875
9139.000000;0.090545
9138.000000;0.091078
9137.000000;0.091569
9136.000000;0.092147
9135.000000;0.092856
9134.000000;0.093626
9133.000000;0.094385
9132.000000;0.095145
9131.000000;0.095956
9130.000000;0.096802
9129.000000;0.097598
9128.000000;0.098267
9127.000000;0.098786
9126.000000;0.099179
9125.000000;0.099478
9124.000000;0.099724
9123.000000;0.099982
9122.000000;0.100362
9121.000000;0.100978
9120.000000;0.101841
9119.000000;0.102794
9118.000000;0.103620
9117.000000;0.104263
9116.000000;0.104875
9115.000000;0.105623
9114.000000;0.106503
9113.000000;0.107381
9112.000000;0.108160
9111.000000;0.108816
9110.000000;0.109332
9109.000000;0.109689
9108.000000;0.109947
9107.000000;0.110261
9106.000000;0.110773
9105.000000;0.111507
9104.000000;0.112347
9103.000000;0.113121
9102.000000;0.113712
9101.000000;0.114141
9100.000000;0.114537
9099.000000;0.115012
9098.000000;0.115616
9097.000000;0.116370
9096.000000;0.117269
9095.000000;0.118180
9094.000000;0.118844
9093.000000;0.119101
9092.000000;0.119102
9091.000000;0.119220
9090.000000;0.119719
9089.000000;0.120547
9088.000000;0.121417
9087.000000;0.122046
9086.000000;0.122379
9085.000000;0.122620
9084.000000;0.123047
9083.000000;0.123743
9082.000000;0.124520
9081.000000;0.125148
9080.000000;0.125588
9079.000000;0.125969
9078.000000;0.126438
9077.000000;0.127085
9076.000000;0.127935
9075.000000;0.128876
9074.000000;0.129636
9073.000000;0.130005
9072.000000;0.130075
9071.000000;0.130148
9070.000000;0.130415
