Criado como novo conjunto de dados;"0307_DANIEL.spp","27543.2 Secs"
cm-1;Abs
10000.000000;1.130291
9999.000000;1.129308
9998.000000;1.128327
9997.000000;1.127349
9996.000000;1.126374
9995.000000;1.125397
9994.000000;1.124431
9993.000000;1.123450
9992.000000;1.122503
9991.000000;1.121502
9990.000000;1.120616
9989.000000;1.119277
9988.000000;1.117660
9987.000000;1.116743
9986.000000;1.116495
9985.000000;1.116286
9984.000000;1.115455
9983.000000;1.113997
9982.000000;1.112324
9981.000000;1.110787
9980.000000;1.109480
9979.000000;1.108389
9978.000000;1.107514
9977.000000;1.106837
9976.000000;1.106240
9975.000000;1.105470
9974.000000;1.104222
9973.000000;1.102362
9972.000000;1.100138
9971.000000;1.098088
9970.000000;1.096632
9969.000000;1.095725
9968.000000;1.094968
9967.000000;1.094080
9966.000000;1.093160
9965.000000;1.092399
9964.000000;1.091641
9963.000000;1.090409
9962.000000;1.088430
9961.000000;1.085998
9960.000000;1.083650
9959.000000;1.081595
9958.000000;1.079670
9957.000000;1.077810
9956.000000;1.076308
9955.000000;1.075504
9954.000000;1.075359
9953.000000;1.075478
9952.000000;1.075440
9951.000000;1.074986
9950.000000;1.074022
9949.000000;1.072669
9948.000000;1.071250
9947.000000;1.070047
9946.000000;1.069027
9945.000000;1.067893
9944.000000;1.066403
9943.000000;1.064565
9942.000000;1.062602
9941.000000;1.060847
9940.000000;1.059551
9939.000000;1.058631
9938.000000;1.057656
9937.000000;1.056269
9936.000000;1.054600
9935.000000;1.053087
9934.000000;1.051951
9933.000000;1.051031
9932.000000;1.050090
9931.000000;1.048994
9930.000000;1.047586
9929.000000;1.045731
9928.000000;1.043643
9927.000000;1.041893
9926.000000;1.040881
9925.000000;1.040407
9924.000000;1.039906
9923.000000;1.039030
9922.000000;1.037880
9921.000000;1.036792
9920.000000;1.036012
9919.000000;1.035467
9918.000000;1.034694
9917.000000;1.033120
9916.000000;1.030595
9915.000000;1.027612
9914.000000;1.024910
9913.000000;1.022909
9912.000000;1.021574
9911.000000;1.020662
9910.000000;1.019899
9909.000000;1.019036
9908.000000;1.017953
9907.000000;1.016755
9906.000000;1.015590
9905.000000;1.014386
9904.000000;1.012930
9903.000000;1.011258
9902.000000;1.009737
9901.000000;1.008641
9900.000000;1.007740
9899.000000;1.006493
9898.000000;1.004618
9897.000000;1.002386
9896.000000;1.000333
9895.000000;0.998801
9894.000000;0.997783
9893.000000;0.997096
9892.000000;0.996551
9891.000000;0.995927
9890.000000;0.994928
9889.000000;0.993354
9888.000000;0.991336
9887.000000;0.989300
9886.000000;0.987622
9885.000000;0.986336
9884.000000;0.985230
9883.000000;0.984139
9882.000000;0.983116
9881.000000;0.982279
9880.000000;0.981555
9879.000000;0.980630
9878.000000;0.979216
9877.000000;0.977343
9876.000000;0.975322
9875.000000;0.973400
9874.000000;0.971579
9873.000000;0.969810
9872.000000;0.968208
9871.000000;0.966906
9870.000000;0.965783
9869.000000;0.964577
9868.000000;0.963262
9867.000000;0.962087
9866.000000;0.961151
9865.000000;0.960133
9864.000000;0.958635
9863.000000;0.956668
9862.000000;0.954610
9861.000000;0.952745
9860.000000;0.951022
9859.000000;0.949283
9858.000000;0.947549
9857.000000;0.946014
9856.000000;0.944816
9855.000000;0.943874
9854.000000;0.942944
9853.000000;0.941811
9852.000000;0.940439
9851.000000;0.938963
9850.000000;0.937541
9849.000000;0.936231
9848.000000;0.934977
9847.000000;0.933665
9846.000000;0.932204
9845.000000;0.930604
9844.000000;0.928983
9843.000000;0.927453
9842.000000;0.925965
9841.000000;0.924350
9840.000000;0.922524
9839.000000;0.920597
9838.000000;0.918761
9837.000000;0.917123
9836.000000;0.915703
9835.000000;0.914483
9834.000000;0.913376
9833.000000;0.912196
9832.000000;0.910815
9831.000000;0.909329
9830.000000;0.907967
9829.000000;0.906764
9828.000000;0.905398
9827.000000;0.903493
9826.000000;0.901105
9825.000000;0.898790
9824.000000;0.897084
9823.000000;0.895953
9822.000000;0.894889
9821.000000;0.893519
9820.000000;0.891975
9819.000000;0.890560
9818.000000;0.889255
9817.000000;0.887748
9816.000000;0.885881
9815.000000;0.883854
9814.000000;0.881949
9813.000000;0.880244
9812.000000;0.878665
9811.000000;0.877190
9810.000000;0.875876
9809.000000;0.874727
9808.000000;0.873617
9807.000000;0.872372
9806.000000;0.870936
9805.000000;0.869470
9804.000000;0.868195
9803.000000;0.867079
9802.000000;0.865753
9801.000000;0.863880
9800.000000;0.861559
9799.000000;0.859208
9798.000000;0.857087
9797.000000;0.855163
9796.000000;0.853414
9795.000000;0.852001
9794.000000;0.851004
9793.000000;0.850172
9792.000000;0.849104
9791.000000;0.847579
9790.000000;0.845616
9789.000000;0.843352
9788.000000;0.841002
9787.000000;0.838852
9786.000000;0.837128
9785.000000;0.835857
9784.000000;0.834891
9783.000000;0.833951
9782.000000;0.832667
9781.000000;0.830750
9780.000000;0.828309
9779.000000;0.825829
9778.000000;0.823751
9777.000000;0.822166
9776.000000;0.820947
9775.000000;0.819918
9774.000000;0.818741
9773.000000;0.816938
9772.000000;0.814412
9771.000000;0.811800
9770.000000;0.809906
9769.000000;0.808807
9768.000000;0.807843
9767.000000;0.806473
9766.000000;0.804762
9765.000000;0.802935
9764.000000;0.800882
9763.000000;0.798419
9762.000000;0.795790
9761.000000;0.793559
9760.000000;0.792035
9759.000000;0.791002
9758.000000;0.789997
9757.000000;0.788702
9756.000000;0.787116
9755.000000;0.785469
9754.000000;0.783953
9753.000000;0.782478
9752.000000;0.780743
9751.000000;0.778614
9750.000000;0.776327
9749.000000;0.774198
9748.000000;0.772258
9747.000000;0.770327
9746.000000;0.768372
9745.000000;0.766549
9744.000000;0.764866
9743.000000;0.763052
9742.000000;0.760875
9741.000000;0.758468
9740.000000;0.756235
9739.000000;0.754454
9738.000000;0.753078
9737.000000;0.751889
9736.000000;0.750727
9735.000000;0.749540
9734.000000;0.748295
9733.000000;0.746909
9732.000000;0.745301
9731.000000;0.743460
9730.000000;0.741460
9729.000000;0.739422
9728.000000;0.737478
9727.000000;0.735703
9726.000000;0.734031
9725.000000;0.732248
9724.000000;0.730174
9723.000000;0.727898
9722.000000;0.725747
9721.000000;0.723942
9720.000000;0.722339
9719.000000;0.720612
9718.000000;0.718653
9717.000000;0.716649
9716.000000;0.714774
9715.000000;0.712957
9714.000000;0.711005
9713.000000;0.708850
9712.000000;0.706564
9711.000000;0.704237
9710.000000;0.701943
9709.000000;0.699783
9708.000000;0.697814
9707.000000;0.695935
9706.000000;0.694002
9705.000000;0.692083
9704.000000;0.690472
9703.000000;0.689333
9702.000000;0.688424
9701.000000;0.687258
9700.000000;0.685506
9699.000000;0.683196
9698.000000;0.680584
9697.000000;0.677949
9696.000000;0.675485
9695.000000;0.673260
9694.000000;0.671215
9693.000000;0.669267
9692.000000;0.667421
9691.000000;0.665713
9690.000000;0.664059
9689.000000;0.662249
9688.000000;0.660147
9687.000000;0.657849
9686.000000;0.655583
9685.000000;0.653512
9684.000000;0.651700
9683.000000;0.650177
9682.000000;0.648872
9681.000000;0.647499
9680.000000;0.645675
9679.000000;0.643265
9678.000000;0.640538
9677.000000;0.637908
9676.000000;0.635561
9675.000000;0.633428
9674.000000;0.631471
9673.000000;0.629795
9672.000000;0.628385
9671.000000;0.626856
9670.000000;0.624702
9669.000000;0.621865
9668.000000;0.618915
9667.000000;0.616528
9666.000000;0.614832
9665.000000;0.613344
9664.000000;0.611532
9663.000000;0.609318
9662.000000;0.607019
9661.000000;0.604936
9660.000000;0.603125
9659.000000;0.601464
9658.000000;0.599761
9657.000000;0.597766
9656.000000;0.595271
9655.000000;0.592347
9654.000000;0.589398
9653.000000;0.586820
9652.000000;0.584591
9651.000000;0.582330
9650.000000;0.579795
9649.000000;0.577205
9648.000000;0.574960
9647.000000;0.573130
9646.000000;0.571383
9645.000000;0.569401
9644.000000;0.567225
9643.000000;0.565122
9642.000000;0.563235
9641.000000;0.561491
9640.000000;0.559774
9639.000000;0.558028
9638.000000;0.556184
9637.000000;0.554112
9636.000000;0.551743
9635.000000;0.549155
9634.000000;0.546476
9633.000000;0.543748
9632.000000;0.540993
9631.000000;0.538383
9630.000000;0.536210
9629.000000;0.534614
9628.000000;0.533389
9627.000000;0.532127
9626.000000;0.530517
9625.000000;0.528475
9624.000000;0.526038
9623.000000;0.523294
9622.000000;0.520440
9621.000000;0.517758
9620.000000;0.515404
9619.000000;0.513245
9618.000000;0.511005
9617.000000;0.508576
9616.000000;0.506120
9615.000000;0.503857
9614.000000;0.501862
9613.000000;0.500047
9612.000000;0.498253
9611.000000;0.496297
9610.000000;0.493994
9609.000000;0.491283
9608.000000;0.488320
9607.000000;0.485419
9606.000000;0.482843
9605.000000;0.480661
9604.000000;0.478751
9603.000000;0.476900
9602.000000;0.474908
9601.000000;0.472689
9600.000000;0.470293
9599.000000;0.467849
9598.000000;0.465452
9597.000000;0.463099
9596.000000;0.460712
9595.000000;0.458209
9594.000000;0.455569
9593.000000;0.452849
9592.000000;0.450161
9591.000000;0.447605
9590.000000;0.445217
9589.000000;0.442973
9588.000000;0.440818
9587.000000;0.438709
9586.000000;0.436642
9585.000000;0.434643
9584.000000;0.432709
9583.000000;0.430743
9582.000000;0.428595
9581.000000;0.426207
9580.000000;0.423725
9579.000000;0.421385
9578.000000;0.419264
9577.000000;0.417175
9576.000000;0.414859
9575.000000;0.412276
9574.000000;0.409605
9573.000000;0.406964
9572.000000;0.404230
9571.000000;0.401258
9570.000000;0.398211
9569.000000;0.395507
9568.000000;0.393393
9567.000000;0.391687
9566.000000;0.390011
9565.000000;0.388162
9564.000000;0.386149
9563.000000;0.383956
9562.000000;0.381461
9561.000000;0.378635
9560.000000;0.375679
9559.000000;0.372895
9558.000000;0.370465
9557.000000;0.368376
9556.000000;0.366449
9555.000000;0.364422
9554.000000;0.362117
9553.000000;0.359616
9552.000000;0.357200
9551.000000;0.355029
9550.000000;0.352911
9549.000000;0.350498
9548.000000;0.347720
9547.000000;0.344939
9546.000000;0.342635
9545.000000;0.340968
9544.000000;0.339640
9543.000000;0.338172
9542.000000;0.336267
9541.000000;0.333964
9540.000000;0.331490
9539.000000;0.329040
9538.000000;0.326673
9537.000000;0.324354
9536.000000;0.322047
9535.000000;0.319757
9534.000000;0.317541
9533.000000;0.315437
9532.000000;0.313374
9531.000000;0.311194
9530.000000;0.308830
9529.000000;0.306431
9528.000000;0.304244
9527.000000;0.302365
9526.000000;0.300671
9525.000000;0.298953
9524.000000;0.297053
9523.000000;0.294889
9522.000000;0.292504
9521.000000;0.290117
9520.000000;0.287972
9519.000000;0.286083
9518.000000;0.284215
9517.000000;0.282222
9516.000000;0.280276
9515.000000;0.278633
9514.000000;0.277231
9513.000000;0.275718
9512.000000;0.273883
9511.000000;0.271892
9510.000000;0.269999
9509.000000;0.268175
9508.000000;0.266189
9507.000000;0.263997
9506.000000;0.261875
9505.000000;0.260102
9504.000000;0.258628
9503.000000;0.257174
9502.000000;0.255570
9501.000000;0.253873
9500.000000;0.252142
9499.000000;0.250281
9498.000000;0.248204
9497.000000;0.246079
9496.000000;0.244268
9495.000000;0.242995
9494.000000;0.242125
9493.000000;0.241267
9492.000000;0.240078
9491.000000;0.238498
9490.000000;0.236758
9489.000000;0.235129
9488.000000;0.233669
9487.000000;0.232241
9486.000000;0.230769
9485.000000;0.229358
9484.000000;0.228091
9483.000000;0.226883
9482.000000;0.225673
9481.000000;0.224658
9480.000000;0.224093
9479.000000;0.223845
9478.000000;0.223377
9477.000000;0.222261
9476.000000;0.220584
9475.000000;0.218803
9474.000000;0.217334
9473.000000;0.216323
9472.000000;0.215639
9471.000000;0.214980
9470.000000;0.214101
9469.000000;0.213031
9468.000000;0.212000
9467.000000;0.211117
9466.000000;0.210248
9465.000000;0.209298
9464.000000;0.208432
9463.000000;0.207864
9462.000000;0.207510
9461.000000;0.207022
9460.000000;0.206156
9459.000000;0.204994
9458.000000;0.203819
9457.000000;0.202894
9456.000000;0.202335
9455.000000;0.202102
9454.000000;0.202076
9453.000000;0.202161
9452.000000;0.202305
9451.000000;0.202394
9450.000000;0.202247
9449.000000;0.201787
9448.000000;0.201161
9447.000000;0.200603
9446.000000;0.200217
9445.000000;0.199972
9444.000000;0.199827
9443.000000;0.199750
9442.000000;0.199671
9441.000000;0.199560
9440.000000;0.199559
9439.000000;0.199866
9438.000000;0.200463
9437.000000;0.201054
9436.000000;0.201349
9435.000000;0.201342
9434.000000;0.201291
9433.000000;0.201472
9432.000000;0.201949
9431.000000;0.202536
9430.000000;0.202948
9429.000000;0.203050
9428.000000;0.202972
9427.000000;0.202964
9426.000000;0.203176
9425.000000;0.203598
9424.000000;0.204134
9423.000000;0.204642
9422.000000;0.204952
9421.000000;0.205011
9420.000000;0.204992
9419.000000;0.205146
9418.000000;0.205520
9417.000000;0.205946
9416.000000;0.206335
9415.000000;0.206830
9414.000000;0.207574
9413.000000;0.208441
9412.000000;0.209119
9411.000000;0.209454
9410.000000;0.209589
9409.000000;0.209780
9408.000000;0.210149
9407.000000;0.210657
9406.000000;0.211266
9405.000000;0.212024
9404.000000;0.212967
9403.000000;0.214001
9402.000000;0.214983
9401.000000;0.215932
9400.000000;0.217043
9399.000000;0.218424
9398.000000;0.219903
9397.000000;0.221197
9396.000000;0.222210
9395.000000;0.223020
9394.000000;0.223661
9393.000000;0.224102
9392.000000;0.224465
9391.000000;0.225052
9390.000000;0.226035
9389.000000;0.227225
9388.000000;0.228261
9387.000000;0.228975
9386.000000;0.229535
9385.000000;0.230264
9384.000000;0.231396
9383.000000;0.232926
9382.000000;0.234604
9381.000000;0.236121
9380.000000;0.237349
9379.000000;0.238406
9378.000000;0.239463
9377.000000;0.240556
9376.000000;0.241609
9375.000000;0.242577
9374.000000;0.243472
9373.000000;0.244328
9372.000000;0.245186
9371.000000;0.246104
9370.000000;0.247114
9369.000000;0.248183
9368.000000;0.249272
9367.000000;0.250390
9366.000000;0.251586
9365.000000;0.252892
9364.000000;0.254320
9363.000000;0.255828
9362.000000;0.257274
9361.000000;0.258471
9360.000000;0.259393
9359.000000;0.260271
9358.000000;0.261374
9357.000000;0.262690
9356.000000;0.263929
9355.000000;0.264865
9354.000000;0.265588
9353.000000;0.266388
9352.000000;0.267459
9351.000000;0.268769
9350.000000;0.270153
9349.000000;0.271442
9348.000000;0.272510
9347.000000;0.273331
9346.000000;0.274072
9345.000000;0.275095
9344.000000;0.276714
9343.000000;0.278854
9342.000000;0.281015
9341.000000;0.282676
9340.000000;0.283718
9339.000000;0.284417
9338.000000;0.285071
9337.000000;0.285787
9336.000000;0.286595
9335.000000;0.287579
9334.000000;0.288759
9333.000000;0.289991
9332.000000;0.291107
9331.000000;0.292108
9330.000000;0.293110
9329.000000;0.294178
9328.000000;0.295313
9327.000000;0.296569
9326.000000;0.298007
9325.000000;0.299518
9324.000000;0.300853
9323.000000;0.301868
9322.000000;0.302683
9321.000000;0.303541
9320.000000;0.304602
9319.000000;0.305897
9318.000000;0.307385
9317.000000;0.308953
9316.000000;0.310418
9315.000000;0.311633
9314.000000;0.312605
9313.000000;0.313459
9312.000000;0.314306
9311.000000;0.315191
9310.000000;0.316157
9309.000000;0.317282
9308.000000;0.318593
9307.000000;0.319978
9306.000000;0.321252
9305.000000;0.322335
9304.000000;0.323336
9303.000000;0.324441
9302.000000;0.325714
9301.000000;0.327031
9300.000000;0.328197
9299.000000;0.329119
9298.000000;0.329861
9297.000000;0.330571
9296.000000;0.331380
9295.000000;0.332363
9294.000000;0.333540
9293.000000;0.334864
9292.000000;0.336203
9291.000000;0.337386
9290.000000;0.338344
9289.000000;0.339238
9288.000000;0.340348
9287.000000;0.341746
9286.000000;0.343131
9285.000000;0.344100
9284.000000;0.344605
9283.000000;0.345004
9282.000000;0.345640
9281.000000;0.346503
9280.000000;0.347413
9279.000000;0.348385
9278.000000;0.349602
9277.000000;0.351057
9276.000000;0.352459
9275.000000;0.353568
9274.000000;0.354494
9273.000000;0.355528
9272.000000;0.356776
9271.000000;0.358059
9270.000000;0.359152
9269.000000;0.359999
9268.000000;0.360702
9267.000000;0.361382
9266.000000;0.362075
9265.000000;0.362733
9264.000000;0.363319
9263.000000;0.363926
9262.000000;0.364761
9261.000000;0.365957
9260.000000;0.367385
9259.000000;0.368742
9258.000000;0.369823
9257.000000;0.370697
9256.000000;0.371572
9255.000000;0.372563
9254.000000;0.373606
9253.000000;0.374570
9252.000000;0.375370
9251.000000;0.376010
9250.000000;0.376563
9249.000000;0.377175
9248.000000;0.378014
9247.000000;0.379157
9246.000000;0.380495
9245.000000;0.381782
9244.000000;0.382828
9243.000000;0.383651
9242.000000;0.384426
9241.000000;0.385293
9240.000000;0.386232
9239.000000;0.387146
9238.000000;0.388014
9237.000000;0.388914
9236.000000;0.389887
9235.000000;0.390825
9234.000000;0.391544
9233.000000;0.392009
9232.000000;0.392432
9231.000000;0.393121
9230.000000;0.394170
9229.000000;0.395346
9228.000000;0.396325
9227.000000;0.397050
9226.000000;0.397782
9225.000000;0.398779
9224.000000;0.400000
9223.000000;0.401167
9222.000000;0.402069
9221.000000;0.402726
9220.000000;0.403318
9219.000000;0.404042
9218.000000;0.405000
9217.000000;0.406080
9216.000000;0.406962
9215.000000;0.407393
9214.000000;0.407494
9213.000000;0.407651
9212.000000;0.408068
9211.000000;0.408598
9210.000000;0.409089
9209.000000;0.409700
9208.000000;0.410669
9207.000000;0.411890
9206.000000;0.412981
9205.000000;0.413730
9204.000000;0.414261
9203.000000;0.414742
9202.000000;0.415188
9201.000000;0.415618
9200.000000;0.416206
9199.000000;0.417106
9198.000000;0.418218
9197.000000;0.419265
9196.000000;0.420038
9195.000000;0.420521
9194.000000;0.420839
9193.000000;0.421194
9192.000000;0.421756
9191.000000;0.422521
9190.000000;0.423293
9189.000000;0.423917
9188.000000;0.424484
9187.000000;0.425218
9186.000000;0.426199
9185.000000;0.427283
9184.000000;0.428258
9183.000000;0.429014
9182.000000;0.429558
9181.000000;0.429999
9180.000000;0.430502
9179.000000;0.431182
9178.000000;0.431977
9177.000000;0.432688
9176.000000;0.433163
9175.000000;0.433457
9174.000000;0.433774
9173.000000;0.434288
9172.000000;0.435020
9171.000000;0.435841
9170.000000;0.436600
9169.000000;0.437240
9168.000000;0.437802
9167.000000;0.438353
9166.000000;0.438903
9165.000000;0.439421
9164.000000;0.439887
9163.000000;0.440332
9162.000000;0.440840
9161.000000;0.441478
9160.000000;0.442189
9159.000000;0.442802
9158.000000;0.443220
9157.000000;0.443567
9156.000000;0.444037
9155.000000;0.444605
9154.000000;0.445030
9153.000000;0.445171
9152.000000;0.445199
9151.000000;0.445412
9150.000000;0.445951
9149.000000;0.446754
9148.000000;0.447695
9147.000000;0.448637
9146.000000;0.449453
9145.000000;0.450117
9144.000000;0.450739
9143.000000;0.451417
9142.000000;0.452091
9141.000000;0.452630
9140.000000;0.453018
9139.000000;0.453371
9138.000000;0.453797
9137.000000;0.454332
9136.000000;0.454955
9135.000000;0.455565
9134.000000;0.456004
9133.000000;0.456219
9132.000000;0.456399
9131.000000;0.456829
9130.000000;0.457610
9129.000000;0.458582
9128.000000;0.459493
9127.000000;0.460159
9126.000000;0.460513
9125.000000;0.460645
9124.000000;0.460796
9123.000000;0.461167
9122.000000;0.461697
9121.000000;0.462122
9120.000000;0.462274
9119.000000;0.462245
9118.000000;0.462255
9117.000000;0.462454
9116.000000;0.462873
9115.000000;0.463450
9114.000000;0.464073
9113.000000;0.464644
9112.000000;0.465130
9111.000000;0.465521
9110.000000;0.465762
9109.000000;0.465848
9108.000000;0.465945
9107.000000;0.466285
9106.000000;0.466912
9105.000000;0.467630
9104.000000;0.468236
9103.000000;0.468701
9102.000000;0.469092
9101.000000;0.469418
9100.000000;0.469630
9099.000000;0.469703
9098.000000;0.469694
9097.000000;0.469743
9096.000000;0.470036
9095.000000;0.470644
9094.000000;0.471393
9093.000000;0.472000
9092.000000;0.472376
9091.000000;0.472726
9090.000000;0.473275
9089.000000;0.473976
9088.000000;0.474556
9087.000000;0.474803
9086.000000;0.474773
9085.000000;0.474753
9084.000000;0.475030
9083.000000;0.475627
9082.000000;0.476261
9081.000000;0.476629
9080.000000;0.476718
9079.000000;0.476759
9078.000000;0.476902
9077.000000;0.477119
9076.000000;0.477408
9075.000000;0.477901
9074.000000;0.478638
9073.000000;0.479423
9072.000000;0.480025
9071.000000;0.480416
9070.000000;0.480668
9069.000000;0.480745
9068.000000;0.480581
9067.000000;0.480299
9066.000000;0.480141
9065.000000;0.480211
9064.000000;0.480462
9063.000000;0.480896
9062.000000;0.481575
9061.000000;0.482391
9060.000000;0.483033
9059.000000;0.483301
9058.000000;0.483343
9057.000000;0.483451
9056.000000;0.483733
9055.000000;0.484090
9054.000000;0.484456
9053.000000;0.484891
