Criado como novo conjunto de dados;"0307_DANIEL.spp","37263.7 Secs"
cm-1;Abs
10000.000000;1.029450
9999.000000;1.028082
9998.000000;1.026718
9997.000000;1.025358
9996.000000;1.024004
9995.000000;1.022650
9994.000000;1.021308
9993.000000;1.019957
9992.000000;1.018633
9991.000000;1.017272
9990.000000;1.015999
9989.000000;1.014396
9988.000000;1.012642
9987.000000;1.011518
9986.000000;1.010973
9985.000000;1.010408
9984.000000;1.009129
9983.000000;1.007067
9982.000000;1.004776
9981.000000;1.002943
9980.000000;1.001819
9979.000000;1.001107
9978.000000;1.000365
9977.000000;0.999467
9976.000000;0.998603
9975.000000;0.997898
9974.000000;0.997152
9973.000000;0.996020
9972.000000;0.994337
9971.000000;0.992275
9970.000000;0.990261
9969.000000;0.988792
9968.000000;0.988146
9967.000000;0.988110
9966.000000;0.988026
9965.000000;0.987287
9964.000000;0.985834
9963.000000;0.984132
9962.000000;0.982640
9961.000000;0.981401
9960.000000;0.980148
9959.000000;0.978734
9958.000000;0.977347
9957.000000;0.976285
9956.000000;0.975553
9955.000000;0.974789
9954.000000;0.973628
9953.000000;0.972082
9952.000000;0.970477
9951.000000;0.969078
9950.000000;0.967882
9949.000000;0.966757
9948.000000;0.965592
9947.000000;0.964311
9946.000000;0.962888
9945.000000;0.961394
9944.000000;0.959911
9943.000000;0.958358
9942.000000;0.956622
9941.000000;0.954911
9940.000000;0.953692
9939.000000;0.953096
9938.000000;0.952591
9937.000000;0.951529
9936.000000;0.949903
9935.000000;0.948285
9934.000000;0.947094
9933.000000;0.946206
9932.000000;0.945242
9931.000000;0.943987
9930.000000;0.942491
9929.000000;0.940983
9928.000000;0.939733
9927.000000;0.938773
9926.000000;0.937768
9925.000000;0.936356
9924.000000;0.934625
9923.000000;0.933007
9922.000000;0.931688
9921.000000;0.930421
9920.000000;0.928992
9919.000000;0.927557
9918.000000;0.926348
9917.000000;0.925314
9916.000000;0.924245
9915.000000;0.923021
9914.000000;0.921560
9913.000000;0.919777
9912.000000;0.917845
9911.000000;0.916297
9910.000000;0.915521
9909.000000;0.915222
9908.000000;0.914667
9907.000000;0.913443
9906.000000;0.911754
9905.000000;0.910021
9904.000000;0.908497
9903.000000;0.907241
9902.000000;0.906183
9901.000000;0.905061
9900.000000;0.903544
9899.000000;0.901605
9898.000000;0.899613
9897.000000;0.897951
9896.000000;0.896654
9895.000000;0.895526
9894.000000;0.894458
9893.000000;0.893444
9892.000000;0.892380
9891.000000;0.891051
9890.000000;0.889372
9889.000000;0.887539
9888.000000;0.885865
9887.000000;0.884503
9886.000000;0.883365
9885.000000;0.882252
9884.000000;0.881035
9883.000000;0.879695
9882.000000;0.878245
9881.000000;0.876666
9880.000000;0.874956
9879.000000;0.873207
9878.000000;0.871582
9877.000000;0.870217
9876.000000;0.869163
9875.000000;0.868368
9874.000000;0.867658
9873.000000;0.866753
9872.000000;0.865443
9871.000000;0.863781
9870.000000;0.862057
9869.000000;0.860526
9868.000000;0.859208
9867.000000;0.857973
9866.000000;0.856735
9865.000000;0.855475
9864.000000;0.854136
9863.000000;0.852623
9862.000000;0.850966
9861.000000;0.849394
9860.000000;0.848154
9859.000000;0.847241
9858.000000;0.846343
9857.000000;0.845082
9856.000000;0.843336
9855.000000;0.841304
9854.000000;0.839281
9853.000000;0.837408
9852.000000;0.835667
9851.000000;0.834052
9850.000000;0.832630
9849.000000;0.831411
9848.000000;0.830238
9847.000000;0.828909
9846.000000;0.827375
9845.000000;0.825749
9844.000000;0.824101
9843.000000;0.822384
9842.000000;0.820603
9841.000000;0.818968
9840.000000;0.817722
9839.000000;0.816818
9838.000000;0.815879
9837.000000;0.814557
9836.000000;0.812859
9835.000000;0.811072
9834.000000;0.809418
9833.000000;0.807878
9832.000000;0.806318
9831.000000;0.804688
9830.000000;0.803004
9829.000000;0.801223
9828.000000;0.799221
9827.000000;0.796977
9826.000000;0.794739
9825.000000;0.792942
9824.000000;0.791851
9823.000000;0.791300
9822.000000;0.790806
9821.000000;0.789958
9820.000000;0.788665
9819.000000;0.787060
9818.000000;0.785301
9817.000000;0.783539
9816.000000;0.781956
9815.000000;0.780672
9814.000000;0.779573
9813.000000;0.778342
9812.000000;0.776722
9811.000000;0.774743
9810.000000;0.772707
9809.000000;0.770970
9808.000000;0.769682
9807.000000;0.768659
9806.000000;0.767504
9805.000000;0.765925
9804.000000;0.763946
9803.000000;0.761831
9802.000000;0.759842
9801.000000;0.758103
9800.000000;0.756601
9799.000000;0.755204
9798.000000;0.753740
9797.000000;0.752174
9796.000000;0.750684
9795.000000;0.749416
9794.000000;0.748195
9793.000000;0.746659
9792.000000;0.744676
9791.000000;0.742479
9790.000000;0.740359
9789.000000;0.738426
9788.000000;0.736728
9787.000000;0.735377
9786.000000;0.734344
9785.000000;0.733302
9784.000000;0.731892
9783.000000;0.730103
9782.000000;0.728200
9781.000000;0.726346
9780.000000;0.724477
9779.000000;0.722521
9778.000000;0.720520
9777.000000;0.718553
9776.000000;0.716700
9775.000000;0.715074
9774.000000;0.713671
9773.000000;0.712169
9772.000000;0.710139
9771.000000;0.707611
9770.000000;0.705209
9769.000000;0.703554
9768.000000;0.702652
9767.000000;0.702005
9766.000000;0.701177
9765.000000;0.700042
9764.000000;0.698559
9763.000000;0.696627
9762.000000;0.694299
9761.000000;0.691923
9760.000000;0.689879
9759.000000;0.688222
9758.000000;0.686704
9757.000000;0.685088
9756.000000;0.683349
9755.000000;0.681551
9754.000000;0.679680
9753.000000;0.677686
9752.000000;0.675631
9751.000000;0.673696
9750.000000;0.671985
9749.000000;0.670393
9748.000000;0.668715
9747.000000;0.666874
9746.000000;0.664977
9745.000000;0.663169
9744.000000;0.661495
9743.000000;0.659884
9742.000000;0.658202
9741.000000;0.656315
9740.000000;0.654210
9739.000000;0.652059
9738.000000;0.650076
9737.000000;0.648262
9736.000000;0.646422
9735.000000;0.644497
9734.000000;0.642736
9733.000000;0.641388
9732.000000;0.640304
9731.000000;0.639043
9730.000000;0.637360
9729.000000;0.635422
9728.000000;0.633526
9727.000000;0.631779
9726.000000;0.630098
9725.000000;0.628355
9724.000000;0.626445
9723.000000;0.624325
9722.000000;0.622091
9721.000000;0.619943
9720.000000;0.617997
9719.000000;0.616231
9718.000000;0.614620
9717.000000;0.613201
9716.000000;0.611903
9715.000000;0.610460
9714.000000;0.608635
9713.000000;0.606473
9712.000000;0.604215
9711.000000;0.602049
9710.000000;0.600050
9709.000000;0.598250
9708.000000;0.596582
9707.000000;0.594781
9706.000000;0.592572
9705.000000;0.589980
9704.000000;0.587351
9703.000000;0.585035
9702.000000;0.583140
9701.000000;0.581560
9700.000000;0.580080
9699.000000;0.578466
9698.000000;0.576590
9697.000000;0.574539
9696.000000;0.572523
9695.000000;0.570670
9694.000000;0.568971
9693.000000;0.567362
9692.000000;0.565706
9691.000000;0.563773
9690.000000;0.561438
9689.000000;0.558934
9688.000000;0.556676
9687.000000;0.554770
9686.000000;0.552922
9685.000000;0.550921
9684.000000;0.548948
9683.000000;0.547220
9682.000000;0.545538
9681.000000;0.543473
9680.000000;0.540984
9679.000000;0.538561
9678.000000;0.536709
9677.000000;0.535416
9676.000000;0.534158
9675.000000;0.532347
9674.000000;0.529804
9673.000000;0.526920
9672.000000;0.524344
9671.000000;0.522424
9670.000000;0.520913
9669.000000;0.519276
9668.000000;0.517226
9667.000000;0.514891
9666.000000;0.512513
9665.000000;0.510170
9664.000000;0.507843
9663.000000;0.505587
9662.000000;0.503499
9661.000000;0.501565
9660.000000;0.499627
9659.000000;0.497518
9658.000000;0.495189
9657.000000;0.492727
9656.000000;0.490267
9655.000000;0.487898
9654.000000;0.485655
9653.000000;0.483574
9652.000000;0.481698
9651.000000;0.479984
9650.000000;0.478253
9649.000000;0.476287
9648.000000;0.474015
9647.000000;0.471573
9646.000000;0.469178
9645.000000;0.466955
9644.000000;0.464886
9643.000000;0.462857
9642.000000;0.460765
9641.000000;0.458583
9640.000000;0.456374
9639.000000;0.454241
9638.000000;0.452253
9637.000000;0.450386
9636.000000;0.448492
9635.000000;0.446389
9634.000000;0.444024
9633.000000;0.441580
9632.000000;0.439336
9631.000000;0.437417
9630.000000;0.435693
9629.000000;0.433918
9628.000000;0.431902
9627.000000;0.429580
9626.000000;0.427016
9625.000000;0.424375
9624.000000;0.421792
9623.000000;0.419225
9622.000000;0.416534
9621.000000;0.413762
9620.000000;0.411208
9619.000000;0.409084
9618.000000;0.407195
9617.000000;0.405135
9616.000000;0.402785
9615.000000;0.400463
9614.000000;0.398523
9613.000000;0.396920
9612.000000;0.395236
9611.000000;0.393099
9610.000000;0.390517
9609.000000;0.387825
9608.000000;0.385340
9607.000000;0.383086
9606.000000;0.380853
9605.000000;0.378508
9604.000000;0.376167
9603.000000;0.374008
9602.000000;0.371978
9601.000000;0.369781
9600.000000;0.367211
9599.000000;0.364428
9598.000000;0.361840
9597.000000;0.359729
9596.000000;0.357982
9595.000000;0.356209
9594.000000;0.354107
9593.000000;0.351696
9592.000000;0.349165
9591.000000;0.346559
9590.000000;0.343747
9589.000000;0.340709
9588.000000;0.337734
9587.000000;0.335196
9586.000000;0.333157
9585.000000;0.331322
9584.000000;0.329386
9583.000000;0.327329
9582.000000;0.325311
9581.000000;0.323348
9580.000000;0.321192
9579.000000;0.318570
9578.000000;0.315506
9577.000000;0.312333
9576.000000;0.309397
9575.000000;0.306806
9574.000000;0.304470
9573.000000;0.302276
9572.000000;0.300136
9571.000000;0.297942
9570.000000;0.295643
9569.000000;0.293366
9568.000000;0.291328
9567.000000;0.289578
9566.000000;0.287923
9565.000000;0.286126
9564.000000;0.284096
9563.000000;0.281833
9562.000000;0.279338
9561.000000;0.276648
9560.000000;0.273875
9559.000000;0.271133
9558.000000;0.268484
9557.000000;0.265993
9556.000000;0.263713
9555.000000;0.261575
9554.000000;0.259406
9553.000000;0.257114
9552.000000;0.254741
9551.000000;0.252296
9550.000000;0.249730
9549.000000;0.247166
9548.000000;0.244916
9547.000000;0.243089
9546.000000;0.241354
9545.000000;0.239339
9544.000000;0.237129
9543.000000;0.235087
9542.000000;0.233262
9541.000000;0.231290
9540.000000;0.228901
9539.000000;0.226236
9538.000000;0.223587
9537.000000;0.221071
9536.000000;0.218686
9535.000000;0.216492
9534.000000;0.214579
9533.000000;0.212920
9532.000000;0.211344
9531.000000;0.209589
9530.000000;0.207396
9529.000000;0.204736
9528.000000;0.201982
9527.000000;0.199647
9526.000000;0.197840
9525.000000;0.196102
9524.000000;0.193922
9523.000000;0.191305
9522.000000;0.188722
9521.000000;0.186595
9520.000000;0.184984
9519.000000;0.183660
9518.000000;0.182315
9517.000000;0.180704
9516.000000;0.178743
9515.000000;0.176525
9514.000000;0.174217
9513.000000;0.171950
9512.000000;0.169815
9511.000000;0.167890
9510.000000;0.166185
9509.000000;0.164596
9508.000000;0.163027
9507.000000;0.161519
9506.000000;0.160170
9505.000000;0.158905
9504.000000;0.157461
9503.000000;0.155634
9502.000000;0.153503
9501.000000;0.151361
9500.000000;0.149436
9499.000000;0.147705
9498.000000;0.145952
9497.000000;0.144013
9496.000000;0.141952
9495.000000;0.140028
9494.000000;0.138480
9493.000000;0.137307
9492.000000;0.136246
9491.000000;0.134970
9490.000000;0.133372
9489.000000;0.131687
9488.000000;0.130276
9487.000000;0.129257
9486.000000;0.128380
9485.000000;0.127333
9484.000000;0.126099
9483.000000;0.124887
9482.000000;0.123798
9481.000000;0.122727
9480.000000;0.121612
9479.000000;0.120594
9478.000000;0.119790
9477.000000;0.119041
9476.000000;0.118005
9475.000000;0.116489
9474.000000;0.114600
9473.000000;0.112672
9472.000000;0.111104
9471.000000;0.110174
9470.000000;0.109843
9469.000000;0.109739
9468.000000;0.109421
9467.000000;0.108702
9466.000000;0.107698
9465.000000;0.106657
9464.000000;0.105812
9463.000000;0.105315
9462.000000;0.105138
9461.000000;0.105038
9460.000000;0.104716
9459.000000;0.104069
9458.000000;0.103217
9457.000000;0.102306
9456.000000;0.101413
9455.000000;0.100613
9454.000000;0.100016
9453.000000;0.099654
9452.000000;0.099415
9451.000000;0.099149
9450.000000;0.098805
9449.000000;0.098444
9448.000000;0.098184
9447.000000;0.098121
9446.000000;0.098250
9445.000000;0.098441
9444.000000;0.098556
9443.000000;0.098583
9442.000000;0.098579
9441.000000;0.098484
9440.000000;0.098132
9439.000000;0.097506
9438.000000;0.096911
9437.000000;0.096775
9436.000000;0.097272
9435.000000;0.098157
9434.000000;0.098936
9433.000000;0.099213
9432.000000;0.098984
9431.000000;0.098611
9430.000000;0.098472
9429.000000;0.098635
9428.000000;0.098906
9427.000000;0.099159
9426.000000;0.099464
9425.000000;0.099892
9424.000000;0.100382
9423.000000;0.100897
9422.000000;0.101541
9421.000000;0.102380
9420.000000;0.103263
9419.000000;0.103977
9418.000000;0.104486
9417.000000;0.104871
9416.000000;0.105131
9415.000000;0.105262
9414.000000;0.105453
9413.000000;0.105953
9412.000000;0.106740
9411.000000;0.107532
9410.000000;0.108183
9409.000000;0.108828
9408.000000;0.109568
9407.000000;0.110245
9406.000000;0.110722
9405.000000;0.111193
9404.000000;0.111979
9403.000000;0.113080
9402.000000;0.114156
9401.000000;0.114944
9400.000000;0.115512
9399.000000;0.116061
9398.000000;0.116661
9397.000000;0.117280
9396.000000;0.117968
9395.000000;0.118875
9394.000000;0.120085
9393.000000;0.121504
9392.000000;0.122920
9391.000000;0.124133
9390.000000;0.125048
9389.000000;0.125707
9388.000000;0.126275
9387.000000;0.126977
9386.000000;0.127954
9385.000000;0.129169
9384.000000;0.130469
9383.000000;0.131755
9382.000000;0.133037
9381.000000;0.134294
9380.000000;0.135374
9379.000000;0.136153
9378.000000;0.136765
9377.000000;0.137525
9376.000000;0.138588
9375.000000;0.139787
9374.000000;0.140891
9373.000000;0.141900
9372.000000;0.143015
9371.000000;0.144359
9370.000000;0.145827
9369.000000;0.147189
9368.000000;0.148263
9367.000000;0.149042
9366.000000;0.149709
9365.000000;0.150525
9364.000000;0.151626
9363.000000;0.152950
9362.000000;0.154358
9361.000000;0.155772
9360.000000;0.157149
9359.000000;0.158410
9358.000000;0.159526
9357.000000;0.160629
9356.000000;0.161889
9355.000000;0.163283
9354.000000;0.164602
9353.000000;0.165708
9352.000000;0.166702
9351.000000;0.167767
9350.000000;0.168970
9349.000000;0.170237
9348.000000;0.171446
9347.000000;0.172502
9346.000000;0.173390
9345.000000;0.174232
9344.000000;0.175245
9343.000000;0.176550
9342.000000;0.178047
9341.000000;0.179501
9340.000000;0.180772
9339.000000;0.181918
9338.000000;0.183120
9337.000000;0.184497
9336.000000;0.185982
9335.000000;0.187359
9334.000000;0.188445
9333.000000;0.189260
9332.000000;0.189977
9331.000000;0.190734
9330.000000;0.191549
9329.000000;0.192407
9328.000000;0.193362
9327.000000;0.194483
9326.000000;0.195779
9325.000000;0.197201
9324.000000;0.198670
9323.000000;0.200074
9322.000000;0.201282
9321.000000;0.202251
9320.000000;0.203082
9319.000000;0.203926
9318.000000;0.204866
9317.000000;0.205905
9316.000000;0.207026
9315.000000;0.208227
9314.000000;0.209498
9313.000000;0.210824
9312.000000;0.212173
9311.000000;0.213482
9310.000000;0.214688
9309.000000;0.215826
9308.000000;0.217005
9307.000000;0.218266
9306.000000;0.219496
9305.000000;0.220582
9304.000000;0.221573
9303.000000;0.222622
9302.000000;0.223783
9301.000000;0.224983
9300.000000;0.226180
9299.000000;0.227413
9298.000000;0.228673
9297.000000;0.229835
9296.000000;0.230802
9295.000000;0.231670
9294.000000;0.232635
9293.000000;0.233758
9292.000000;0.234897
9291.000000;0.235907
9290.000000;0.236849
9289.000000;0.237918
9288.000000;0.239170
9287.000000;0.240400
9286.000000;0.241385
9285.000000;0.242198
9284.000000;0.243157
9283.000000;0.244416
9282.000000;0.245729
9281.000000;0.246730
9280.000000;0.247375
9279.000000;0.247987
9278.000000;0.248838
9277.000000;0.249849
9276.000000;0.250762
9275.000000;0.251522
9274.000000;0.252359
9273.000000;0.253514
9272.000000;0.254982
9271.000000;0.256562
9270.000000;0.258075
9269.000000;0.259472
9268.000000;0.260730
9267.000000;0.261746
9266.000000;0.262410
9265.000000;0.262750
9264.000000;0.262980
9263.000000;0.263368
9262.000000;0.264089
9261.000000;0.265172
9260.000000;0.266500
9259.000000;0.267825
9258.000000;0.268886
9257.000000;0.269611
9256.000000;0.270211
9255.000000;0.270992
9254.000000;0.272051
9253.000000;0.273198
9252.000000;0.274217
9251.000000;0.275114
9250.000000;0.276057
9249.000000;0.277104
9248.000000;0.278089
9247.000000;0.278828
9246.000000;0.279386
9245.000000;0.280058
9244.000000;0.281076
9243.000000;0.282363
9242.000000;0.283630
9241.000000;0.284661
9240.000000;0.285476
9239.000000;0.286229
9238.000000;0.287014
9237.000000;0.287810
9236.000000;0.288541
9235.000000;0.289152
9234.000000;0.289628
9233.000000;0.290006
9232.000000;0.290396
9231.000000;0.290992
9230.000000;0.291988
9229.000000;0.293422
9228.000000;0.295068
9227.000000;0.296545
9226.000000;0.297604
9225.000000;0.298311
9224.000000;0.298922
9223.000000;0.299594
9222.000000;0.300277
9221.000000;0.300894
9220.000000;0.301489
9219.000000;0.302169
9218.000000;0.302928
9217.000000;0.303635
9216.000000;0.304175
9215.000000;0.304586
9214.000000;0.305047
9213.000000;0.305755
9212.000000;0.306759
9211.000000;0.307899
9210.000000;0.308905
9209.000000;0.309606
9208.000000;0.310056
9207.000000;0.310470
9206.000000;0.311050
9205.000000;0.311870
9204.000000;0.312863
9203.000000;0.313893
9202.000000;0.314849
9201.000000;0.315710
9200.000000;0.316498
9199.000000;0.317197
9198.000000;0.317759
9197.000000;0.318175
9196.000000;0.318509
9195.000000;0.318839
9194.000000;0.319233
9193.000000;0.319800
9192.000000;0.320645
9191.000000;0.321739
9190.000000;0.322863
9189.000000;0.323769
9188.000000;0.324385
9187.000000;0.324834
9186.000000;0.325320
9185.000000;0.326006
9184.000000;0.326938
9183.000000;0.327993
9182.000000;0.328926
9181.000000;0.329557
9180.000000;0.329928
9179.000000;0.330233
9178.000000;0.330611
9177.000000;0.331052
9176.000000;0.331487
9175.000000;0.331912
9174.000000;0.332417
9173.000000;0.333118
9172.000000;0.334059
9171.000000;0.335146
9170.000000;0.336176
9169.000000;0.336973
9168.000000;0.337492
9167.000000;0.337826
9166.000000;0.338121
9165.000000;0.338496
9164.000000;0.338982
9163.000000;0.339504
9162.000000;0.339974
9161.000000;0.340428
9160.000000;0.341022
9159.000000;0.341848
9158.000000;0.342791
9157.000000;0.343631
9156.000000;0.344257
9155.000000;0.344716
9154.000000;0.345090
9153.000000;0.345424
9152.000000;0.345766
9151.000000;0.346199
9150.000000;0.346755
9149.000000;0.347346
9148.000000;0.347821
9147.000000;0.348130
9146.000000;0.348396
9145.000000;0.348813
9144.000000;0.349457
9143.000000;0.350227
9142.000000;0.350980
9141.000000;0.351675
9140.000000;0.352343
9139.000000;0.352963
9138.000000;0.353461
9137.000000;0.353833
9136.000000;0.354150
9135.000000;0.354452
9134.000000;0.354739
9133.000000;0.355097
9132.000000;0.355680
9131.000000;0.356496
9130.000000;0.357321
9129.000000;0.357928
9128.000000;0.358330
9127.000000;0.358675
9126.000000;0.358996
9125.000000;0.359220
9124.000000;0.359378
9123.000000;0.359633
9122.000000;0.360066
9121.000000;0.360581
9120.000000;0.361053
9119.000000;0.361475
9118.000000;0.361900
9117.000000;0.362325
9116.000000;0.362706
9115.000000;0.363037
9114.000000;0.363364
9113.000000;0.363723
9112.000000;0.364128
9111.000000;0.364593
9110.000000;0.365132
9109.000000;0.365701
9108.000000;0.366177
9107.000000;0.366448
9106.000000;0.366562
9105.000000;0.366727
9104.000000;0.367099
9103.000000;0.367598
9102.000000;0.368006
9101.000000;0.368259
9100.000000;0.368516
9099.000000;0.368922
9098.000000;0.369433
9097.000000;0.369932
9096.000000;0.370415
9095.000000;0.370946
9094.000000;0.371489
9093.000000;0.371940
9092.000000;0.372267
9091.000000;0.372545
9090.000000;0.372850
9089.000000;0.373219
9088.000000;0.373662
9087.000000;0.374125
9086.000000;0.374475
9085.000000;0.374641
9084.000000;0.374753
9083.000000;0.375029
9082.000000;0.375506
9081.000000;0.375999
9080.000000;0.376324
9079.000000;0.376472
9078.000000;0.376560
9077.000000;0.376724
9076.000000;0.377074
9075.000000;0.377666
9074.000000;0.378442
9073.000000;0.379228
9072.000000;0.379838
9071.000000;0.380161
9070.000000;0.380202
9069.000000;0.380119
9068.000000;0.380169
9067.000000;0.380510
9066.000000;0.381031
9065.000000;0.381468
9064.000000;0.381691
9063.000000;0.381805
9062.000000;0.381977
9061.000000;0.382284
9060.000000;0.382744
9059.000000;0.383339
9058.000000;0.383948
9057.000000;0.384361
9056.000000;0.384465
9055.000000;0.384369
9054.000000;0.384290
9053.000000;0.384334
