Criado como novo conjunto de dados;"0307_DANIEL.spp","4862.2 Secs"
cm-1;Abs
10000.000000;0.244655
9999.000000;0.243665
9998.000000;0.242639
9997.000000;0.241647
9996.000000;0.240723
9995.000000;0.239782
9994.000000;0.238726
9993.000000;0.237557
9992.000000;0.236398
9991.000000;0.235318
9990.000000;0.234257
9989.000000;0.233121
9988.000000;0.231907
9987.000000;0.230667
9986.000000;0.229424
9985.000000;0.228193
9984.000000;0.227023
9983.000000;0.225946
9982.000000;0.224915
9981.000000;0.223848
9980.000000;0.222724
9979.000000;0.221577
9978.000000;0.220423
9977.000000;0.219256
9976.000000;0.218095
9975.000000;0.216984
9974.000000;0.215917
9973.000000;0.214832
9972.000000;0.213684
9971.000000;0.212503
9970.000000;0.211355
9969.000000;0.210250
9968.000000;0.209130
9967.000000;0.207967
9966.000000;0.206837
9965.000000;0.205849
9964.000000;0.204980
9963.000000;0.204048
9962.000000;0.202907
9961.000000;0.201625
9960.000000;0.200389
9959.000000;0.199281
9958.000000;0.198221
9957.000000;0.197094
9956.000000;0.195858
9955.000000;0.194536
9954.000000;0.193204
9953.000000;0.191975
9952.000000;0.190909
9951.000000;0.189928
9950.000000;0.188898
9949.000000;0.187788
9948.000000;0.186660
9947.000000;0.185507
9946.000000;0.184243
9945.000000;0.182876
9944.000000;0.181558
9943.000000;0.180418
9942.000000;0.179419
9941.000000;0.178443
9940.000000;0.177410
9939.000000;0.176285
9938.000000;0.175081
9937.000000;0.173897
9936.000000;0.172850
9935.000000;0.171893
9934.000000;0.170814
9933.000000;0.169485
9932.000000;0.168022
9931.000000;0.166626
9930.000000;0.165341
9929.000000;0.164074
9928.000000;0.162778
9927.000000;0.161502
9926.000000;0.160295
9925.000000;0.159163
9924.000000;0.158085
9923.000000;0.157011
9922.000000;0.155868
9921.000000;0.154649
9920.000000;0.153431
9919.000000;0.152264
9918.000000;0.151088
9917.000000;0.149825
9916.000000;0.148511
9915.000000;0.147248
9914.000000;0.146062
9913.000000;0.144882
9912.000000;0.143651
9911.000000;0.142386
9910.000000;0.141116
9909.000000;0.139847
9908.000000;0.138569
9907.000000;0.137295
9906.000000;0.136056
9905.000000;0.134874
9904.000000;0.133719
9903.000000;0.132495
9902.000000;0.131129
9901.000000;0.129670
9900.000000;0.128273
9899.000000;0.127046
9898.000000;0.125965
9897.000000;0.124936
9896.000000;0.123867
9895.000000;0.122682
9894.000000;0.121331
9893.000000;0.119855
9892.000000;0.118383
9891.000000;0.117007
9890.000000;0.115713
9889.000000;0.114458
9888.000000;0.113238
9887.000000;0.112052
9886.000000;0.110840
9885.000000;0.109533
9884.000000;0.108132
9883.000000;0.106705
9882.000000;0.105331
9881.000000;0.104052
9880.000000;0.102845
9879.000000;0.101626
9878.000000;0.100324
9877.000000;0.098982
9876.000000;0.097705
9875.000000;0.096495
9874.000000;0.095231
9873.000000;0.093834
9872.000000;0.092376
9871.000000;0.090981
9870.000000;0.089689
9869.000000;0.088467
9868.000000;0.087263
9867.000000;0.086018
9866.000000;0.084672
9865.000000;0.083252
9864.000000;0.081881
9863.000000;0.080650
9862.000000;0.079500
9861.000000;0.078283
9860.000000;0.076904
9859.000000;0.075387
9858.000000;0.073846
9857.000000;0.072424
9856.000000;0.071191
9855.000000;0.070052
9854.000000;0.068818
9853.000000;0.067400
9852.000000;0.065875
9851.000000;0.064364
9850.000000;0.062925
9849.000000;0.061584
9848.000000;0.060371
9847.000000;0.059226
9846.000000;0.057982
9845.000000;0.056510
9844.000000;0.054853
9843.000000;0.053161
9842.000000;0.051564
9841.000000;0.050138
9840.000000;0.048893
9839.000000;0.047708
9838.000000;0.046395
9837.000000;0.044909
9836.000000;0.043425
9835.000000;0.042113
9834.000000;0.040904
9833.000000;0.039588
9832.000000;0.038095
9831.000000;0.036557
9830.000000;0.035104
9829.000000;0.033728
9828.000000;0.032357
9827.000000;0.030956
9826.000000;0.029531
9825.000000;0.028099
9824.000000;0.026684
9823.000000;0.025301
9822.000000;0.023931
9821.000000;0.022534
9820.000000;0.021090
9819.000000;0.019606
9818.000000;0.018100
9817.000000;0.016592
9816.000000;0.015106
9815.000000;0.013648
9814.000000;0.012201
9813.000000;0.010744
9812.000000;0.009257
9811.000000;0.007701
9810.000000;0.006045
9809.000000;0.004332
9808.000000;0.002681
9807.000000;0.001184
9806.000000;-0.000179
9805.000000;-0.001515
9804.000000;-0.002932
9803.000000;-0.004460
9802.000000;-0.006027
9801.000000;-0.007509
9800.000000;-0.008868
9799.000000;-0.010217
9798.000000;-0.011686
9797.000000;-0.013263
9796.000000;-0.014827
9795.000000;-0.016346
9794.000000;-0.017912
9793.000000;-0.019559
9792.000000;-0.021194
9791.000000;-0.022739
9790.000000;-0.024245
9789.000000;-0.025797
9788.000000;-0.027383
9787.000000;-0.028931
9786.000000;-0.030410
9785.000000;-0.031827
9784.000000;-0.033199
9783.000000;-0.034579
9782.000000;-0.036049
9781.000000;-0.037624
9780.000000;-0.039202
9779.000000;-0.040696
9778.000000;-0.042149
9777.000000;-0.043675
9776.000000;-0.045332
9775.000000;-0.047082
9774.000000;-0.048835
9773.000000;-0.050489
9772.000000;-0.051993
9771.000000;-0.053410
9770.000000;-0.054868
9769.000000;-0.056415
9768.000000;-0.057981
9767.000000;-0.059526
9766.000000;-0.061108
9765.000000;-0.062780
9764.000000;-0.064498
9763.000000;-0.066198
9762.000000;-0.067896
9761.000000;-0.069633
9760.000000;-0.071393
9759.000000;-0.073133
9758.000000;-0.074837
9757.000000;-0.076469
9756.000000;-0.077965
9755.000000;-0.079354
9754.000000;-0.080803
9753.000000;-0.082451
9752.000000;-0.084255
9751.000000;-0.086073
9750.000000;-0.087850
9749.000000;-0.089616
9748.000000;-0.091358
9747.000000;-0.093016
9746.000000;-0.094586
9745.000000;-0.096141
9744.000000;-0.097737
9743.000000;-0.099361
9742.000000;-0.100986
9741.000000;-0.102609
9740.000000;-0.104238
9739.000000;-0.105884
9738.000000;-0.107574
9737.000000;-0.109334
9736.000000;-0.111172
9735.000000;-0.113056
9734.000000;-0.114899
9733.000000;-0.116599
9732.000000;-0.118139
9731.000000;-0.119654
9730.000000;-0.121327
9729.000000;-0.123193
9728.000000;-0.125120
9727.000000;-0.126981
9726.000000;-0.128763
9725.000000;-0.130499
9724.000000;-0.132201
9723.000000;-0.133911
9722.000000;-0.135704
9721.000000;-0.137590
9720.000000;-0.139471
9719.000000;-0.141269
9718.000000;-0.143014
9717.000000;-0.144752
9716.000000;-0.146458
9715.000000;-0.148106
9714.000000;-0.149768
9713.000000;-0.151531
9712.000000;-0.153387
9711.000000;-0.155271
9710.000000;-0.157145
9709.000000;-0.159000
9708.000000;-0.160830
9707.000000;-0.162664
9706.000000;-0.164565
9705.000000;-0.166525
9704.000000;-0.168416
9703.000000;-0.170150
9702.000000;-0.171798
9701.000000;-0.173500
9700.000000;-0.175298
9699.000000;-0.177145
9698.000000;-0.179002
9697.000000;-0.180841
9696.000000;-0.182612
9695.000000;-0.184316
9694.000000;-0.186072
9693.000000;-0.188000
9692.000000;-0.190077
9691.000000;-0.192183
9690.000000;-0.194261
9689.000000;-0.196312
9688.000000;-0.198295
9687.000000;-0.200151
9686.000000;-0.201932
9685.000000;-0.203765
9684.000000;-0.205686
9683.000000;-0.207593
9682.000000;-0.209408
9681.000000;-0.211194
9680.000000;-0.213056
9679.000000;-0.215000
9678.000000;-0.216928
9677.000000;-0.218760
9676.000000;-0.220526
9675.000000;-0.222333
9674.000000;-0.224282
9673.000000;-0.226381
9672.000000;-0.228552
9671.000000;-0.230713
9670.000000;-0.232820
9669.000000;-0.234847
9668.000000;-0.236777
9667.000000;-0.238650
9666.000000;-0.240549
9665.000000;-0.242519
9664.000000;-0.244519
9663.000000;-0.246499
9662.000000;-0.248486
9661.000000;-0.250539
9660.000000;-0.252669
9659.000000;-0.254828
9658.000000;-0.256953
9657.000000;-0.258968
9656.000000;-0.260807
9655.000000;-0.262523
9654.000000;-0.264320
9653.000000;-0.266374
9652.000000;-0.268630
9651.000000;-0.270851
9650.000000;-0.272892
9649.000000;-0.274825
9648.000000;-0.276804
9647.000000;-0.278873
9646.000000;-0.280971
9645.000000;-0.283048
9644.000000;-0.285114
9643.000000;-0.287196
9642.000000;-0.289302
9641.000000;-0.291437
9640.000000;-0.293610
9639.000000;-0.295808
9638.000000;-0.297975
9637.000000;-0.300064
9636.000000;-0.302090
9635.000000;-0.304124
9634.000000;-0.306214
9633.000000;-0.308359
9632.000000;-0.310551
9631.000000;-0.312793
9630.000000;-0.315033
9629.000000;-0.317156
9628.000000;-0.319118
9627.000000;-0.321066
9626.000000;-0.323214
9625.000000;-0.325575
9624.000000;-0.327913
9623.000000;-0.330008
9622.000000;-0.331896
9621.000000;-0.333792
9620.000000;-0.335840
9619.000000;-0.337999
9618.000000;-0.340163
9617.000000;-0.342307
9616.000000;-0.344477
9615.000000;-0.346678
9614.000000;-0.348828
9613.000000;-0.350860
9612.000000;-0.352844
9611.000000;-0.354949
9610.000000;-0.357254
9609.000000;-0.359654
9608.000000;-0.361995
9607.000000;-0.364246
9606.000000;-0.366472
9605.000000;-0.368690
9604.000000;-0.370862
9603.000000;-0.373009
9602.000000;-0.375225
9601.000000;-0.377542
9600.000000;-0.379862
9599.000000;-0.382071
9598.000000;-0.384172
9597.000000;-0.386259
9596.000000;-0.388417
9595.000000;-0.390662
9594.000000;-0.392956
9593.000000;-0.395242
9592.000000;-0.397493
9591.000000;-0.399746
9590.000000;-0.402032
9589.000000;-0.404310
9588.000000;-0.406507
9587.000000;-0.408629
9586.000000;-0.410787
9585.000000;-0.413073
9584.000000;-0.415461
9583.000000;-0.417834
9582.000000;-0.420094
9581.000000;-0.422242
9580.000000;-0.424382
9579.000000;-0.426611
9578.000000;-0.428909
9577.000000;-0.431164
9576.000000;-0.433338
9575.000000;-0.435519
9574.000000;-0.437788
9573.000000;-0.440100
9572.000000;-0.442385
9571.000000;-0.444672
9570.000000;-0.447004
9569.000000;-0.449306
9568.000000;-0.451491
9567.000000;-0.453634
9566.000000;-0.455865
9565.000000;-0.458116
9564.000000;-0.460181
9563.000000;-0.462038
9562.000000;-0.463936
9561.000000;-0.466105
9560.000000;-0.468533
9559.000000;-0.471059
9558.000000;-0.473543
9557.000000;-0.475887
9556.000000;-0.478038
9555.000000;-0.480083
9554.000000;-0.482209
9553.000000;-0.484497
9552.000000;-0.486824
9551.000000;-0.489046
9550.000000;-0.491176
9549.000000;-0.493316
9548.000000;-0.495507
9547.000000;-0.497733
9546.000000;-0.499973
9545.000000;-0.502181
9544.000000;-0.504282
9543.000000;-0.506270
9542.000000;-0.508245
9541.000000;-0.510297
9540.000000;-0.512416
9539.000000;-0.514561
9538.000000;-0.516742
9537.000000;-0.518974
9536.000000;-0.521224
9535.000000;-0.523459
9534.000000;-0.525680
9533.000000;-0.527846
9532.000000;-0.529876
9531.000000;-0.531774
9530.000000;-0.533672
9529.000000;-0.535666
9528.000000;-0.537683
9527.000000;-0.539592
9526.000000;-0.541387
9525.000000;-0.543156
9524.000000;-0.544963
9523.000000;-0.546836
9522.000000;-0.548812
9521.000000;-0.550877
9520.000000;-0.552912
9519.000000;-0.554818
9518.000000;-0.556664
9517.000000;-0.558599
9516.000000;-0.560628
9515.000000;-0.562577
9514.000000;-0.564308
9513.000000;-0.565880
9512.000000;-0.567454
9511.000000;-0.569112
9510.000000;-0.570815
9509.000000;-0.572508
9508.000000;-0.574203
9507.000000;-0.575935
9506.000000;-0.577682
9505.000000;-0.579372
9504.000000;-0.580996
9503.000000;-0.582637
9502.000000;-0.584347
9501.000000;-0.586043
9500.000000;-0.587612
9499.000000;-0.589091
9498.000000;-0.590636
9497.000000;-0.592304
9496.000000;-0.593964
9495.000000;-0.595466
9494.000000;-0.596830
9493.000000;-0.598199
9492.000000;-0.599670
9491.000000;-0.601188
9490.000000;-0.602601
9489.000000;-0.603776
9488.000000;-0.604706
9487.000000;-0.605539
9486.000000;-0.606465
9485.000000;-0.607575
9484.000000;-0.608826
9483.000000;-0.610132
9482.000000;-0.611421
9481.000000;-0.612621
9480.000000;-0.613661
9479.000000;-0.614528
9478.000000;-0.615286
9477.000000;-0.616037
9476.000000;-0.616881
9475.000000;-0.617889
9474.000000;-0.619038
9473.000000;-0.620176
9472.000000;-0.621138
9471.000000;-0.621899
9470.000000;-0.622578
9469.000000;-0.623319
9468.000000;-0.624207
9467.000000;-0.625258
9466.000000;-0.626374
9465.000000;-0.627319
9464.000000;-0.627898
9463.000000;-0.628184
9462.000000;-0.628473
9461.000000;-0.628984
9460.000000;-0.629667
9459.000000;-0.630332
9458.000000;-0.630876
9457.000000;-0.631331
9456.000000;-0.631789
9455.000000;-0.632310
9454.000000;-0.632838
9453.000000;-0.633200
9452.000000;-0.633244
9451.000000;-0.633038
9450.000000;-0.632838
9449.000000;-0.632838
9448.000000;-0.633020
9447.000000;-0.633257
9446.000000;-0.633463
9445.000000;-0.633610
9444.000000;-0.633684
9443.000000;-0.633707
9442.000000;-0.633734
9441.000000;-0.633775
9440.000000;-0.633767
9439.000000;-0.633672
9438.000000;-0.633528
9437.000000;-0.633382
9436.000000;-0.633214
9435.000000;-0.632982
9434.000000;-0.632686
9433.000000;-0.632355
9432.000000;-0.632026
9431.000000;-0.631747
9430.000000;-0.631536
9429.000000;-0.631320
9428.000000;-0.630981
9427.000000;-0.630494
9426.000000;-0.629954
9425.000000;-0.629437
9424.000000;-0.628908
9423.000000;-0.628320
9422.000000;-0.627719
9421.000000;-0.627169
9420.000000;-0.626642
9419.000000;-0.626060
9418.000000;-0.625407
9417.000000;-0.624755
9416.000000;-0.624172
9415.000000;-0.623657
9414.000000;-0.623152
9413.000000;-0.622605
9412.000000;-0.622004
9411.000000;-0.621372
9410.000000;-0.620698
9409.000000;-0.619927
9408.000000;-0.619038
9407.000000;-0.618118
9406.000000;-0.617256
9405.000000;-0.616424
9404.000000;-0.615526
9403.000000;-0.614552
9402.000000;-0.613575
9401.000000;-0.612598
9400.000000;-0.611551
9399.000000;-0.610453
9398.000000;-0.609450
9397.000000;-0.608626
9396.000000;-0.607876
9395.000000;-0.607042
9394.000000;-0.606088
9393.000000;-0.605082
9392.000000;-0.604084
9391.000000;-0.603127
9390.000000;-0.602236
9389.000000;-0.601396
9388.000000;-0.600517
9387.000000;-0.599499
9386.000000;-0.598303
9385.000000;-0.596955
9384.000000;-0.595522
9383.000000;-0.594119
9382.000000;-0.592868
9381.000000;-0.591796
9380.000000;-0.590817
9379.000000;-0.589850
9378.000000;-0.588877
9377.000000;-0.587861
9376.000000;-0.586718
9375.000000;-0.585426
9374.000000;-0.584112
9373.000000;-0.582913
9372.000000;-0.581812
9371.000000;-0.580664
9370.000000;-0.579386
9369.000000;-0.578034
9368.000000;-0.576727
9367.000000;-0.575532
9366.000000;-0.574422
9365.000000;-0.573299
9364.000000;-0.572082
9363.000000;-0.570781
9362.000000;-0.569479
9361.000000;-0.568218
9360.000000;-0.566962
9359.000000;-0.565674
9358.000000;-0.564377
9357.000000;-0.563117
9356.000000;-0.561909
9355.000000;-0.560731
9354.000000;-0.559530
9353.000000;-0.558232
9352.000000;-0.556807
9351.000000;-0.555364
9350.000000;-0.554088
9349.000000;-0.553062
9348.000000;-0.552166
9347.000000;-0.551195
9346.000000;-0.550014
9345.000000;-0.548612
9344.000000;-0.547081
9343.000000;-0.545588
9342.000000;-0.544266
9341.000000;-0.543088
9340.000000;-0.541914
9339.000000;-0.540666
9338.000000;-0.539407
9337.000000;-0.538205
9336.000000;-0.537034
9335.000000;-0.535830
9334.000000;-0.534560
9333.000000;-0.533192
9332.000000;-0.531701
9331.000000;-0.530163
9330.000000;-0.528766
9329.000000;-0.527620
9328.000000;-0.526637
9327.000000;-0.525656
9326.000000;-0.524605
9325.000000;-0.523478
9324.000000;-0.522239
9323.000000;-0.520872
9322.000000;-0.519467
9321.000000;-0.518135
9320.000000;-0.516875
9319.000000;-0.515623
9318.000000;-0.514383
9317.000000;-0.513214
9316.000000;-0.512116
9315.000000;-0.511022
9314.000000;-0.509894
9313.000000;-0.508735
9312.000000;-0.507535
9311.000000;-0.506277
9310.000000;-0.504995
9309.000000;-0.503723
9308.000000;-0.502432
9307.000000;-0.501072
9306.000000;-0.499677
9305.000000;-0.498339
9304.000000;-0.497078
9303.000000;-0.495828
9302.000000;-0.494571
9301.000000;-0.493376
9300.000000;-0.492303
9299.000000;-0.491305
9298.000000;-0.490269
9297.000000;-0.489113
9296.000000;-0.487840
9295.000000;-0.486541
9294.000000;-0.485343
9293.000000;-0.484309
9292.000000;-0.483376
9291.000000;-0.482411
9290.000000;-0.481334
9289.000000;-0.480148
9288.000000;-0.478887
9287.000000;-0.477596
9286.000000;-0.476349
9285.000000;-0.475198
9284.000000;-0.474102
9283.000000;-0.472963
9282.000000;-0.471756
9281.000000;-0.470560
9280.000000;-0.469447
9279.000000;-0.468388
9278.000000;-0.467312
9277.000000;-0.466204
9276.000000;-0.465100
9275.000000;-0.464004
9274.000000;-0.462870
9273.000000;-0.461670
9272.000000;-0.460439
9271.000000;-0.459250
9270.000000;-0.458149
9269.000000;-0.457146
9268.000000;-0.456223
9267.000000;-0.455341
9266.000000;-0.454442
9265.000000;-0.453484
9264.000000;-0.452485
9263.000000;-0.451497
9262.000000;-0.450523
9261.000000;-0.449495
9260.000000;-0.448374
9259.000000;-0.447222
9258.000000;-0.446134
9257.000000;-0.445111
9256.000000;-0.444065
9255.000000;-0.442962
9254.000000;-0.441886
9253.000000;-0.440932
9252.000000;-0.440083
9251.000000;-0.439223
9250.000000;-0.438261
9249.000000;-0.437209
9248.000000;-0.436154
9247.000000;-0.435174
9246.000000;-0.434281
9245.000000;-0.433423
9244.000000;-0.432549
9243.000000;-0.431641
9242.000000;-0.430690
9241.000000;-0.429672
9240.000000;-0.428583
9239.000000;-0.427462
9238.000000;-0.426347
9237.000000;-0.425239
9236.000000;-0.424154
9235.000000;-0.423171
9234.000000;-0.422348
9233.000000;-0.421634
9232.000000;-0.420904
9231.000000;-0.420099
9230.000000;-0.419240
9229.000000;-0.418333
9228.000000;-0.417358
9227.000000;-0.416367
9226.000000;-0.415486
9225.000000;-0.414769
9224.000000;-0.414104
9223.000000;-0.413328
9222.000000;-0.412379
9221.000000;-0.411316
9220.000000;-0.410239
9219.000000;-0.409240
9218.000000;-0.408372
9217.000000;-0.407621
9216.000000;-0.406914
9215.000000;-0.406185
9214.000000;-0.405411
9213.000000;-0.404594
9212.000000;-0.403737
9211.000000;-0.402856
9210.000000;-0.401974
9209.000000;-0.401075
9208.000000;-0.400130
9207.000000;-0.399162
9206.000000;-0.398244
9205.000000;-0.397428
9204.000000;-0.396693
9203.000000;-0.395998
9202.000000;-0.395316
9201.000000;-0.394612
9200.000000;-0.393850
9199.000000;-0.393029
9198.000000;-0.392187
9197.000000;-0.391354
9196.000000;-0.390540
9195.000000;-0.389760
9194.000000;-0.389016
9193.000000;-0.388268
9192.000000;-0.387477
9191.000000;-0.386678
9190.000000;-0.385946
9189.000000;-0.385274
9188.000000;-0.384586
9187.000000;-0.383849
9186.000000;-0.383100
9185.000000;-0.382340
9184.000000;-0.381523
9183.000000;-0.380672
9182.000000;-0.379901
9181.000000;-0.379256
9180.000000;-0.378625
9179.000000;-0.377891
9178.000000;-0.377094
9177.000000;-0.376370
9176.000000;-0.375759
9175.000000;-0.375175
9174.000000;-0.374526
9173.000000;-0.373799
9172.000000;-0.373034
9171.000000;-0.372268
9170.000000;-0.371517
9169.000000;-0.370779
9168.000000;-0.370064
9167.000000;-0.369400
9166.000000;-0.368785
9165.000000;-0.368152
9164.000000;-0.367439
9163.000000;-0.366682
9162.000000;-0.365985
9161.000000;-0.365370
9160.000000;-0.364754
9159.000000;-0.364081
9158.000000;-0.363395
9157.000000;-0.362767
9156.000000;-0.362195
9155.000000;-0.361653
9154.000000;-0.361147
9153.000000;-0.360672
9152.000000;-0.360170
9151.000000;-0.359579
9150.000000;-0.358908
9149.000000;-0.358211
9148.000000;-0.357521
9147.000000;-0.356847
9146.000000;-0.356194
9145.000000;-0.355555
9144.000000;-0.354902
9143.000000;-0.354227
9142.000000;-0.353553
9141.000000;-0.352893
9140.000000;-0.352240
9139.000000;-0.351611
9138.000000;-0.351051
9137.000000;-0.350564
9136.000000;-0.350097
9135.000000;-0.349602
9134.000000;-0.349092
9133.000000;-0.348598
9132.000000;-0.348117
9131.000000;-0.347628
9130.000000;-0.347109
9129.000000;-0.346535
9128.000000;-0.345905
9127.000000;-0.345277
9126.000000;-0.344720
9125.000000;-0.344237
9124.000000;-0.343774
9123.000000;-0.343305
9122.000000;-0.342826
9121.000000;-0.342298
9120.000000;-0.341677
9119.000000;-0.341030
9118.000000;-0.340493
9117.000000;-0.340082
9116.000000;-0.339653
9115.000000;-0.339102
9114.000000;-0.338494
9113.000000;-0.337934
9112.000000;-0.337424
9111.000000;-0.336912
9110.000000;-0.336410
9109.000000;-0.335961
9108.000000;-0.335541
9107.000000;-0.335073
9106.000000;-0.334522
9105.000000;-0.333906
9104.000000;-0.333276
9103.000000;-0.332715
9102.000000;-0.332302
9101.000000;-0.332017
9100.000000;-0.331722
9099.000000;-0.331296
9098.000000;-0.330759
9097.000000;-0.330208
9096.000000;-0.329704
9095.000000;-0.329258
9094.000000;-0.328872
9093.000000;-0.328520
9092.000000;-0.328143
9091.000000;-0.327719
9090.000000;-0.327293
9089.000000;-0.326890
9088.000000;-0.326455
9087.000000;-0.325954
