Criado como novo conjunto de dados;"0307_DANIEL.spp","52744.6 Secs"
cm-1;Abs
10000.000000;0.444758
9999.000000;0.443567
9998.000000;0.442381
9997.000000;0.441195
9996.000000;0.440038
9995.000000;0.438933
9994.000000;0.437817
9993.000000;0.436677
9992.000000;0.435580
9991.000000;0.434547
9990.000000;0.433453
9989.000000;0.432178
9988.000000;0.430823
9987.000000;0.429634
9986.000000;0.428704
9985.000000;0.427880
9984.000000;0.426987
9983.000000;0.425998
9982.000000;0.424962
9981.000000;0.423883
9980.000000;0.422760
9979.000000;0.421616
9978.000000;0.420438
9977.000000;0.419161
9976.000000;0.417785
9975.000000;0.416407
9974.000000;0.415100
9973.000000;0.413826
9972.000000;0.412555
9971.000000;0.411359
9970.000000;0.410321
9969.000000;0.409390
9968.000000;0.408432
9967.000000;0.407378
9966.000000;0.406241
9965.000000;0.405062
9964.000000;0.403888
9963.000000;0.402765
9962.000000;0.401676
9961.000000;0.400538
9960.000000;0.399326
9959.000000;0.398148
9958.000000;0.397119
9957.000000;0.396195
9956.000000;0.395224
9955.000000;0.394126
9954.000000;0.392935
9953.000000;0.391704
9952.000000;0.390436
9951.000000;0.389138
9950.000000;0.387857
9949.000000;0.386645
9948.000000;0.385502
9947.000000;0.384362
9946.000000;0.383145
9945.000000;0.381843
9944.000000;0.380569
9943.000000;0.379454
9942.000000;0.378485
9941.000000;0.377502
9940.000000;0.376380
9939.000000;0.375145
9938.000000;0.373868
9937.000000;0.372542
9936.000000;0.371152
9935.000000;0.369789
9934.000000;0.368553
9933.000000;0.367401
9932.000000;0.366183
9931.000000;0.364838
9930.000000;0.363444
9929.000000;0.362093
9928.000000;0.360821
9927.000000;0.359662
9926.000000;0.358649
9925.000000;0.357718
9924.000000;0.356699
9923.000000;0.355470
9922.000000;0.354076
9921.000000;0.352686
9920.000000;0.351440
9919.000000;0.350351
9918.000000;0.349320
9917.000000;0.348213
9916.000000;0.346964
9915.000000;0.345608
9914.000000;0.344200
9913.000000;0.342738
9912.000000;0.341211
9911.000000;0.339714
9910.000000;0.338412
9909.000000;0.337375
9908.000000;0.336482
9907.000000;0.335510
9906.000000;0.334316
9905.000000;0.332924
9904.000000;0.331492
9903.000000;0.330182
9902.000000;0.329020
9901.000000;0.327867
9900.000000;0.326573
9899.000000;0.325162
9898.000000;0.323811
9897.000000;0.322638
9896.000000;0.321563
9895.000000;0.320400
9894.000000;0.319056
9893.000000;0.317584
9892.000000;0.316089
9891.000000;0.314634
9890.000000;0.313248
9889.000000;0.311964
9888.000000;0.310821
9887.000000;0.309813
9886.000000;0.308840
9885.000000;0.307748
9884.000000;0.306463
9883.000000;0.305065
9882.000000;0.303709
9881.000000;0.302454
9880.000000;0.301214
9879.000000;0.299880
9878.000000;0.298438
9877.000000;0.296961
9876.000000;0.295525
9875.000000;0.294174
9874.000000;0.292916
9873.000000;0.291708
9872.000000;0.290452
9871.000000;0.289067
9870.000000;0.287587
9869.000000;0.286148
9868.000000;0.284852
9867.000000;0.283666
9866.000000;0.282450
9865.000000;0.281092
9864.000000;0.279598
9863.000000;0.278063
9862.000000;0.276576
9861.000000;0.275160
9860.000000;0.273787
9859.000000;0.272426
9858.000000;0.271071
9857.000000;0.269736
9856.000000;0.268451
9855.000000;0.267244
9854.000000;0.266087
9853.000000;0.264878
9852.000000;0.263505
9851.000000;0.261966
9850.000000;0.260383
9849.000000;0.258889
9848.000000;0.257498
9847.000000;0.256138
9846.000000;0.254767
9845.000000;0.253421
9844.000000;0.252126
9843.000000;0.250828
9842.000000;0.249456
9841.000000;0.248022
9840.000000;0.246605
9839.000000;0.245243
9838.000000;0.243886
9837.000000;0.242494
9836.000000;0.241101
9835.000000;0.239738
9834.000000;0.238346
9833.000000;0.236845
9832.000000;0.235272
9831.000000;0.233760
9830.000000;0.232362
9829.000000;0.230964
9828.000000;0.229440
9827.000000;0.227823
9826.000000;0.226254
9825.000000;0.224789
9824.000000;0.223341
9823.000000;0.221806
9822.000000;0.220198
9821.000000;0.218612
9820.000000;0.217114
9819.000000;0.215704
9818.000000;0.214350
9817.000000;0.213025
9816.000000;0.211693
9815.000000;0.210320
9814.000000;0.208887
9813.000000;0.207388
9812.000000;0.205804
9811.000000;0.204117
9810.000000;0.202367
9809.000000;0.200678
9808.000000;0.199177
9807.000000;0.197874
9806.000000;0.196655
9805.000000;0.195381
9804.000000;0.193979
9803.000000;0.192443
9802.000000;0.190792
9801.000000;0.189076
9800.000000;0.187402
9799.000000;0.185889
9798.000000;0.184578
9797.000000;0.183364
9796.000000;0.182054
9795.000000;0.180489
9794.000000;0.178667
9793.000000;0.176765
9792.000000;0.175030
9791.000000;0.173581
9790.000000;0.172300
9789.000000;0.170963
9788.000000;0.169462
9787.000000;0.167887
9786.000000;0.166370
9785.000000;0.164910
9784.000000;0.163401
9783.000000;0.161781
9782.000000;0.160106
9781.000000;0.158465
9780.000000;0.156861
9779.000000;0.155206
9778.000000;0.153439
9777.000000;0.151614
9776.000000;0.149872
9775.000000;0.148303
9774.000000;0.146861
9773.000000;0.145424
9772.000000;0.143929
9771.000000;0.142413
9770.000000;0.140924
9769.000000;0.139453
9768.000000;0.137961
9767.000000;0.136440
9766.000000;0.134894
9765.000000;0.133308
9764.000000;0.131658
9763.000000;0.129953
9762.000000;0.128228
9761.000000;0.126497
9760.000000;0.124743
9759.000000;0.122942
9758.000000;0.121099
9757.000000;0.119261
9756.000000;0.117508
9755.000000;0.115906
9754.000000;0.114417
9753.000000;0.112888
9752.000000;0.111164
9751.000000;0.109249
9750.000000;0.107311
9749.000000;0.105519
9748.000000;0.103901
9747.000000;0.102351
9746.000000;0.100757
9745.000000;0.099089
9744.000000;0.097384
9743.000000;0.095680
9742.000000;0.093985
9741.000000;0.092289
9740.000000;0.090601
9739.000000;0.088936
9738.000000;0.087300
9737.000000;0.085680
9736.000000;0.084068
9735.000000;0.082469
9734.000000;0.080870
9733.000000;0.079214
9732.000000;0.077434
9731.000000;0.075533
9730.000000;0.073618
9729.000000;0.071828
9728.000000;0.070204
9727.000000;0.068630
9726.000000;0.066933
9725.000000;0.065048
9724.000000;0.063084
9723.000000;0.061205
9722.000000;0.059467
9721.000000;0.057787
9720.000000;0.056066
9719.000000;0.054300
9718.000000;0.052556
9717.000000;0.050872
9716.000000;0.049201
9715.000000;0.047470
9714.000000;0.045661
9713.000000;0.043819
9712.000000;0.041994
9711.000000;0.040183
9710.000000;0.038360
9709.000000;0.036532
9708.000000;0.034745
9707.000000;0.033000
9706.000000;0.031208
9705.000000;0.029269
9704.000000;0.027190
9703.000000;0.025088
9702.000000;0.023085
9701.000000;0.021221
9700.000000;0.019466
9699.000000;0.017779
9698.000000;0.016110
9697.000000;0.014392
9696.000000;0.012571
9695.000000;0.010645
9694.000000;0.008670
9693.000000;0.006705
9692.000000;0.004780
9691.000000;0.002881
9690.000000;0.000965
9689.000000;-0.001010
9688.000000;-0.003055
9687.000000;-0.005134
9686.000000;-0.007206
9685.000000;-0.009255
9684.000000;-0.011287
9683.000000;-0.013285
9682.000000;-0.015187
9681.000000;-0.016921
9680.000000;-0.018487
9679.000000;-0.019995
9678.000000;-0.021622
9677.000000;-0.023482
9676.000000;-0.025552
9675.000000;-0.027719
9674.000000;-0.029881
9673.000000;-0.031996
9672.000000;-0.034045
9671.000000;-0.035998
9670.000000;-0.037848
9669.000000;-0.039658
9668.000000;-0.041546
9667.000000;-0.043604
9666.000000;-0.045815
9665.000000;-0.048060
9664.000000;-0.050219
9663.000000;-0.052275
9662.000000;-0.054300
9661.000000;-0.056342
9660.000000;-0.058362
9659.000000;-0.060319
9658.000000;-0.062247
9657.000000;-0.064204
9656.000000;-0.066190
9655.000000;-0.068179
9654.000000;-0.070208
9653.000000;-0.072336
9652.000000;-0.074518
9651.000000;-0.076628
9650.000000;-0.078627
9649.000000;-0.080618
9648.000000;-0.082686
9647.000000;-0.084784
9646.000000;-0.086833
9645.000000;-0.088842
9644.000000;-0.090860
9643.000000;-0.092861
9642.000000;-0.094803
9641.000000;-0.096732
9640.000000;-0.098741
9639.000000;-0.100837
9638.000000;-0.102966
9637.000000;-0.105149
9636.000000;-0.107495
9635.000000;-0.110030
9634.000000;-0.112608
9633.000000;-0.115026
9632.000000;-0.117206
9631.000000;-0.119212
9630.000000;-0.121158
9629.000000;-0.123123
9628.000000;-0.125121
9627.000000;-0.127122
9626.000000;-0.129102
9625.000000;-0.131082
9624.000000;-0.133105
9623.000000;-0.135180
9622.000000;-0.137300
9621.000000;-0.139479
9620.000000;-0.141727
9619.000000;-0.143989
9618.000000;-0.146171
9617.000000;-0.148272
9616.000000;-0.150404
9615.000000;-0.152633
9614.000000;-0.154872
9613.000000;-0.157002
9612.000000;-0.159067
9611.000000;-0.161251
9610.000000;-0.163658
9609.000000;-0.166172
9608.000000;-0.168559
9607.000000;-0.170683
9606.000000;-0.172616
9605.000000;-0.174564
9604.000000;-0.176710
9603.000000;-0.179103
9602.000000;-0.181648
9601.000000;-0.184192
9600.000000;-0.186604
9599.000000;-0.188849
9598.000000;-0.191008
9597.000000;-0.193217
9596.000000;-0.195523
9595.000000;-0.197806
9594.000000;-0.199902
9593.000000;-0.201820
9592.000000;-0.203762
9591.000000;-0.205902
9590.000000;-0.208209
9589.000000;-0.210543
9588.000000;-0.212840
9587.000000;-0.215119
9586.000000;-0.217383
9585.000000;-0.219622
9584.000000;-0.221901
9583.000000;-0.224309
9582.000000;-0.226812
9581.000000;-0.229259
9580.000000;-0.231550
9579.000000;-0.233721
9578.000000;-0.235845
9577.000000;-0.237959
9576.000000;-0.240120
9575.000000;-0.242426
9574.000000;-0.244892
9573.000000;-0.247373
9572.000000;-0.249698
9571.000000;-0.251850
9570.000000;-0.253935
9569.000000;-0.256040
9568.000000;-0.258174
9567.000000;-0.260332
9566.000000;-0.262510
9565.000000;-0.264676
9564.000000;-0.266814
9563.000000;-0.268968
9562.000000;-0.271210
9561.000000;-0.273548
9560.000000;-0.275926
9559.000000;-0.278296
9558.000000;-0.280628
9557.000000;-0.282872
9556.000000;-0.284991
9555.000000;-0.287031
9554.000000;-0.289096
9553.000000;-0.291247
9552.000000;-0.293494
9551.000000;-0.295850
9550.000000;-0.298311
9549.000000;-0.300768
9548.000000;-0.303063
9547.000000;-0.305173
9546.000000;-0.307233
9545.000000;-0.309334
9544.000000;-0.311400
9543.000000;-0.313329
9542.000000;-0.315181
9541.000000;-0.317128
9540.000000;-0.319270
9539.000000;-0.321568
9538.000000;-0.323932
9537.000000;-0.326291
9536.000000;-0.328585
9535.000000;-0.330763
9534.000000;-0.332812
9533.000000;-0.334763
9532.000000;-0.336703
9531.000000;-0.338756
9530.000000;-0.340989
9529.000000;-0.343276
9528.000000;-0.345350
9527.000000;-0.347077
9526.000000;-0.348644
9525.000000;-0.350385
9524.000000;-0.352440
9523.000000;-0.354657
9522.000000;-0.356794
9521.000000;-0.358731
9520.000000;-0.360501
9519.000000;-0.362224
9518.000000;-0.364034
9517.000000;-0.365966
9516.000000;-0.367906
9515.000000;-0.369713
9514.000000;-0.371402
9513.000000;-0.373120
9512.000000;-0.374932
9511.000000;-0.376742
9510.000000;-0.378469
9509.000000;-0.380199
9508.000000;-0.382058
9507.000000;-0.384011
9506.000000;-0.385878
9505.000000;-0.387545
9504.000000;-0.389091
9503.000000;-0.390688
9502.000000;-0.392410
9501.000000;-0.394174
9500.000000;-0.395853
9499.000000;-0.397443
9498.000000;-0.399075
9497.000000;-0.400817
9496.000000;-0.402513
9495.000000;-0.403918
9494.000000;-0.404994
9493.000000;-0.405968
9492.000000;-0.407080
9491.000000;-0.408366
9490.000000;-0.409745
9489.000000;-0.411163
9488.000000;-0.412568
9487.000000;-0.413840
9486.000000;-0.414916
9485.000000;-0.415937
9484.000000;-0.417121
9483.000000;-0.418501
9482.000000;-0.419888
9481.000000;-0.421105
9480.000000;-0.422123
9479.000000;-0.422974
9478.000000;-0.423667
9477.000000;-0.424265
9476.000000;-0.424940
9475.000000;-0.425854
9474.000000;-0.427022
9473.000000;-0.428323
9472.000000;-0.429604
9471.000000;-0.430748
9470.000000;-0.431712
9469.000000;-0.432562
9468.000000;-0.433424
9467.000000;-0.434350
9466.000000;-0.435241
9465.000000;-0.435944
9464.000000;-0.436413
9463.000000;-0.436747
9462.000000;-0.437103
9461.000000;-0.437586
9460.000000;-0.438188
9459.000000;-0.438812
9458.000000;-0.439360
9457.000000;-0.439820
9456.000000;-0.440246
9455.000000;-0.440668
9454.000000;-0.441057
9453.000000;-0.441374
9452.000000;-0.441608
9451.000000;-0.441766
9450.000000;-0.441867
9449.000000;-0.441973
9448.000000;-0.442139
9447.000000;-0.442313
9446.000000;-0.442355
9445.000000;-0.442204
9444.000000;-0.441986
9443.000000;-0.441897
9442.000000;-0.442018
9441.000000;-0.442258
9440.000000;-0.442444
9439.000000;-0.442431
9438.000000;-0.442186
9437.000000;-0.441815
9436.000000;-0.441472
9435.000000;-0.441222
9434.000000;-0.441013
9433.000000;-0.440804
9432.000000;-0.440629
9431.000000;-0.440518
9430.000000;-0.440418
9429.000000;-0.440270
9428.000000;-0.440063
9427.000000;-0.439772
9426.000000;-0.439309
9425.000000;-0.438642
9424.000000;-0.437899
9423.000000;-0.437248
9422.000000;-0.436714
9421.000000;-0.436204
9420.000000;-0.435671
9419.000000;-0.435139
9418.000000;-0.434607
9417.000000;-0.434057
9416.000000;-0.433536
9415.000000;-0.433100
9414.000000;-0.432670
9413.000000;-0.432081
9412.000000;-0.431309
9411.000000;-0.430527
9410.000000;-0.429874
9409.000000;-0.429290
9408.000000;-0.428641
9407.000000;-0.427891
9406.000000;-0.427069
9405.000000;-0.426156
9404.000000;-0.425135
9403.000000;-0.424097
9402.000000;-0.423154
9401.000000;-0.422275
9400.000000;-0.421306
9399.000000;-0.420185
9398.000000;-0.419044
9397.000000;-0.418048
9396.000000;-0.417204
9395.000000;-0.416374
9394.000000;-0.415449
9393.000000;-0.414455
9392.000000;-0.413482
9391.000000;-0.412569
9390.000000;-0.411691
9389.000000;-0.410824
9388.000000;-0.409968
9387.000000;-0.409099
9386.000000;-0.408125
9385.000000;-0.406955
9384.000000;-0.405604
9383.000000;-0.404215
9382.000000;-0.402958
9381.000000;-0.401898
9380.000000;-0.400961
9379.000000;-0.400005
9378.000000;-0.398941
9377.000000;-0.397791
9376.000000;-0.396629
9375.000000;-0.395476
9374.000000;-0.394270
9373.000000;-0.392969
9372.000000;-0.391619
9371.000000;-0.390291
9370.000000;-0.388985
9369.000000;-0.387654
9368.000000;-0.386310
9367.000000;-0.385032
9366.000000;-0.383863
9365.000000;-0.382752
9364.000000;-0.381633
9363.000000;-0.380499
9362.000000;-0.379367
9361.000000;-0.378227
9360.000000;-0.377062
9359.000000;-0.375896
9358.000000;-0.374766
9357.000000;-0.373658
9356.000000;-0.372511
9355.000000;-0.371271
9354.000000;-0.369931
9353.000000;-0.368522
9352.000000;-0.367116
9351.000000;-0.365819
9350.000000;-0.364705
9349.000000;-0.363730
9348.000000;-0.362742
9347.000000;-0.361599
9346.000000;-0.360267
9345.000000;-0.358821
9344.000000;-0.357372
9343.000000;-0.355998
9342.000000;-0.354714
9341.000000;-0.353475
9340.000000;-0.352214
9339.000000;-0.350896
9338.000000;-0.349551
9337.000000;-0.348261
9336.000000;-0.347097
9335.000000;-0.346048
9334.000000;-0.345013
9333.000000;-0.343867
9332.000000;-0.342562
9331.000000;-0.341174
9330.000000;-0.339844
9329.000000;-0.338661
9328.000000;-0.337582
9327.000000;-0.336483
9326.000000;-0.335257
9325.000000;-0.333887
9324.000000;-0.332445
9323.000000;-0.331042
9322.000000;-0.329771
9321.000000;-0.328651
9320.000000;-0.327603
9319.000000;-0.326502
9318.000000;-0.325274
9317.000000;-0.323963
9316.000000;-0.322676
9315.000000;-0.321472
9314.000000;-0.320316
9313.000000;-0.319136
9312.000000;-0.317915
9311.000000;-0.316694
9310.000000;-0.315496
9309.000000;-0.314284
9308.000000;-0.312998
9307.000000;-0.311644
9306.000000;-0.310308
9305.000000;-0.309071
9304.000000;-0.307937
9303.000000;-0.306836
9302.000000;-0.305715
9301.000000;-0.304585
9300.000000;-0.303495
9299.000000;-0.302452
9298.000000;-0.301397
9297.000000;-0.300246
9296.000000;-0.298970
9295.000000;-0.297625
9294.000000;-0.296322
9293.000000;-0.295136
9292.000000;-0.294056
9291.000000;-0.293012
9290.000000;-0.291944
9289.000000;-0.290838
9288.000000;-0.289711
9287.000000;-0.288595
9286.000000;-0.287530
9285.000000;-0.286521
9284.000000;-0.285490
9283.000000;-0.284338
9282.000000;-0.283064
9281.000000;-0.281800
9280.000000;-0.280673
9279.000000;-0.279665
9278.000000;-0.278663
9277.000000;-0.277609
9276.000000;-0.276540
9275.000000;-0.275488
9274.000000;-0.274424
9273.000000;-0.273295
9272.000000;-0.272077
9271.000000;-0.270780
9270.000000;-0.269461
9269.000000;-0.268241
9268.000000;-0.267244
9267.000000;-0.266465
9266.000000;-0.265751
9265.000000;-0.264934
9264.000000;-0.263962
9263.000000;-0.262881
9262.000000;-0.261754
9261.000000;-0.260643
9260.000000;-0.259609
9259.000000;-0.258678
9258.000000;-0.257802
9257.000000;-0.256910
9256.000000;-0.255990
9255.000000;-0.255079
9254.000000;-0.254186
9253.000000;-0.253267
9252.000000;-0.252278
9251.000000;-0.251213
9250.000000;-0.250100
9249.000000;-0.248984
9248.000000;-0.247913
9247.000000;-0.246903
9246.000000;-0.245923
9245.000000;-0.244934
9244.000000;-0.243954
9243.000000;-0.243035
9242.000000;-0.242191
9241.000000;-0.241377
9240.000000;-0.240557
9239.000000;-0.239724
9238.000000;-0.238856
9237.000000;-0.237891
9236.000000;-0.236801
9235.000000;-0.235664
9234.000000;-0.234614
9233.000000;-0.233721
9232.000000;-0.232938
9231.000000;-0.232158
9230.000000;-0.231297
9229.000000;-0.230340
9228.000000;-0.229331
9227.000000;-0.228347
9226.000000;-0.227443
9225.000000;-0.226617
9224.000000;-0.225823
9223.000000;-0.225018
9222.000000;-0.224185
9221.000000;-0.223310
9220.000000;-0.222376
9219.000000;-0.221416
9218.000000;-0.220520
9217.000000;-0.219776
9216.000000;-0.219161
9215.000000;-0.218551
9214.000000;-0.217837
9213.000000;-0.217021
9212.000000;-0.216180
9211.000000;-0.215357
9210.000000;-0.214525
9209.000000;-0.213639
9208.000000;-0.212698
9207.000000;-0.211747
9206.000000;-0.210850
9205.000000;-0.210052
9204.000000;-0.209354
9203.000000;-0.208696
9202.000000;-0.207989
9201.000000;-0.207177
9200.000000;-0.206263
9199.000000;-0.205293
9198.000000;-0.204331
9197.000000;-0.203455
9196.000000;-0.202711
9195.000000;-0.202057
9194.000000;-0.201391
9193.000000;-0.200676
9192.000000;-0.199991
9191.000000;-0.199419
9190.000000;-0.198897
9189.000000;-0.198276
9188.000000;-0.197511
9187.000000;-0.196710
9186.000000;-0.195976
9185.000000;-0.195259
9184.000000;-0.194443
9183.000000;-0.193531
9182.000000;-0.192659
9181.000000;-0.191925
9180.000000;-0.191274
9179.000000;-0.190581
9178.000000;-0.189805
9177.000000;-0.189024
9176.000000;-0.188339
9175.000000;-0.187769
9174.000000;-0.187242
9173.000000;-0.186650
9172.000000;-0.185921
9171.000000;-0.185065
9170.000000;-0.184172
9169.000000;-0.183355
9168.000000;-0.182672
9167.000000;-0.182086
9166.000000;-0.181522
9165.000000;-0.180932
9164.000000;-0.180329
9163.000000;-0.179734
9162.000000;-0.179131
9161.000000;-0.178492
9160.000000;-0.177820
9159.000000;-0.177147
9158.000000;-0.176488
9157.000000;-0.175837
9156.000000;-0.175204
9155.000000;-0.174628
9154.000000;-0.174119
9153.000000;-0.173631
9152.000000;-0.173107
9151.000000;-0.172544
9150.000000;-0.171965
9149.000000;-0.171358
9148.000000;-0.170668
9147.000000;-0.169898
9146.000000;-0.169147
9145.000000;-0.168520
9144.000000;-0.168008
9143.000000;-0.167495
9142.000000;-0.166888
9141.000000;-0.166215
9140.000000;-0.165576
9139.000000;-0.165020
9138.000000;-0.164504
9137.000000;-0.163960
9136.000000;-0.163375
9135.000000;-0.162798
9134.000000;-0.162277
9133.000000;-0.161819
9132.000000;-0.161411
9131.000000;-0.161040
9130.000000;-0.160674
9129.000000;-0.160240
9128.000000;-0.159652
9127.000000;-0.158896
9126.000000;-0.158082
9125.000000;-0.157375
9124.000000;-0.156874
9123.000000;-0.156535
9122.000000;-0.156221
9121.000000;-0.155826
9120.000000;-0.155352
9119.000000;-0.154864
9118.000000;-0.154395
9117.000000;-0.153911
9116.000000;-0.153371
9115.000000;-0.152803
9114.000000;-0.152269
9113.000000;-0.151781
9112.000000;-0.151290
9111.000000;-0.150764
9110.000000;-0.150248
9109.000000;-0.149792
9108.000000;-0.149374
9107.000000;-0.148928
9106.000000;-0.148435
9105.000000;-0.147942
9104.000000;-0.147478
9103.000000;-0.147014
9102.000000;-0.146524
9101.000000;-0.146038
9100.000000;-0.145606
9099.000000;-0.145212
9098.000000;-0.144785
9097.000000;-0.144283
9096.000000;-0.143752
9095.000000;-0.143274
9094.000000;-0.142880
9093.000000;-0.142514
9092.000000;-0.142088
9091.000000;-0.141569
9090.000000;-0.141018
9089.000000;-0.140538
9088.000000;-0.140189
9087.000000;-0.139952
9086.000000;-0.139750
9085.000000;-0.139491
9084.000000;-0.139093
9083.000000;-0.138519
9082.000000;-0.137832
