Criado como novo conjunto de dados;"0307_DANIEL.spp","77946.2 Secs"
cm-1;Abs
10000.000000;0.536488
9999.000000;0.535303
9998.000000;0.534122
9997.000000;0.532944
9996.000000;0.531769
9995.000000;0.530597
9994.000000;0.529428
9993.000000;0.528264
9992.000000;0.527099
9991.000000;0.525943
9990.000000;0.524779
9989.000000;0.523686
9988.000000;0.522783
9987.000000;0.521960
9986.000000;0.520989
9985.000000;0.519820
9984.000000;0.518695
9983.000000;0.517844
9982.000000;0.517162
9981.000000;0.516358
9980.000000;0.515356
9979.000000;0.514341
9978.000000;0.513437
9977.000000;0.512572
9976.000000;0.511698
9975.000000;0.510923
9974.000000;0.510295
9973.000000;0.509652
9972.000000;0.508820
9971.000000;0.507890
9970.000000;0.507132
9969.000000;0.506690
9968.000000;0.506435
9967.000000;0.506109
9966.000000;0.505513
9965.000000;0.504592
9964.000000;0.503418
9963.000000;0.502137
9962.000000;0.500911
9961.000000;0.499881
9960.000000;0.499120
9959.000000;0.498584
9958.000000;0.498135
9957.000000;0.497674
9956.000000;0.497245
9955.000000;0.496928
9954.000000;0.496631
9953.000000;0.496092
9952.000000;0.495147
9951.000000;0.493924
9950.000000;0.492692
9949.000000;0.491577
9948.000000;0.490492
9947.000000;0.489340
9946.000000;0.488170
9945.000000;0.487087
9944.000000;0.486068
9943.000000;0.484984
9942.000000;0.483815
9941.000000;0.482763
9940.000000;0.482066
9939.000000;0.481724
9938.000000;0.481475
9937.000000;0.481029
9936.000000;0.480294
9935.000000;0.479380
9934.000000;0.478471
9933.000000;0.477682
9932.000000;0.476951
9931.000000;0.476057
9930.000000;0.474850
9929.000000;0.473480
9928.000000;0.472299
9927.000000;0.471485
9926.000000;0.470863
9925.000000;0.470119
9924.000000;0.469114
9923.000000;0.467935
9922.000000;0.466753
9921.000000;0.465742
9920.000000;0.465015
9919.000000;0.464534
9918.000000;0.464117
9917.000000;0.463598
9916.000000;0.462917
9915.000000;0.462054
9914.000000;0.460992
9913.000000;0.459861
9912.000000;0.458939
9911.000000;0.458380
9910.000000;0.457997
9909.000000;0.457452
9908.000000;0.456572
9907.000000;0.455378
9906.000000;0.453919
9905.000000;0.452299
9904.000000;0.450785
9903.000000;0.449664
9902.000000;0.448984
9901.000000;0.448543
9900.000000;0.448138
9899.000000;0.447665
9898.000000;0.447020
9897.000000;0.446109
9896.000000;0.445005
9895.000000;0.443934
9894.000000;0.443011
9893.000000;0.442113
9892.000000;0.441049
9891.000000;0.439785
9890.000000;0.438451
9889.000000;0.437179
9888.000000;0.435986
9887.000000;0.434777
9886.000000;0.433485
9885.000000;0.432227
9884.000000;0.431262
9883.000000;0.430703
9882.000000;0.430354
9881.000000;0.429925
9880.000000;0.429331
9879.000000;0.428635
9878.000000;0.427796
9877.000000;0.426696
9876.000000;0.425407
9875.000000;0.424185
9874.000000;0.423153
9873.000000;0.422167
9872.000000;0.421065
9871.000000;0.419865
9870.000000;0.418647
9869.000000;0.417404
9868.000000;0.416151
9867.000000;0.415043
9866.000000;0.414230
9865.000000;0.413629
9864.000000;0.412968
9863.000000;0.412034
9862.000000;0.410827
9861.000000;0.409510
9860.000000;0.408270
9859.000000;0.407185
9858.000000;0.406143
9857.000000;0.404908
9856.000000;0.403356
9855.000000;0.401667
9854.000000;0.400251
9853.000000;0.399409
9852.000000;0.399000
9851.000000;0.398480
9850.000000;0.397374
9849.000000;0.395799
9848.000000;0.394402
9847.000000;0.393676
9846.000000;0.393402
9845.000000;0.392908
9844.000000;0.391819
9843.000000;0.390381
9842.000000;0.389036
9841.000000;0.387902
9840.000000;0.386777
9839.000000;0.385523
9838.000000;0.384247
9837.000000;0.383141
9836.000000;0.382224
9835.000000;0.381299
9834.000000;0.380145
9833.000000;0.378766
9832.000000;0.377389
9831.000000;0.376201
9830.000000;0.375142
9829.000000;0.374043
9828.000000;0.372891
9827.000000;0.371827
9826.000000;0.370897
9825.000000;0.369967
9824.000000;0.368893
9823.000000;0.367647
9822.000000;0.366269
9821.000000;0.364826
9820.000000;0.363480
9819.000000;0.362439
9818.000000;0.361754
9817.000000;0.361227
9816.000000;0.360591
9815.000000;0.359718
9814.000000;0.358616
9813.000000;0.357325
9812.000000;0.355868
9811.000000;0.354268
9810.000000;0.352569
9809.000000;0.350875
9808.000000;0.349352
9807.000000;0.348096
9806.000000;0.347024
9805.000000;0.345978
9804.000000;0.344929
9803.000000;0.343951
9802.000000;0.343000
9801.000000;0.341881
9800.000000;0.340489
9799.000000;0.338957
9798.000000;0.337490
9797.000000;0.336167
9796.000000;0.334965
9795.000000;0.333862
9794.000000;0.332844
9793.000000;0.331856
9792.000000;0.330838
9791.000000;0.329737
9790.000000;0.328493
9789.000000;0.327114
9788.000000;0.325784
9787.000000;0.324736
9786.000000;0.323934
9785.000000;0.323036
9784.000000;0.321761
9783.000000;0.320223
9782.000000;0.318793
9781.000000;0.317708
9780.000000;0.316895
9779.000000;0.316071
9778.000000;0.314916
9777.000000;0.313280
9776.000000;0.311356
9775.000000;0.309605
9774.000000;0.308356
9773.000000;0.307467
9772.000000;0.306456
9771.000000;0.304979
9770.000000;0.303157
9769.000000;0.301442
9768.000000;0.300189
9767.000000;0.299296
9766.000000;0.298260
9765.000000;0.296646
9764.000000;0.294550
9763.000000;0.292503
9762.000000;0.290938
9761.000000;0.289865
9760.000000;0.289046
9759.000000;0.288278
9758.000000;0.287415
9757.000000;0.286326
9756.000000;0.285034
9755.000000;0.283760
9754.000000;0.282636
9753.000000;0.281463
9752.000000;0.279974
9751.000000;0.278276
9750.000000;0.276772
9749.000000;0.275650
9748.000000;0.274662
9747.000000;0.273455
9746.000000;0.271949
9745.000000;0.270304
9744.000000;0.268693
9743.000000;0.267215
9742.000000;0.265928
9741.000000;0.264799
9740.000000;0.263666
9739.000000;0.262315
9738.000000;0.260649
9737.000000;0.258752
9736.000000;0.256824
9735.000000;0.255065
9734.000000;0.253562
9733.000000;0.252273
9732.000000;0.251077
9731.000000;0.249842
9730.000000;0.248426
9729.000000;0.246723
9728.000000;0.244786
9727.000000;0.242882
9726.000000;0.241280
9725.000000;0.239997
9724.000000;0.238817
9723.000000;0.237564
9722.000000;0.236240
9721.000000;0.234892
9720.000000;0.233466
9719.000000;0.231897
9718.000000;0.230243
9717.000000;0.228641
9716.000000;0.227153
9715.000000;0.225744
9714.000000;0.224358
9713.000000;0.222962
9712.000000;0.221519
9711.000000;0.220013
9710.000000;0.218505
9709.000000;0.217088
9708.000000;0.215753
9707.000000;0.214341
9706.000000;0.212690
9705.000000;0.210797
9704.000000;0.208833
9703.000000;0.206994
9702.000000;0.205374
9701.000000;0.203940
9700.000000;0.202582
9699.000000;0.201148
9698.000000;0.199513
9697.000000;0.197696
9696.000000;0.195889
9695.000000;0.194313
9694.000000;0.193016
9693.000000;0.191851
9692.000000;0.190646
9691.000000;0.189333
9690.000000;0.187864
9689.000000;0.186130
9688.000000;0.184100
9687.000000;0.181986
9686.000000;0.180145
9685.000000;0.178725
9684.000000;0.177507
9683.000000;0.176135
9682.000000;0.174463
9681.000000;0.172614
9680.000000;0.170769
9679.000000;0.169012
9678.000000;0.167357
9677.000000;0.165802
9676.000000;0.164278
9675.000000;0.162629
9674.000000;0.160742
9673.000000;0.158683
9672.000000;0.156649
9671.000000;0.154815
9670.000000;0.153265
9669.000000;0.152035
9668.000000;0.151082
9667.000000;0.150173
9666.000000;0.148934
9665.000000;0.147124
9664.000000;0.144869
9663.000000;0.142530
9662.000000;0.140360
9661.000000;0.138343
9660.000000;0.136341
9659.000000;0.134339
9658.000000;0.132484
9657.000000;0.130930
9656.000000;0.129651
9655.000000;0.128394
9654.000000;0.126868
9653.000000;0.125011
9652.000000;0.123072
9651.000000;0.121375
9650.000000;0.119963
9649.000000;0.118536
9648.000000;0.116738
9647.000000;0.114487
9646.000000;0.112005
9645.000000;0.109601
9644.000000;0.107442
9643.000000;0.105532
9642.000000;0.103814
9641.000000;0.102266
9640.000000;0.100878
9639.000000;0.099561
9638.000000;0.098113
9637.000000;0.096367
9636.000000;0.094363
9635.000000;0.092350
9634.000000;0.090569
9633.000000;0.089022
9632.000000;0.087486
9631.000000;0.085730
9630.000000;0.083715
9629.000000;0.081624
9628.000000;0.079695
9627.000000;0.078041
9626.000000;0.076557
9625.000000;0.074998
9624.000000;0.073137
9623.000000;0.070911
9622.000000;0.068461
9621.000000;0.066058
9620.000000;0.063918
9619.000000;0.062024
9618.000000;0.060145
9617.000000;0.058101
9616.000000;0.055977
9615.000000;0.054036
9614.000000;0.052411
9613.000000;0.050958
9612.000000;0.049429
9611.000000;0.047705
9610.000000;0.045830
9609.000000;0.043897
9608.000000;0.041996
9607.000000;0.040226
9606.000000;0.038620
9605.000000;0.037041
9604.000000;0.035235
9603.000000;0.033060
9602.000000;0.030625
9601.000000;0.028189
9600.000000;0.025964
9599.000000;0.024011
9598.000000;0.022267
9597.000000;0.020578
9596.000000;0.018767
9595.000000;0.016754
9594.000000;0.014659
9593.000000;0.012723
9592.000000;0.011078
9591.000000;0.009604
9590.000000;0.008011
9589.000000;0.006038
9588.000000;0.003606
9587.000000;0.000864
9586.000000;-0.001863
9585.000000;-0.004266
9584.000000;-0.006299
9583.000000;-0.008214
9582.000000;-0.010303
9581.000000;-0.012598
9580.000000;-0.014867
9579.000000;-0.016889
9578.000000;-0.018659
9577.000000;-0.020350
9576.000000;-0.022146
9575.000000;-0.024086
9574.000000;-0.026006
9573.000000;-0.027656
9572.000000;-0.028940
9571.000000;-0.030067
9570.000000;-0.031415
9569.000000;-0.033249
9568.000000;-0.035583
9567.000000;-0.038244
9566.000000;-0.040951
9565.000000;-0.043402
9564.000000;-0.045459
9563.000000;-0.047279
9562.000000;-0.049135
9561.000000;-0.051080
9560.000000;-0.052922
9559.000000;-0.054544
9558.000000;-0.056076
9557.000000;-0.057693
9556.000000;-0.059430
9555.000000;-0.061286
9554.000000;-0.063350
9553.000000;-0.065668
9552.000000;-0.068098
9551.000000;-0.070447
9550.000000;-0.072661
9549.000000;-0.074770
9548.000000;-0.076772
9547.000000;-0.078681
9546.000000;-0.080568
9545.000000;-0.082395
9544.000000;-0.083950
9543.000000;-0.085145
9542.000000;-0.086275
9541.000000;-0.087737
9540.000000;-0.089575
9539.000000;-0.091542
9538.000000;-0.093570
9537.000000;-0.095859
9536.000000;-0.098464
9535.000000;-0.101101
9534.000000;-0.103479
9533.000000;-0.105579
9532.000000;-0.107490
9531.000000;-0.109184
9530.000000;-0.110637
9529.000000;-0.112014
9528.000000;-0.113504
9527.000000;-0.115085
9526.000000;-0.116604
9525.000000;-0.118048
9524.000000;-0.119575
9523.000000;-0.121295
9522.000000;-0.123176
9521.000000;-0.125135
9520.000000;-0.127097
9519.000000;-0.128983
9518.000000;-0.130729
9517.000000;-0.132333
9516.000000;-0.133824
9515.000000;-0.135221
9514.000000;-0.136566
9513.000000;-0.137957
9512.000000;-0.139424
9511.000000;-0.140854
9510.000000;-0.142141
9509.000000;-0.143390
9508.000000;-0.144808
9507.000000;-0.146396
9506.000000;-0.147921
9505.000000;-0.149270
9504.000000;-0.150651
9503.000000;-0.152282
9502.000000;-0.154014
9501.000000;-0.155457
9500.000000;-0.156496
9499.000000;-0.157463
9498.000000;-0.158719
9497.000000;-0.160219
9496.000000;-0.161636
9495.000000;-0.162822
9494.000000;-0.163962
9493.000000;-0.165256
9492.000000;-0.166654
9491.000000;-0.167966
9490.000000;-0.169093
9489.000000;-0.170034
9488.000000;-0.170796
9487.000000;-0.171461
9486.000000;-0.172279
9485.000000;-0.173492
9484.000000;-0.175028
9483.000000;-0.176516
9482.000000;-0.177639
9481.000000;-0.178387
9480.000000;-0.178927
9479.000000;-0.179376
9478.000000;-0.179769
9477.000000;-0.180161
9476.000000;-0.180632
9475.000000;-0.181230
9474.000000;-0.181999
9473.000000;-0.182996
9472.000000;-0.184157
9471.000000;-0.185222
9470.000000;-0.185917
9469.000000;-0.186250
9468.000000;-0.186537
9467.000000;-0.187069
9466.000000;-0.187802
9465.000000;-0.188420
9464.000000;-0.188694
9463.000000;-0.188725
9462.000000;-0.188838
9461.000000;-0.189243
9460.000000;-0.189820
9459.000000;-0.190240
9458.000000;-0.190308
9457.000000;-0.190155
9456.000000;-0.190089
9455.000000;-0.190283
9454.000000;-0.190639
9453.000000;-0.190932
9452.000000;-0.191017
9451.000000;-0.190931
9450.000000;-0.190841
9449.000000;-0.190894
9448.000000;-0.191063
9447.000000;-0.191101
9446.000000;-0.190749
9445.000000;-0.190030
9444.000000;-0.189306
9443.000000;-0.188984
9442.000000;-0.189150
9441.000000;-0.189506
9440.000000;-0.189631
9439.000000;-0.189318
9438.000000;-0.188698
9437.000000;-0.188098
9436.000000;-0.187755
9435.000000;-0.187621
9434.000000;-0.187434
9433.000000;-0.186996
9432.000000;-0.186353
9431.000000;-0.185694
9430.000000;-0.185127
9429.000000;-0.184595
9428.000000;-0.183984
9427.000000;-0.183221
9426.000000;-0.182284
9425.000000;-0.181217
9424.000000;-0.180177
9423.000000;-0.179360
9422.000000;-0.178824
9421.000000;-0.178391
9420.000000;-0.177804
9419.000000;-0.176964
9418.000000;-0.175982
9417.000000;-0.175026
9416.000000;-0.174166
9415.000000;-0.173379
9414.000000;-0.172631
9413.000000;-0.171932
9412.000000;-0.171317
9411.000000;-0.170782
9410.000000;-0.170223
9409.000000;-0.169477
9408.000000;-0.168441
9407.000000;-0.167146
9406.000000;-0.165705
9405.000000;-0.164224
9404.000000;-0.162785
9403.000000;-0.161459
9402.000000;-0.160266
9401.000000;-0.159154
9400.000000;-0.158090
9399.000000;-0.157110
9398.000000;-0.156201
9397.000000;-0.155157
9396.000000;-0.153735
9395.000000;-0.151997
9394.000000;-0.150386
9393.000000;-0.149326
9392.000000;-0.148793
9391.000000;-0.148354
9390.000000;-0.147568
9389.000000;-0.146291
9388.000000;-0.144668
9387.000000;-0.142961
9386.000000;-0.141383
9385.000000;-0.139967
9384.000000;-0.138584
9383.000000;-0.137131
9382.000000;-0.135694
9381.000000;-0.134476
9380.000000;-0.133561
9379.000000;-0.132813
9378.000000;-0.132015
9377.000000;-0.131033
9376.000000;-0.129822
9375.000000;-0.128382
9374.000000;-0.126769
9373.000000;-0.125103
9372.000000;-0.123485
9371.000000;-0.121928
9370.000000;-0.120404
9369.000000;-0.118928
9368.000000;-0.117536
9367.000000;-0.116193
9366.000000;-0.114798
9365.000000;-0.113291
9364.000000;-0.111723
9363.000000;-0.110170
9362.000000;-0.108641
9361.000000;-0.107091
9360.000000;-0.105532
9359.000000;-0.104065
9358.000000;-0.102781
9357.000000;-0.101670
9356.000000;-0.100616
9355.000000;-0.099455
9354.000000;-0.098033
9353.000000;-0.096277
9352.000000;-0.094316
9351.000000;-0.092490
9350.000000;-0.091110
9349.000000;-0.090146
9348.000000;-0.089211
9347.000000;-0.087932
9346.000000;-0.086311
9345.000000;-0.084662
9344.000000;-0.083239
9343.000000;-0.082001
9342.000000;-0.080740
9341.000000;-0.079313
9340.000000;-0.077714
9339.000000;-0.075992
9338.000000;-0.074212
9337.000000;-0.072484
9336.000000;-0.070940
9335.000000;-0.069629
9334.000000;-0.068437
9333.000000;-0.067176
9332.000000;-0.065757
9331.000000;-0.064248
9330.000000;-0.062755
9329.000000;-0.061273
9328.000000;-0.059698
9327.000000;-0.057972
9326.000000;-0.056189
9325.000000;-0.054548
9324.000000;-0.053215
9323.000000;-0.052186
9322.000000;-0.051274
9321.000000;-0.050233
9320.000000;-0.048947
9319.000000;-0.047487
9318.000000;-0.045977
9317.000000;-0.044429
9316.000000;-0.042794
9315.000000;-0.041103
9314.000000;-0.039468
9313.000000;-0.037959
9312.000000;-0.036570
9311.000000;-0.035312
9310.000000;-0.034184
9309.000000;-0.033039
9308.000000;-0.031634
9307.000000;-0.029908
9306.000000;-0.028100
9305.000000;-0.026468
9304.000000;-0.024979
9303.000000;-0.023426
9302.000000;-0.021799
9301.000000;-0.020360
9300.000000;-0.019310
9299.000000;-0.018505
9298.000000;-0.017581
9297.000000;-0.016319
9296.000000;-0.014828
9295.000000;-0.013391
9294.000000;-0.012164
9293.000000;-0.011024
9292.000000;-0.009718
9291.000000;-0.008153
9290.000000;-0.006510
9289.000000;-0.005064
9288.000000;-0.003937
9287.000000;-0.003032
9286.000000;-0.002159
9285.000000;-0.001151
9284.000000;0.000094
9283.000000;0.001589
9282.000000;0.003226
9281.000000;0.004834
9280.000000;0.006295
9279.000000;0.007604
9278.000000;0.008822
9277.000000;0.009975
9276.000000;0.011007
9275.000000;0.011853
9274.000000;0.012577
9273.000000;0.013413
9272.000000;0.014612
9271.000000;0.016217
9270.000000;0.018003
9269.000000;0.019640
9268.000000;0.020895
9267.000000;0.021757
9266.000000;0.022465
9265.000000;0.023411
9264.000000;0.024839
9263.000000;0.026599
9262.000000;0.028291
9261.000000;0.029719
9260.000000;0.031063
9259.000000;0.032546
9258.000000;0.034062
9257.000000;0.035319
9256.000000;0.036245
9255.000000;0.037071
9254.000000;0.038050
9253.000000;0.039228
9252.000000;0.040506
9251.000000;0.041771
9250.000000;0.042941
9249.000000;0.043990
9248.000000;0.044962
9247.000000;0.045928
9246.000000;0.046928
9245.000000;0.048015
9244.000000;0.049282
9243.000000;0.050730
9242.000000;0.052150
9241.000000;0.053265
9240.000000;0.054033
9239.000000;0.054689
9238.000000;0.055480
9237.000000;0.056456
9236.000000;0.057520
9235.000000;0.058604
9234.000000;0.059713
9233.000000;0.060890
9232.000000;0.062170
9231.000000;0.063544
9230.000000;0.064924
9229.000000;0.066179
9228.000000;0.067248
9227.000000;0.068191
9226.000000;0.069133
9225.000000;0.070184
9224.000000;0.071376
9223.000000;0.072634
9222.000000;0.073812
9221.000000;0.074805
9220.000000;0.075631
9219.000000;0.076411
9218.000000;0.077280
9217.000000;0.078319
9216.000000;0.079500
9215.000000;0.080639
9214.000000;0.081515
9213.000000;0.082106
9212.000000;0.082660
9211.000000;0.083426
9210.000000;0.084369
9209.000000;0.085265
9208.000000;0.086016
9207.000000;0.086747
9206.000000;0.087610
9205.000000;0.088616
9204.000000;0.089679
9203.000000;0.090700
9202.000000;0.091640
9201.000000;0.092578
9200.000000;0.093687
9199.000000;0.095017
9198.000000;0.096311
9197.000000;0.097194
9196.000000;0.097609
9195.000000;0.097937
9194.000000;0.098630
9193.000000;0.099798
9192.000000;0.101218
9191.000000;0.102600
9190.000000;0.103782
9189.000000;0.104727
9188.000000;0.105476
9187.000000;0.106128
9186.000000;0.106828
9185.000000;0.107708
9184.000000;0.108807
9183.000000;0.110003
9182.000000;0.111092
9181.000000;0.112007
9180.000000;0.112915
9179.000000;0.113999
9178.000000;0.115163
9177.000000;0.116081
9176.000000;0.116571
9175.000000;0.116811
9174.000000;0.117126
9173.000000;0.117656
9172.000000;0.118316
9171.000000;0.119003
9170.000000;0.119738
9169.000000;0.120602
9168.000000;0.121627
9167.000000;0.122751
9166.000000;0.123858
9165.000000;0.124824
9164.000000;0.125561
9163.000000;0.126064
9162.000000;0.126473
9161.000000;0.127062
9160.000000;0.128043
9159.000000;0.129324
9158.000000;0.130517
9157.000000;0.131294
9156.000000;0.131720
9155.000000;0.132142
9154.000000;0.132786
9153.000000;0.133551
9152.000000;0.134214
9151.000000;0.134700
9150.000000;0.135132
9149.000000;0.135666
9148.000000;0.136349
9147.000000;0.137110
9146.000000;0.137861
9145.000000;0.138587
9144.000000;0.139373
9143.000000;0.140306
9142.000000;0.141388
9141.000000;0.142535
9140.000000;0.143621
9139.000000;0.144517
9138.000000;0.145165
9137.000000;0.145673
9136.000000;0.146258
9135.000000;0.147032
9134.000000;0.147887
9133.000000;0.148667
9132.000000;0.149350
9131.000000;0.149981
9130.000000;0.150532
9129.000000;0.150986
9128.000000;0.151505
9127.000000;0.152304
9126.000000;0.153336
9125.000000;0.154297
9124.000000;0.154984
9123.000000;0.155507
9122.000000;0.156086
9121.000000;0.156762
9120.000000;0.157422
9119.000000;0.157980
9118.000000;0.158474
9117.000000;0.159017
9116.000000;0.159742
9115.000000;0.160710
9114.000000;0.161819
9113.000000;0.162843
9112.000000;0.163622
9111.000000;0.164147
9110.000000;0.164478
9109.000000;0.164676
9108.000000;0.164880
9107.000000;0.165315
9106.000000;0.166077
9105.000000;0.166952
9104.000000;0.167584
9103.000000;0.167853
9102.000000;0.168004
9101.000000;0.168380
9100.000000;0.169064
9099.000000;0.169847
9098.000000;0.170487
9097.000000;0.170962
9096.000000;0.171438
9095.000000;0.172049
9094.000000;0.172768
9093.000000;0.173489
9092.000000;0.174152
9091.000000;0.174755
9090.000000;0.175308
9089.000000;0.175831
9088.000000;0.176344
9087.000000;0.176808
9086.000000;0.177124
9085.000000;0.177283
9084.000000;0.177486
9083.000000;0.178001
9082.000000;0.178913
9081.000000;0.180041
9080.000000;0.181105
9079.000000;0.181922
9078.000000;0.182475
9077.000000;0.182860
9076.000000;0.183189
9075.000000;0.183494
9074.000000;0.183740
9073.000000;0.183923
9072.000000;0.184137
9071.000000;0.184502
9070.000000;0.185068
9069.000000;0.185802
9068.000000;0.186599
9067.000000;0.187255
