Criado como novo conjunto de dados;"0307_DANIEL.spp","75425.8 Secs"
cm-1;Abs
10000.000000;0.553401
9999.000000;0.552407
9998.000000;0.551502
9997.000000;0.550900
9996.000000;0.550559
9995.000000;0.550126
9994.000000;0.549332
9993.000000;0.548304
9992.000000;0.547415
9991.000000;0.546794
9990.000000;0.546166
9989.000000;0.545223
9988.000000;0.544042
9987.000000;0.543014
9986.000000;0.542367
9985.000000;0.541900
9984.000000;0.541244
9983.000000;0.540326
9982.000000;0.539441
9981.000000;0.538840
9980.000000;0.538381
9979.000000;0.537708
9978.000000;0.536697
9977.000000;0.535588
9976.000000;0.534657
9975.000000;0.533907
9974.000000;0.533131
9973.000000;0.532158
9972.000000;0.530992
9971.000000;0.529818
9970.000000;0.528917
9969.000000;0.528485
9968.000000;0.528422
9967.000000;0.528343
9966.000000;0.527894
9965.000000;0.527031
9964.000000;0.525956
9963.000000;0.524870
9962.000000;0.523859
9961.000000;0.522958
9960.000000;0.522153
9959.000000;0.521325
9958.000000;0.520319
9957.000000;0.519124
9956.000000;0.517911
9955.000000;0.516864
9954.000000;0.516007
9953.000000;0.515227
9952.000000;0.514435
9951.000000;0.513659
9950.000000;0.512970
9949.000000;0.512327
9948.000000;0.511579
9947.000000;0.510656
9946.000000;0.509707
9945.000000;0.508923
9944.000000;0.508267
9943.000000;0.507523
9942.000000;0.506625
9941.000000;0.505773
9940.000000;0.505120
9939.000000;0.504537
9938.000000;0.503823
9937.000000;0.503005
9936.000000;0.502244
9935.000000;0.501529
9934.000000;0.500679
9933.000000;0.499634
9932.000000;0.498554
9931.000000;0.497593
9930.000000;0.496738
9929.000000;0.495916
9928.000000;0.495110
9927.000000;0.494308
9926.000000;0.493451
9925.000000;0.492504
9924.000000;0.491511
9923.000000;0.490532
9922.000000;0.489585
9921.000000;0.488674
9920.000000;0.487796
9919.000000;0.486902
9918.000000;0.485918
9917.000000;0.484844
9916.000000;0.483776
9915.000000;0.482789
9914.000000;0.481834
9913.000000;0.480777
9912.000000;0.479520
9911.000000;0.478112
9910.000000;0.476769
9909.000000;0.475752
9908.000000;0.475134
9907.000000;0.474722
9906.000000;0.474247
9905.000000;0.473582
9904.000000;0.472708
9903.000000;0.471578
9902.000000;0.470180
9901.000000;0.468703
9900.000000;0.467451
9899.000000;0.466563
9898.000000;0.465934
9897.000000;0.465379
9896.000000;0.464707
9895.000000;0.463684
9894.000000;0.462174
9893.000000;0.460422
9892.000000;0.458976
9891.000000;0.458175
9890.000000;0.457811
9889.000000;0.457387
9888.000000;0.456620
9887.000000;0.455609
9886.000000;0.454605
9885.000000;0.453742
9884.000000;0.452944
9883.000000;0.452024
9882.000000;0.450902
9881.000000;0.449750
9880.000000;0.448831
9879.000000;0.448169
9878.000000;0.447485
9877.000000;0.446503
9876.000000;0.445199
9875.000000;0.443728
9874.000000;0.442285
9873.000000;0.441091
9872.000000;0.440307
9871.000000;0.439798
9870.000000;0.439124
9869.000000;0.437973
9868.000000;0.436513
9867.000000;0.435174
9866.000000;0.434145
9865.000000;0.433270
9864.000000;0.432323
9863.000000;0.431229
9862.000000;0.430026
9861.000000;0.428797
9860.000000;0.427646
9859.000000;0.426619
9858.000000;0.425673
9857.000000;0.424785
9856.000000;0.424007
9855.000000;0.423294
9854.000000;0.422360
9853.000000;0.420953
9852.000000;0.419214
9851.000000;0.417590
9850.000000;0.416377
9849.000000;0.415522
9848.000000;0.414830
9847.000000;0.414165
9846.000000;0.413436
9845.000000;0.412603
9844.000000;0.411764
9843.000000;0.411055
9842.000000;0.410398
9841.000000;0.409525
9840.000000;0.408347
9839.000000;0.407116
9838.000000;0.406092
9837.000000;0.405194
9836.000000;0.404121
9835.000000;0.402724
9834.000000;0.401124
9833.000000;0.399532
9832.000000;0.398079
9831.000000;0.396796
9830.000000;0.395644
9829.000000;0.394561
9828.000000;0.393525
9827.000000;0.392524
9826.000000;0.391460
9825.000000;0.390180
9824.000000;0.388686
9823.000000;0.387193
9822.000000;0.385888
9821.000000;0.384707
9820.000000;0.383454
9819.000000;0.382071
9818.000000;0.380672
9817.000000;0.379378
9816.000000;0.378252
9815.000000;0.377350
9814.000000;0.376656
9813.000000;0.375953
9812.000000;0.374942
9811.000000;0.373546
9810.000000;0.371980
9809.000000;0.370495
9808.000000;0.369176
9807.000000;0.368036
9806.000000;0.367110
9805.000000;0.366329
9804.000000;0.365407
9803.000000;0.364088
9802.000000;0.362474
9801.000000;0.360950
9800.000000;0.359729
9799.000000;0.358623
9798.000000;0.357343
9797.000000;0.355915
9796.000000;0.354650
9795.000000;0.353703
9794.000000;0.352820
9793.000000;0.351582
9792.000000;0.349867
9791.000000;0.347991
9790.000000;0.346394
9789.000000;0.345247
9788.000000;0.344371
9787.000000;0.343505
9786.000000;0.342570
9785.000000;0.341653
9784.000000;0.340786
9783.000000;0.339856
9782.000000;0.338738
9781.000000;0.337447
9780.000000;0.336093
9779.000000;0.334714
9778.000000;0.333247
9777.000000;0.331653
9776.000000;0.329989
9775.000000;0.328329
9774.000000;0.326705
9773.000000;0.325179
9772.000000;0.323889
9771.000000;0.322918
9770.000000;0.322117
9769.000000;0.321156
9768.000000;0.319819
9767.000000;0.318212
9766.000000;0.316636
9765.000000;0.315267
9764.000000;0.314011
9763.000000;0.312697
9762.000000;0.311330
9761.000000;0.310084
9760.000000;0.309014
9759.000000;0.307902
9758.000000;0.306457
9757.000000;0.304663
9756.000000;0.302814
9755.000000;0.301197
9754.000000;0.299807
9753.000000;0.298415
9752.000000;0.296864
9751.000000;0.295244
9750.000000;0.293796
9749.000000;0.292678
9748.000000;0.291804
9747.000000;0.290903
9746.000000;0.289745
9745.000000;0.288349
9744.000000;0.286949
9743.000000;0.285740
9742.000000;0.284687
9741.000000;0.283558
9740.000000;0.282117
9739.000000;0.280288
9738.000000;0.278242
9737.000000;0.276341
9736.000000;0.274900
9735.000000;0.273912
9734.000000;0.273036
9733.000000;0.271923
9732.000000;0.270498
9731.000000;0.268897
9730.000000;0.267206
9729.000000;0.265415
9728.000000;0.263572
9727.000000;0.261840
9726.000000;0.260323
9725.000000;0.258936
9724.000000;0.257514
9723.000000;0.256000
9722.000000;0.254480
9721.000000;0.253046
9720.000000;0.251676
9719.000000;0.250285
9718.000000;0.248850
9717.000000;0.247445
9716.000000;0.246102
9715.000000;0.244723
9714.000000;0.243189
9713.000000;0.241562
9712.000000;0.240031
9711.000000;0.238640
9710.000000;0.237203
9709.000000;0.235567
9708.000000;0.233834
9707.000000;0.232173
9706.000000;0.230525
9705.000000;0.228664
9704.000000;0.226566
9703.000000;0.224531
9702.000000;0.222885
9701.000000;0.221652
9700.000000;0.220542
9699.000000;0.219198
9698.000000;0.217466
9697.000000;0.215521
9696.000000;0.213744
9695.000000;0.212359
9694.000000;0.211139
9693.000000;0.209568
9692.000000;0.207362
9691.000000;0.204777
9690.000000;0.202401
9689.000000;0.200686
9688.000000;0.199684
9687.000000;0.199079
9686.000000;0.198423
9685.000000;0.197426
9684.000000;0.196104
9683.000000;0.194653
9682.000000;0.193176
9681.000000;0.191608
9680.000000;0.189872
9679.000000;0.188005
9678.000000;0.186108
9677.000000;0.184279
9676.000000;0.182589
9675.000000;0.181027
9674.000000;0.179443
9673.000000;0.177693
9672.000000;0.175876
9671.000000;0.174248
9670.000000;0.172846
9669.000000;0.171367
9668.000000;0.169553
9667.000000;0.167512
9666.000000;0.165489
9665.000000;0.163505
9664.000000;0.161445
9663.000000;0.159419
9662.000000;0.157713
9661.000000;0.156375
9660.000000;0.155057
9659.000000;0.153391
9658.000000;0.151376
9657.000000;0.149327
9656.000000;0.147527
9655.000000;0.145991
9654.000000;0.144473
9653.000000;0.142676
9652.000000;0.140556
9651.000000;0.138459
9650.000000;0.136823
9649.000000;0.135693
9648.000000;0.134599
9647.000000;0.132970
9646.000000;0.130647
9645.000000;0.127962
9644.000000;0.125437
9643.000000;0.123434
9642.000000;0.121940
9641.000000;0.120563
9640.000000;0.118792
9639.000000;0.116431
9638.000000;0.113791
9637.000000;0.111405
9636.000000;0.109538
9635.000000;0.107979
9634.000000;0.106289
9633.000000;0.104209
9632.000000;0.101907
9631.000000;0.099850
9630.000000;0.098402
9629.000000;0.097469
9628.000000;0.096538
9627.000000;0.095113
9626.000000;0.093090
9625.000000;0.090725
9624.000000;0.088328
9623.000000;0.086067
9622.000000;0.083986
9621.000000;0.082052
9620.000000;0.080181
9619.000000;0.078323
9618.000000;0.076546
9617.000000;0.074971
9616.000000;0.073584
9615.000000;0.072158
9614.000000;0.070403
9613.000000;0.068198
9612.000000;0.065693
9611.000000;0.063200
9610.000000;0.060972
9609.000000;0.059027
9608.000000;0.057203
9607.000000;0.055372
9606.000000;0.053569
9605.000000;0.051870
9604.000000;0.050226
9603.000000;0.048495
9602.000000;0.046584
9601.000000;0.044478
9600.000000;0.042179
9599.000000;0.039761
9598.000000;0.037460
9597.000000;0.035536
9596.000000;0.033958
9595.000000;0.032376
9594.000000;0.030493
9593.000000;0.028369
9592.000000;0.026247
9591.000000;0.024173
9590.000000;0.021956
9589.000000;0.019488
9588.000000;0.016965
9587.000000;0.014742
9586.000000;0.013005
9585.000000;0.011625
9584.000000;0.010255
9583.000000;0.008592
9582.000000;0.006603
9581.000000;0.004540
9580.000000;0.002679
9579.000000;0.001024
9578.000000;-0.000698
9577.000000;-0.002732
9576.000000;-0.005053
9575.000000;-0.007435
9574.000000;-0.009704
9573.000000;-0.011864
9572.000000;-0.013962
9571.000000;-0.015941
9570.000000;-0.017702
9569.000000;-0.019327
9568.000000;-0.021130
9567.000000;-0.023382
9566.000000;-0.025958
9565.000000;-0.028363
9564.000000;-0.030211
9563.000000;-0.031660
9562.000000;-0.033283
9561.000000;-0.035493
9560.000000;-0.038136
9559.000000;-0.040667
9558.000000;-0.042661
9557.000000;-0.044114
9556.000000;-0.045337
9555.000000;-0.046694
9554.000000;-0.048407
9553.000000;-0.050489
9552.000000;-0.052739
9551.000000;-0.054867
9550.000000;-0.056730
9549.000000;-0.058491
9548.000000;-0.060460
9547.000000;-0.062737
9546.000000;-0.065048
9545.000000;-0.067008
9544.000000;-0.068521
9543.000000;-0.069877
9542.000000;-0.071484
9541.000000;-0.073545
9540.000000;-0.075970
9539.000000;-0.078488
9538.000000;-0.080806
9537.000000;-0.082740
9536.000000;-0.084294
9535.000000;-0.085662
9534.000000;-0.087124
9533.000000;-0.088870
9532.000000;-0.090865
9531.000000;-0.092862
9530.000000;-0.094604
9529.000000;-0.096106
9528.000000;-0.097681
9527.000000;-0.099600
9526.000000;-0.101757
9525.000000;-0.103806
9524.000000;-0.105617
9523.000000;-0.107423
9522.000000;-0.109450
9521.000000;-0.111571
9520.000000;-0.113488
9519.000000;-0.115163
9518.000000;-0.116852
9517.000000;-0.118698
9516.000000;-0.120485
9515.000000;-0.121882
9514.000000;-0.122848
9513.000000;-0.123694
9512.000000;-0.124777
9511.000000;-0.126222
9510.000000;-0.127933
9509.000000;-0.129764
9508.000000;-0.131603
9507.000000;-0.133319
9506.000000;-0.134739
9505.000000;-0.135812
9504.000000;-0.136762
9503.000000;-0.137974
9502.000000;-0.139612
9501.000000;-0.141435
9500.000000;-0.143072
9499.000000;-0.144456
9498.000000;-0.145852
9497.000000;-0.147455
9496.000000;-0.149069
9495.000000;-0.150289
9494.000000;-0.150976
9493.000000;-0.151463
9492.000000;-0.152239
9491.000000;-0.153488
9490.000000;-0.154974
9489.000000;-0.156341
9488.000000;-0.157445
9487.000000;-0.158373
9486.000000;-0.159245
9485.000000;-0.160104
9484.000000;-0.160974
9483.000000;-0.161889
9482.000000;-0.162817
9481.000000;-0.163644
9480.000000;-0.164285
9479.000000;-0.164792
9478.000000;-0.165328
9477.000000;-0.166053
9476.000000;-0.167039
9475.000000;-0.168234
9474.000000;-0.169462
9473.000000;-0.170512
9472.000000;-0.171252
9471.000000;-0.171676
9470.000000;-0.171883
9469.000000;-0.172078
9468.000000;-0.172550
9467.000000;-0.173467
9466.000000;-0.174665
9465.000000;-0.175725
9464.000000;-0.176350
9463.000000;-0.176578
9462.000000;-0.176607
9461.000000;-0.176543
9460.000000;-0.176421
9459.000000;-0.176348
9458.000000;-0.176478
9457.000000;-0.176848
9456.000000;-0.177360
9455.000000;-0.177885
9454.000000;-0.178333
9453.000000;-0.178636
9452.000000;-0.178753
9451.000000;-0.178657
9450.000000;-0.178306
9449.000000;-0.177717
9448.000000;-0.177096
9447.000000;-0.176767
9446.000000;-0.176860
9445.000000;-0.177169
9444.000000;-0.177426
9443.000000;-0.177551
9442.000000;-0.177517
9441.000000;-0.177145
9440.000000;-0.176330
9439.000000;-0.175390
9438.000000;-0.174889
9437.000000;-0.175013
9436.000000;-0.175334
9435.000000;-0.175250
9434.000000;-0.174520
9433.000000;-0.173358
9432.000000;-0.172200
9431.000000;-0.171429
9430.000000;-0.171141
9429.000000;-0.171048
9428.000000;-0.170718
9427.000000;-0.169974
9426.000000;-0.168997
9425.000000;-0.168049
9424.000000;-0.167233
9423.000000;-0.166556
9422.000000;-0.166013
9421.000000;-0.165513
9420.000000;-0.164888
9419.000000;-0.164115
9418.000000;-0.163426
9417.000000;-0.163053
9416.000000;-0.162931
9415.000000;-0.162767
9414.000000;-0.162329
9413.000000;-0.161556
9412.000000;-0.160493
9411.000000;-0.159258
9410.000000;-0.158027
9409.000000;-0.156909
9408.000000;-0.155834
9407.000000;-0.154678
9406.000000;-0.153455
9405.000000;-0.152302
9404.000000;-0.151261
9403.000000;-0.150204
9402.000000;-0.148998
9401.000000;-0.147688
9400.000000;-0.146483
9399.000000;-0.145556
9398.000000;-0.144838
9397.000000;-0.144040
9396.000000;-0.142920
9395.000000;-0.141539
9394.000000;-0.140182
9393.000000;-0.138991
9392.000000;-0.137799
9391.000000;-0.136378
9390.000000;-0.134743
9389.000000;-0.133113
9388.000000;-0.131672
9387.000000;-0.130498
9386.000000;-0.129627
9385.000000;-0.128977
9384.000000;-0.128250
9383.000000;-0.127128
9382.000000;-0.125622
9381.000000;-0.124111
9380.000000;-0.122938
9379.000000;-0.122075
9378.000000;-0.121219
9377.000000;-0.120121
9376.000000;-0.118760
9375.000000;-0.117264
9374.000000;-0.115788
9373.000000;-0.114396
9372.000000;-0.113016
9371.000000;-0.111504
9370.000000;-0.109811
9369.000000;-0.108055
9368.000000;-0.106387
9367.000000;-0.104833
9366.000000;-0.103344
9365.000000;-0.101941
9364.000000;-0.100681
9363.000000;-0.099479
9362.000000;-0.098108
9361.000000;-0.096470
9360.000000;-0.094766
9359.000000;-0.093280
9358.000000;-0.092018
9357.000000;-0.090712
9356.000000;-0.089191
9355.000000;-0.087581
9354.000000;-0.086067
9353.000000;-0.084603
9352.000000;-0.083003
9351.000000;-0.081250
9350.000000;-0.079569
9349.000000;-0.078199
9348.000000;-0.077208
9347.000000;-0.076483
9346.000000;-0.075777
9345.000000;-0.074767
9344.000000;-0.073219
9343.000000;-0.071189
9342.000000;-0.068983
9341.000000;-0.066920
9340.000000;-0.065193
9339.000000;-0.063899
9338.000000;-0.062998
9337.000000;-0.062208
9336.000000;-0.061132
9335.000000;-0.059622
9334.000000;-0.057923
9333.000000;-0.056360
9332.000000;-0.055007
9331.000000;-0.053743
9330.000000;-0.052486
9329.000000;-0.051219
9328.000000;-0.049878
9327.000000;-0.048399
9326.000000;-0.046820
9325.000000;-0.045203
9324.000000;-0.043496
9323.000000;-0.041621
9322.000000;-0.039684
9321.000000;-0.037950
9320.000000;-0.036608
9319.000000;-0.035618
9318.000000;-0.034792
9317.000000;-0.033914
9316.000000;-0.032817
9315.000000;-0.031471
9314.000000;-0.030015
9313.000000;-0.028610
9312.000000;-0.027234
9311.000000;-0.025699
9310.000000;-0.023899
9309.000000;-0.021982
9308.000000;-0.020255
9307.000000;-0.018945
9306.000000;-0.017986
9305.000000;-0.017017
9304.000000;-0.015655
9303.000000;-0.013872
9302.000000;-0.012070
9301.000000;-0.010684
9300.000000;-0.009738
9299.000000;-0.008893
9298.000000;-0.007862
9297.000000;-0.006619
9296.000000;-0.005221
9295.000000;-0.003666
9294.000000;-0.001998
9293.000000;-0.000415
9292.000000;0.000908
9291.000000;0.002038
9290.000000;0.003209
9289.000000;0.004539
9288.000000;0.005905
9287.000000;0.007118
9286.000000;0.008154
9285.000000;0.009165
9284.000000;0.010294
9283.000000;0.011528
9282.000000;0.012759
9281.000000;0.013947
9280.000000;0.015156
9279.000000;0.016431
9278.000000;0.017699
9277.000000;0.018846
9276.000000;0.019826
9275.000000;0.020708
9274.000000;0.021665
9273.000000;0.022921
9272.000000;0.024574
9271.000000;0.026419
9270.000000;0.028077
9269.000000;0.029374
9268.000000;0.030506
9267.000000;0.031718
9266.000000;0.032951
9265.000000;0.033983
9264.000000;0.034823
9263.000000;0.035748
9262.000000;0.036970
9261.000000;0.038430
9260.000000;0.039936
9259.000000;0.041317
9258.000000;0.042462
9257.000000;0.043386
9256.000000;0.044302
9255.000000;0.045467
9254.000000;0.046877
9253.000000;0.048262
9252.000000;0.049418
9251.000000;0.050400
9250.000000;0.051345
9249.000000;0.052278
9248.000000;0.053200
9247.000000;0.054225
9246.000000;0.055474
9245.000000;0.056896
9244.000000;0.058312
9243.000000;0.059595
9242.000000;0.060722
9241.000000;0.061680
9240.000000;0.062427
9239.000000;0.062967
9238.000000;0.063437
9237.000000;0.064119
9236.000000;0.065283
9235.000000;0.066952
9234.000000;0.068795
9233.000000;0.070355
9232.000000;0.071445
9231.000000;0.072273
9230.000000;0.073182
9229.000000;0.074362
9228.000000;0.075770
9227.000000;0.077185
9226.000000;0.078307
9225.000000;0.078955
9224.000000;0.079300
9223.000000;0.079773
9222.000000;0.080649
9221.000000;0.081800
9220.000000;0.082939
9219.000000;0.083987
9218.000000;0.085069
9217.000000;0.086221
9216.000000;0.087296
9215.000000;0.088155
9214.000000;0.088816
9213.000000;0.089368
9212.000000;0.089864
9211.000000;0.090359
9210.000000;0.090999
9209.000000;0.091979
9208.000000;0.093380
9207.000000;0.095041
9206.000000;0.096618
9205.000000;0.097825
9204.000000;0.098637
9203.000000;0.099262
9202.000000;0.099948
9201.000000;0.100854
9200.000000;0.102048
9199.000000;0.103480
9198.000000;0.104914
9197.000000;0.106028
9196.000000;0.106715
9195.000000;0.107222
9194.000000;0.107889
9193.000000;0.108787
9192.000000;0.109694
9191.000000;0.110404
9190.000000;0.110962
9189.000000;0.111582
9188.000000;0.112425
9187.000000;0.113468
9186.000000;0.114537
9185.000000;0.115444
9184.000000;0.116132
9183.000000;0.116699
9182.000000;0.117295
9181.000000;0.117997
9180.000000;0.118805
9179.000000;0.119688
9178.000000;0.120580
9177.000000;0.121375
9176.000000;0.122016
9175.000000;0.122613
9174.000000;0.123411
9173.000000;0.124592
9172.000000;0.126099
9171.000000;0.127665
9170.000000;0.128992
9169.000000;0.129919
9168.000000;0.130463
9167.000000;0.130760
9166.000000;0.130991
9165.000000;0.131361
9164.000000;0.132051
9163.000000;0.133136
9162.000000;0.134502
9161.000000;0.135874
9160.000000;0.136968
9159.000000;0.137636
9158.000000;0.137934
9157.000000;0.138098
9156.000000;0.138418
9155.000000;0.139021
9154.000000;0.139756
9153.000000;0.140367
9152.000000;0.140814
9151.000000;0.141363
9150.000000;0.142287
9149.000000;0.143532
9148.000000;0.144733
9147.000000;0.145542
9146.000000;0.145928
9145.000000;0.146186
9144.000000;0.146702
9143.000000;0.147683
9142.000000;0.149014
9141.000000;0.150355
9140.000000;0.151416
9139.000000;0.152179
9138.000000;0.152858
9137.000000;0.153648
9136.000000;0.154525
9135.000000;0.155310
9134.000000;0.155886
9133.000000;0.156340
9132.000000;0.156872
9131.000000;0.157568
9130.000000;0.158316
9129.000000;0.158941
9128.000000;0.159401
9127.000000;0.159763
9126.000000;0.160045
9125.000000;0.160188
9124.000000;0.160220
9123.000000;0.160365
9122.000000;0.160850
9121.000000;0.161651
9120.000000;0.162486
9119.000000;0.163093
9118.000000;0.163463
9117.000000;0.163802
9116.000000;0.164331
9115.000000;0.165125
9114.000000;0.166087
9113.000000;0.167038
9112.000000;0.167849
9111.000000;0.168573
9110.000000;0.169404
9109.000000;0.170459
9108.000000;0.171557
9107.000000;0.172316
9106.000000;0.172552
9105.000000;0.172542
9104.000000;0.172775
9103.000000;0.173451
9102.000000;0.174315
9101.000000;0.175005
9100.000000;0.175429
9099.000000;0.175746
9098.000000;0.176124
9097.000000;0.176652
9096.000000;0.177410
9095.000000;0.178418
9094.000000;0.179480
9093.000000;0.180259
9092.000000;0.180614
9091.000000;0.180780
9090.000000;0.181132
9089.000000;0.181817
9088.000000;0.182669
9087.000000;0.183439
9086.000000;0.184006
9085.000000;0.184392
9084.000000;0.184665
9083.000000;0.184897
9082.000000;0.185188
9081.000000;0.185652
9080.000000;0.186293
9079.000000;0.186939
9078.000000;0.187382
9077.000000;0.187620
9076.000000;0.187885
9075.000000;0.188382
9074.000000;0.189081
9073.000000;0.189817
9072.000000;0.190493
9071.000000;0.191078
9070.000000;0.191499
9069.000000;0.191706
9068.000000;0.191829
9067.000000;0.192084
9066.000000;0.192504
