Criado como novo conjunto de dados;"0307_DANIEL.spp","47884.5 Secs"
cm-1;Abs
10000.000000;0.908186
9999.000000;0.907591
9998.000000;0.907135
9997.000000;0.906399
9996.000000;0.905186
9995.000000;0.903704
9994.000000;0.902264
9993.000000;0.900924
9992.000000;0.899547
9991.000000;0.898067
9990.000000;0.896571
9989.000000;0.895185
9988.000000;0.894003
9987.000000;0.893066
9986.000000;0.892320
9985.000000;0.891650
9984.000000;0.890961
9983.000000;0.890183
9982.000000;0.889181
9981.000000;0.887833
9980.000000;0.886229
9979.000000;0.884626
9978.000000;0.883157
9977.000000;0.881765
9976.000000;0.880493
9975.000000;0.879560
9974.000000;0.878974
9973.000000;0.878309
9972.000000;0.877148
9971.000000;0.875621
9970.000000;0.874227
9969.000000;0.873202
9968.000000;0.872327
9967.000000;0.871304
9966.000000;0.870062
9965.000000;0.868687
9964.000000;0.867274
9963.000000;0.865917
9962.000000;0.864645
9961.000000;0.863341
9960.000000;0.861839
9959.000000;0.860145
9958.000000;0.858459
9957.000000;0.856979
9956.000000;0.855796
9955.000000;0.854913
9954.000000;0.854214
9953.000000;0.853443
9952.000000;0.852408
9951.000000;0.851203
9950.000000;0.850067
9949.000000;0.849038
9948.000000;0.847952
9947.000000;0.846784
9946.000000;0.845713
9945.000000;0.844766
9944.000000;0.843675
9943.000000;0.842244
9942.000000;0.840664
9941.000000;0.839253
9940.000000;0.838035
9939.000000;0.836800
9938.000000;0.835471
9937.000000;0.834177
9936.000000;0.832962
9935.000000;0.831709
9934.000000;0.830409
9933.000000;0.829270
9932.000000;0.828392
9931.000000;0.827495
9930.000000;0.826210
9929.000000;0.824577
9928.000000;0.823042
9927.000000;0.821907
9926.000000;0.820991
9925.000000;0.819927
9924.000000;0.818622
9923.000000;0.817257
9922.000000;0.815951
9921.000000;0.814666
9920.000000;0.813425
9919.000000;0.812388
9918.000000;0.811589
9917.000000;0.810803
9916.000000;0.809781
9915.000000;0.808531
9914.000000;0.807211
9913.000000;0.805845
9912.000000;0.804299
9911.000000;0.802523
9910.000000;0.800705
9909.000000;0.799162
9908.000000;0.798114
9907.000000;0.797493
9906.000000;0.796907
9905.000000;0.795888
9904.000000;0.794309
9903.000000;0.792479
9902.000000;0.790771
9901.000000;0.789258
9900.000000;0.787842
9899.000000;0.786608
9898.000000;0.785742
9897.000000;0.785126
9896.000000;0.784281
9895.000000;0.782859
9894.000000;0.781043
9893.000000;0.779319
9892.000000;0.777990
9891.000000;0.777001
9890.000000;0.776111
9889.000000;0.775080
9888.000000;0.773767
9887.000000;0.772210
9886.000000;0.770642
9885.000000;0.769305
9884.000000;0.768229
9883.000000;0.767221
9882.000000;0.766066
9881.000000;0.764700
9880.000000;0.763228
9879.000000;0.761838
9878.000000;0.760662
9877.000000;0.759633
9876.000000;0.758488
9875.000000;0.756971
9874.000000;0.755060
9873.000000;0.752971
9872.000000;0.750990
9871.000000;0.749337
9870.000000;0.748102
9869.000000;0.747171
9868.000000;0.746209
9867.000000;0.744874
9866.000000;0.743118
9865.000000;0.741202
9864.000000;0.739360
9863.000000;0.737585
9862.000000;0.735838
9861.000000;0.734347
9860.000000;0.733451
9859.000000;0.733125
9858.000000;0.732828
9857.000000;0.731958
9856.000000;0.730407
9855.000000;0.728575
9854.000000;0.726892
9853.000000;0.725420
9852.000000;0.723933
9851.000000;0.722269
9850.000000;0.720540
9849.000000;0.718990
9848.000000;0.717707
9847.000000;0.716534
9846.000000;0.715290
9845.000000;0.714017
9844.000000;0.712874
9843.000000;0.711805
9842.000000;0.710468
9841.000000;0.708600
9840.000000;0.706373
9839.000000;0.704261
9838.000000;0.702594
9837.000000;0.701343
9836.000000;0.700287
9835.000000;0.699228
9834.000000;0.698045
9833.000000;0.696690
9832.000000;0.695213
9831.000000;0.693724
9830.000000;0.692242
9829.000000;0.690659
9828.000000;0.688906
9827.000000;0.687111
9826.000000;0.685521
9825.000000;0.684270
9824.000000;0.683262
9823.000000;0.682259
9822.000000;0.681077
9821.000000;0.679699
9820.000000;0.678220
9819.000000;0.676685
9818.000000;0.675024
9817.000000;0.673187
9816.000000;0.671296
9815.000000;0.669547
9814.000000;0.667971
9813.000000;0.666409
9812.000000;0.664772
9811.000000;0.663207
9810.000000;0.661898
9809.000000;0.660752
9808.000000;0.659443
9807.000000;0.657759
9806.000000;0.655834
9805.000000;0.653974
9804.000000;0.652342
9803.000000;0.650879
9802.000000;0.649460
9801.000000;0.648049
9800.000000;0.646657
9799.000000;0.645247
9798.000000;0.643762
9797.000000;0.642215
9796.000000;0.640681
9795.000000;0.639201
9794.000000;0.637767
9793.000000;0.636383
9792.000000;0.635055
9791.000000;0.633683
9790.000000;0.632119
9789.000000;0.630383
9788.000000;0.628703
9787.000000;0.627229
9786.000000;0.625813
9785.000000;0.624197
9784.000000;0.622350
9783.000000;0.620466
9782.000000;0.618682
9781.000000;0.616986
9780.000000;0.615337
9779.000000;0.613705
9778.000000;0.612002
9777.000000;0.610194
9776.000000;0.608498
9775.000000;0.607234
9774.000000;0.606394
9773.000000;0.605536
9772.000000;0.604227
9771.000000;0.602422
9770.000000;0.600327
9769.000000;0.598096
9768.000000;0.595849
9767.000000;0.593818
9766.000000;0.592201
9765.000000;0.590904
9764.000000;0.589603
9763.000000;0.588070
9762.000000;0.586319
9761.000000;0.584465
9760.000000;0.582621
9759.000000;0.580911
9758.000000;0.579409
9757.000000;0.578014
9756.000000;0.576514
9755.000000;0.574817
9754.000000;0.573030
9753.000000;0.571287
9752.000000;0.569599
9751.000000;0.567910
9750.000000;0.566207
9749.000000;0.564500
9748.000000;0.562780
9747.000000;0.561046
9746.000000;0.559337
9745.000000;0.557668
9744.000000;0.555972
9743.000000;0.554191
9742.000000;0.552392
9741.000000;0.550729
9740.000000;0.549257
9739.000000;0.547841
9738.000000;0.546270
9737.000000;0.544446
9736.000000;0.542441
9735.000000;0.540397
9734.000000;0.538411
9733.000000;0.536518
9732.000000;0.534724
9731.000000;0.533004
9730.000000;0.531291
9729.000000;0.529509
9728.000000;0.527631
9727.000000;0.525689
9726.000000;0.523742
9725.000000;0.521844
9724.000000;0.520012
9723.000000;0.518198
9722.000000;0.516329
9721.000000;0.514409
9720.000000;0.512553
9719.000000;0.510859
9718.000000;0.509266
9717.000000;0.507614
9716.000000;0.505829
9715.000000;0.503982
9714.000000;0.502188
9713.000000;0.500486
9712.000000;0.498819
9711.000000;0.497052
9710.000000;0.495061
9709.000000;0.492900
9708.000000;0.490852
9707.000000;0.489185
9706.000000;0.487844
9705.000000;0.486472
9704.000000;0.484759
9703.000000;0.482679
9702.000000;0.480406
9701.000000;0.478114
9700.000000;0.475922
9699.000000;0.473876
9698.000000;0.471908
9697.000000;0.469895
9696.000000;0.467845
9695.000000;0.465929
9694.000000;0.464257
9693.000000;0.462715
9692.000000;0.461098
9691.000000;0.459329
9690.000000;0.457479
9689.000000;0.455622
9688.000000;0.453775
9687.000000;0.451902
9686.000000;0.449929
9685.000000;0.447803
9684.000000;0.445580
9683.000000;0.443362
9682.000000;0.441143
9681.000000;0.438856
9680.000000;0.436620
9679.000000;0.434763
9678.000000;0.433437
9677.000000;0.432338
9676.000000;0.430977
9675.000000;0.429142
9674.000000;0.426943
9673.000000;0.424545
9672.000000;0.422069
9671.000000;0.419704
9670.000000;0.417612
9669.000000;0.415704
9668.000000;0.413699
9667.000000;0.411487
9666.000000;0.409275
9665.000000;0.407308
9664.000000;0.405577
9663.000000;0.403871
9662.000000;0.401995
9661.000000;0.399899
9660.000000;0.397681
9659.000000;0.395533
9658.000000;0.393590
9657.000000;0.391790
9656.000000;0.389937
9655.000000;0.387913
9654.000000;0.385734
9653.000000;0.383410
9652.000000;0.380907
9651.000000;0.378304
9650.000000;0.375851
9649.000000;0.373760
9648.000000;0.372006
9647.000000;0.370423
9646.000000;0.368882
9645.000000;0.367280
9644.000000;0.365426
9643.000000;0.363135
9642.000000;0.360458
9641.000000;0.357707
9640.000000;0.355219
9639.000000;0.353113
9638.000000;0.351272
9637.000000;0.349468
9636.000000;0.347497
9635.000000;0.345269
9634.000000;0.342826
9633.000000;0.340297
9632.000000;0.337819
9631.000000;0.335497
9630.000000;0.333392
9629.000000;0.331495
9628.000000;0.329686
9627.000000;0.327769
9626.000000;0.325600
9625.000000;0.323212
9624.000000;0.320812
9623.000000;0.318599
9622.000000;0.316593
9621.000000;0.314654
9620.000000;0.312669
9619.000000;0.310641
9618.000000;0.308585
9617.000000;0.306408
9616.000000;0.304014
9615.000000;0.301466
9614.000000;0.298949
9613.000000;0.296557
9612.000000;0.294239
9611.000000;0.291959
9610.000000;0.289789
9609.000000;0.287779
9608.000000;0.285825
9607.000000;0.283741
9606.000000;0.281436
9605.000000;0.278962
9604.000000;0.276442
9603.000000;0.274013
9602.000000;0.271784
9601.000000;0.269762
9600.000000;0.267833
9599.000000;0.265868
9598.000000;0.263835
9597.000000;0.261756
9596.000000;0.259614
9595.000000;0.257367
9594.000000;0.255032
9593.000000;0.252674
9592.000000;0.250334
9591.000000;0.248013
9590.000000;0.245701
9589.000000;0.243358
9588.000000;0.240895
9587.000000;0.238288
9586.000000;0.235693
9585.000000;0.233316
9584.000000;0.231148
9583.000000;0.228943
9582.000000;0.226518
9581.000000;0.223981
9580.000000;0.221573
9579.000000;0.219382
9578.000000;0.217303
9577.000000;0.215214
9576.000000;0.213079
9575.000000;0.210900
9574.000000;0.208686
9573.000000;0.206469
9572.000000;0.204275
9571.000000;0.202047
9570.000000;0.199686
9569.000000;0.197178
9568.000000;0.194642
9567.000000;0.192240
9566.000000;0.190081
9565.000000;0.188195
9564.000000;0.186471
9563.000000;0.184637
9562.000000;0.182421
9561.000000;0.179827
9560.000000;0.177162
9559.000000;0.174705
9558.000000;0.172412
9557.000000;0.170050
9556.000000;0.167541
9555.000000;0.165043
9554.000000;0.162706
9553.000000;0.160486
9552.000000;0.158249
9551.000000;0.155960
9550.000000;0.153692
9549.000000;0.151493
9548.000000;0.149341
9547.000000;0.147206
9546.000000;0.145127
9545.000000;0.143200
9544.000000;0.141483
9543.000000;0.139907
9542.000000;0.138286
9541.000000;0.136450
9540.000000;0.134380
9539.000000;0.132191
9538.000000;0.129992
9537.000000;0.127791
9536.000000;0.125536
9535.000000;0.123207
9534.000000;0.120833
9533.000000;0.118465
9532.000000;0.116134
9531.000000;0.113856
9530.000000;0.111657
9529.000000;0.109603
9528.000000;0.107750
9527.000000;0.106034
9526.000000;0.104221
9525.000000;0.102074
9524.000000;0.099586
9523.000000;0.097011
9522.000000;0.094639
9521.000000;0.092595
9520.000000;0.090844
9519.000000;0.089297
9518.000000;0.087836
9517.000000;0.086290
9516.000000;0.084506
9515.000000;0.082469
9514.000000;0.080316
9513.000000;0.078239
9512.000000;0.076358
9511.000000;0.074652
9510.000000;0.072946
9509.000000;0.071038
9508.000000;0.068942
9507.000000;0.066948
9506.000000;0.065343
9505.000000;0.064048
9504.000000;0.062669
9503.000000;0.060948
9502.000000;0.059054
9501.000000;0.057328
9500.000000;0.055831
9499.000000;0.054319
9498.000000;0.052615
9497.000000;0.050850
9496.000000;0.049262
9495.000000;0.047864
9494.000000;0.046445
9493.000000;0.044866
9492.000000;0.043231
9491.000000;0.041755
9490.000000;0.040528
9489.000000;0.039482
9488.000000;0.038515
9487.000000;0.037590
9486.000000;0.036685
9485.000000;0.035702
9484.000000;0.034483
9483.000000;0.032935
9482.000000;0.031118
9481.000000;0.029235
9480.000000;0.027551
9479.000000;0.026288
9478.000000;0.025533
9477.000000;0.025153
9476.000000;0.024835
9475.000000;0.024286
9474.000000;0.023446
9473.000000;0.022452
9472.000000;0.021419
9471.000000;0.020338
9470.000000;0.019205
9469.000000;0.018138
9468.000000;0.017224
9467.000000;0.016353
9466.000000;0.015367
9465.000000;0.014355
9464.000000;0.013605
9463.000000;0.013208
9462.000000;0.012888
9461.000000;0.012335
9460.000000;0.011589
9459.000000;0.010942
9458.000000;0.010567
9457.000000;0.010392
9456.000000;0.010265
9455.000000;0.010058
9454.000000;0.009654
9453.000000;0.009039
9452.000000;0.008431
9451.000000;0.008113
9450.000000;0.008087
9449.000000;0.008054
9448.000000;0.007817
9447.000000;0.007543
9446.000000;0.007524
9445.000000;0.007803
9444.000000;0.008184
9443.000000;0.008472
9442.000000;0.008572
9441.000000;0.008427
9440.000000;0.008072
9439.000000;0.007714
9438.000000;0.007571
9437.000000;0.007649
9436.000000;0.007780
9435.000000;0.007901
9434.000000;0.008126
9433.000000;0.008520
9432.000000;0.008953
9431.000000;0.009236
9430.000000;0.009314
9429.000000;0.009282
9428.000000;0.009275
9427.000000;0.009402
9426.000000;0.009713
9425.000000;0.010157
9424.000000;0.010645
9423.000000;0.011150
9422.000000;0.011731
9421.000000;0.012440
9420.000000;0.013296
9419.000000;0.014315
9418.000000;0.015437
9417.000000;0.016388
9416.000000;0.016796
9415.000000;0.016576
9414.000000;0.016125
9413.000000;0.016022
9412.000000;0.016575
9411.000000;0.017702
9410.000000;0.019125
9409.000000;0.020545
9408.000000;0.021709
9407.000000;0.022522
9406.000000;0.023130
9405.000000;0.023759
9404.000000;0.024440
9403.000000;0.025009
9402.000000;0.025405
9401.000000;0.025831
9400.000000;0.026523
9399.000000;0.027465
9398.000000;0.028446
9397.000000;0.029337
9396.000000;0.030207
9395.000000;0.031164
9394.000000;0.032216
9393.000000;0.033305
9392.000000;0.034431
9391.000000;0.035643
9390.000000;0.036937
9389.000000;0.038206
9388.000000;0.039299
9387.000000;0.040146
9386.000000;0.040829
9385.000000;0.041547
9384.000000;0.042474
9383.000000;0.043640
9382.000000;0.044923
9381.000000;0.046165
9380.000000;0.047288
9379.000000;0.048316
9378.000000;0.049312
9377.000000;0.050343
9376.000000;0.051487
9375.000000;0.052818
9374.000000;0.054346
9373.000000;0.055959
9372.000000;0.057471
9371.000000;0.058742
9370.000000;0.059769
9369.000000;0.060667
9368.000000;0.061587
9367.000000;0.062615
9366.000000;0.063749
9365.000000;0.064936
9364.000000;0.066144
9363.000000;0.067388
9362.000000;0.068690
9361.000000;0.070031
9360.000000;0.071359
9359.000000;0.072624
9358.000000;0.073785
9357.000000;0.074815
9356.000000;0.075756
9355.000000;0.076747
9354.000000;0.077921
9353.000000;0.079240
9352.000000;0.080485
9351.000000;0.081470
9350.000000;0.082244
9349.000000;0.083038
9348.000000;0.084041
9347.000000;0.085270
9346.000000;0.086665
9345.000000;0.088200
9344.000000;0.089844
9343.000000;0.091457
9342.000000;0.092813
9341.000000;0.093796
9340.000000;0.094541
9339.000000;0.095357
9338.000000;0.096484
9337.000000;0.097898
9336.000000;0.099368
9335.000000;0.100689
9334.000000;0.101886
9333.000000;0.103146
9332.000000;0.104578
9331.000000;0.106068
9330.000000;0.107432
9329.000000;0.108643
9328.000000;0.109824
9327.000000;0.111020
9326.000000;0.112096
9325.000000;0.112933
9324.000000;0.113649
9323.000000;0.114496
9322.000000;0.115587
9321.000000;0.116810
9320.000000;0.118024
9319.000000;0.119237
9318.000000;0.120560
9317.000000;0.122055
9316.000000;0.123676
9315.000000;0.125300
9314.000000;0.126773
9313.000000;0.127971
9312.000000;0.128886
9311.000000;0.129674
9310.000000;0.130572
9309.000000;0.131739
9308.000000;0.133144
9307.000000;0.134595
9306.000000;0.135885
9305.000000;0.136959
9304.000000;0.137957
9303.000000;0.139066
9302.000000;0.140342
9301.000000;0.141686
9300.000000;0.142966
9299.000000;0.144114
9298.000000;0.145129
9297.000000;0.146082
9296.000000;0.147109
9295.000000;0.148290
9294.000000;0.149534
9293.000000;0.150669
9292.000000;0.151674
9291.000000;0.152712
9290.000000;0.153898
9289.000000;0.155156
9288.000000;0.156386
9287.000000;0.157601
9286.000000;0.158796
9285.000000;0.159815
9284.000000;0.160540
9283.000000;0.161123
9282.000000;0.161857
9281.000000;0.162851
9280.000000;0.163995
9279.000000;0.165204
9278.000000;0.166478
9277.000000;0.167738
9276.000000;0.168823
9275.000000;0.169746
9274.000000;0.170731
9273.000000;0.171907
9272.000000;0.173113
9271.000000;0.174152
9270.000000;0.175087
9269.000000;0.176120
9268.000000;0.177283
9267.000000;0.178423
9266.000000;0.179446
9265.000000;0.180409
9264.000000;0.181381
9263.000000;0.182340
9262.000000;0.183262
9261.000000;0.184178
9260.000000;0.185132
9259.000000;0.186119
9258.000000;0.187091
9257.000000;0.187988
9256.000000;0.188775
9255.000000;0.189489
9254.000000;0.190254
9253.000000;0.191179
9252.000000;0.192246
9251.000000;0.193365
9250.000000;0.194493
9249.000000;0.195636
9248.000000;0.196756
9247.000000;0.197773
9246.000000;0.198674
9245.000000;0.199527
9244.000000;0.200371
9243.000000;0.201200
9242.000000;0.202056
9241.000000;0.203035
9240.000000;0.204136
9239.000000;0.205193
9238.000000;0.206049
9237.000000;0.206740
9236.000000;0.207434
9235.000000;0.208224
9234.000000;0.209072
9233.000000;0.209925
9232.000000;0.210797
9231.000000;0.211719
9230.000000;0.212676
9229.000000;0.213639
9228.000000;0.214603
9227.000000;0.215559
9226.000000;0.216478
9225.000000;0.217338
9224.000000;0.218150
9223.000000;0.218929
9222.000000;0.219658
9221.000000;0.220313
9220.000000;0.220911
9219.000000;0.221499
9218.000000;0.222110
9217.000000;0.222747
9216.000000;0.223418
9215.000000;0.224164
9214.000000;0.225038
9213.000000;0.226046
9212.000000;0.227120
9211.000000;0.228154
9210.000000;0.229087
9209.000000;0.229929
9208.000000;0.230710
9207.000000;0.231420
9206.000000;0.232027
9205.000000;0.232572
9204.000000;0.233208
9203.000000;0.234077
9202.000000;0.235154
9201.000000;0.236225
9200.000000;0.237062
9199.000000;0.237632
9198.000000;0.238131
9197.000000;0.238803
9196.000000;0.239735
9195.000000;0.240794
9194.000000;0.241772
9193.000000;0.242558
9192.000000;0.243196
9191.000000;0.243789
9190.000000;0.244379
9189.000000;0.244924
9188.000000;0.245381
9187.000000;0.245804
9186.000000;0.246317
9185.000000;0.246997
9184.000000;0.247777
9183.000000;0.248517
9182.000000;0.249181
9181.000000;0.249903
9180.000000;0.250830
9179.000000;0.251906
9178.000000;0.252876
9177.000000;0.253526
9176.000000;0.253913
9175.000000;0.254302
9174.000000;0.254905
9173.000000;0.255690
9172.000000;0.256456
9171.000000;0.257063
9170.000000;0.257579
9169.000000;0.258203
9168.000000;0.259059
9167.000000;0.260060
9166.000000;0.260980
9165.000000;0.261651
9164.000000;0.262087
9163.000000;0.262422
9162.000000;0.262781
9161.000000;0.263223
9160.000000;0.263769
9159.000000;0.264418
9158.000000;0.265121
9157.000000;0.265791
9156.000000;0.266377
9155.000000;0.266922
9154.000000;0.267502
9153.000000;0.268125
9152.000000;0.268705
9151.000000;0.269174
9150.000000;0.269600
9149.000000;0.270156
9148.000000;0.270945
9147.000000;0.271863
9146.000000;0.272680
9145.000000;0.273263
9144.000000;0.273673
9143.000000;0.274060
9142.000000;0.274505
9141.000000;0.275006
9140.000000;0.275550
9139.000000;0.276127
9138.000000;0.276691
9137.000000;0.277202
9136.000000;0.277705
9135.000000;0.278299
9134.000000;0.278980
9133.000000;0.279589
9132.000000;0.279979
9131.000000;0.280216
9130.000000;0.280539
9129.000000;0.281124
9128.000000;0.281927
9127.000000;0.282737
9126.000000;0.283355
9125.000000;0.283713
9124.000000;0.283904
9123.000000;0.284116
9122.000000;0.284503
9121.000000;0.285052
9120.000000;0.285619
9119.000000;0.286098
9118.000000;0.286547
9117.000000;0.287111
9116.000000;0.287838
9115.000000;0.288609
9114.000000;0.289260
9113.000000;0.289713
9112.000000;0.290009
9111.000000;0.290247
9110.000000;0.290540
9109.000000;0.290980
9108.000000;0.291572
9107.000000;0.292212
9106.000000;0.292757
9105.000000;0.293143
9104.000000;0.293438
9103.000000;0.293779
9102.000000;0.294263
9101.000000;0.294884
9100.000000;0.295546
9099.000000;0.296127
9098.000000;0.296553
9097.000000;0.296833
9096.000000;0.297040
9095.000000;0.297259
9094.000000;0.297557
9093.000000;0.297968
9092.000000;0.298482
9091.000000;0.299045
9090.000000;0.299589
9089.000000;0.300061
9088.000000;0.300425
9087.000000;0.300663
9086.000000;0.300804
9085.000000;0.300949
9084.000000;0.301222
9083.000000;0.301671
9082.000000;0.302225
9081.000000;0.302761
9080.000000;0.303184
9079.000000;0.303472
9078.000000;0.303667
9077.000000;0.303876
9076.000000;0.304218
9075.000000;0.304729
9074.000000;0.305300
9073.000000;0.305741
9072.000000;0.305941
9071.000000;0.305962
9070.000000;0.305982
9069.000000;0.306164
9068.000000;0.306558
9067.000000;0.307105
9066.000000;0.307696
9065.000000;0.308241
9064.000000;0.308696
9063.000000;0.309064
9062.000000;0.309374
9061.000000;0.309669
9060.000000;0.309992
9059.000000;0.310363
9058.000000;0.310769
9057.000000;0.311152
9056.000000;0.311450
9055.000000;0.311639
9054.000000;0.311754
9053.000000;0.311845
