Criado como novo conjunto de dados;"0307_DANIEL.spp","43744.3 Secs"
cm-1;Abs
10000.000000;1.038062
9999.000000;1.037086
9998.000000;1.036018
9997.000000;1.034765
9996.000000;1.033191
9995.000000;1.031390
9994.000000;1.029641
9993.000000;1.028074
9992.000000;1.026666
9991.000000;1.025389
9990.000000;1.024316
9989.000000;1.023527
9988.000000;1.022954
9987.000000;1.022270
9986.000000;1.021044
9985.000000;1.019180
9984.000000;1.017180
9983.000000;1.015720
9982.000000;1.014939
9981.000000;1.014306
9980.000000;1.013267
9979.000000;1.011836
9978.000000;1.010453
9977.000000;1.009377
9976.000000;1.008406
9975.000000;1.007170
9974.000000;1.005607
9973.000000;1.004054
9972.000000;1.002827
9971.000000;1.001801
9970.000000;1.000581
9969.000000;0.999069
9968.000000;0.997623
9967.000000;0.996517
9966.000000;0.995519
9965.000000;0.994211
9964.000000;0.992542
9963.000000;0.990806
9962.000000;0.989234
9961.000000;0.987888
9960.000000;0.986827
9959.000000;0.986028
9958.000000;0.985232
9957.000000;0.984164
9956.000000;0.982893
9955.000000;0.981705
9954.000000;0.980688
9953.000000;0.979732
9952.000000;0.978835
9951.000000;0.978057
9950.000000;0.977186
9949.000000;0.975829
9948.000000;0.973908
9947.000000;0.971778
9946.000000;0.969818
9945.000000;0.968210
9944.000000;0.967054
9943.000000;0.966312
9942.000000;0.965559
9941.000000;0.964253
9940.000000;0.962422
9939.000000;0.960733
9938.000000;0.959684
9937.000000;0.959044
9936.000000;0.958281
9935.000000;0.957227
9934.000000;0.956032
9933.000000;0.954733
9932.000000;0.953262
9931.000000;0.951727
9930.000000;0.950374
9929.000000;0.949268
9928.000000;0.948254
9927.000000;0.947202
9926.000000;0.946113
9925.000000;0.944984
9924.000000;0.943771
9923.000000;0.942489
9922.000000;0.941232
9921.000000;0.940047
9920.000000;0.938892
9919.000000;0.937737
9918.000000;0.936590
9917.000000;0.935362
9916.000000;0.933790
9915.000000;0.931676
9914.000000;0.929236
9913.000000;0.927089
9912.000000;0.925716
9911.000000;0.924968
9910.000000;0.924237
9909.000000;0.923116
9908.000000;0.921701
9907.000000;0.920231
9906.000000;0.918732
9905.000000;0.917167
9904.000000;0.915687
9903.000000;0.914501
9902.000000;0.913633
9901.000000;0.912983
9900.000000;0.912458
9899.000000;0.911810
9898.000000;0.910561
9897.000000;0.908449
9896.000000;0.905878
9895.000000;0.903618
9894.000000;0.902093
9893.000000;0.901188
9892.000000;0.900581
9891.000000;0.899946
9890.000000;0.898906
9889.000000;0.897249
9888.000000;0.895245
9887.000000;0.893427
9886.000000;0.891996
9885.000000;0.890675
9884.000000;0.889168
9883.000000;0.887449
9882.000000;0.885603
9881.000000;0.883726
9880.000000;0.882045
9879.000000;0.880772
9878.000000;0.879719
9877.000000;0.878418
9876.000000;0.876786
9875.000000;0.875338
9874.000000;0.874483
9873.000000;0.873903
9872.000000;0.872930
9871.000000;0.871352
9870.000000;0.869545
9869.000000;0.867926
9868.000000;0.866541
9867.000000;0.865195
9866.000000;0.863769
9865.000000;0.862350
9864.000000;0.861132
9863.000000;0.860174
9862.000000;0.859228
9861.000000;0.857906
9860.000000;0.856072
9859.000000;0.853959
9858.000000;0.851866
9857.000000;0.849857
9856.000000;0.847846
9855.000000;0.845861
9854.000000;0.844083
9853.000000;0.842701
9852.000000;0.841824
9851.000000;0.841416
9850.000000;0.841180
9849.000000;0.840556
9848.000000;0.839070
9847.000000;0.836770
9846.000000;0.834265
9845.000000;0.832238
9844.000000;0.830907
9843.000000;0.829934
9842.000000;0.828857
9841.000000;0.827526
9840.000000;0.826092
9839.000000;0.824652
9838.000000;0.823111
9837.000000;0.821423
9836.000000;0.819799
9835.000000;0.818457
9834.000000;0.817276
9833.000000;0.815906
9832.000000;0.814196
9831.000000;0.812360
9830.000000;0.810685
9829.000000;0.809209
9828.000000;0.807738
9827.000000;0.806090
9826.000000;0.804266
9825.000000;0.802388
9824.000000;0.800548
9823.000000;0.798756
9822.000000;0.797069
9821.000000;0.795651
9820.000000;0.794564
9819.000000;0.793526
9818.000000;0.792130
9817.000000;0.790347
9816.000000;0.788580
9815.000000;0.787107
9814.000000;0.785707
9813.000000;0.784029
9812.000000;0.782116
9811.000000;0.780310
9810.000000;0.778778
9809.000000;0.777422
9808.000000;0.776157
9807.000000;0.774990
9806.000000;0.773818
9805.000000;0.772402
9804.000000;0.770601
9803.000000;0.768508
9802.000000;0.766367
9801.000000;0.764432
9800.000000;0.762819
9799.000000;0.761384
9798.000000;0.759832
9797.000000;0.758077
9796.000000;0.756352
9795.000000;0.754858
9794.000000;0.753485
9793.000000;0.752044
9792.000000;0.750557
9791.000000;0.749057
9790.000000;0.747351
9789.000000;0.745313
9788.000000;0.743271
9787.000000;0.741695
9786.000000;0.740575
9785.000000;0.739451
9784.000000;0.738037
9783.000000;0.736459
9782.000000;0.734865
9781.000000;0.733162
9780.000000;0.731244
9779.000000;0.729226
9778.000000;0.727345
9777.000000;0.725780
9776.000000;0.724538
9775.000000;0.723343
9774.000000;0.721739
9773.000000;0.719571
9772.000000;0.717299
9771.000000;0.715537
9770.000000;0.714320
9769.000000;0.713140
9768.000000;0.711659
9767.000000;0.709995
9766.000000;0.708282
9765.000000;0.706355
9764.000000;0.704069
9763.000000;0.701597
9762.000000;0.699243
9761.000000;0.697202
9760.000000;0.695614
9759.000000;0.694562
9758.000000;0.693826
9757.000000;0.692887
9756.000000;0.691381
9755.000000;0.689419
9754.000000;0.687344
9753.000000;0.685343
9752.000000;0.683436
9751.000000;0.681632
9750.000000;0.679902
9749.000000;0.678120
9748.000000;0.676197
9747.000000;0.674234
9746.000000;0.672430
9745.000000;0.670864
9744.000000;0.669412
9743.000000;0.667825
9742.000000;0.665909
9741.000000;0.663726
9740.000000;0.661585
9739.000000;0.659747
9738.000000;0.658153
9737.000000;0.656561
9736.000000;0.654889
9735.000000;0.653236
9734.000000;0.651621
9733.000000;0.649903
9732.000000;0.647990
9731.000000;0.645939
9730.000000;0.643822
9729.000000;0.641681
9728.000000;0.639614
9727.000000;0.637715
9726.000000;0.635906
9725.000000;0.634022
9724.000000;0.632079
9723.000000;0.630260
9722.000000;0.628592
9721.000000;0.626812
9720.000000;0.624662
9719.000000;0.622174
9718.000000;0.619650
9717.000000;0.617458
9716.000000;0.615856
9715.000000;0.614825
9714.000000;0.614008
9713.000000;0.612931
9712.000000;0.611335
9711.000000;0.609275
9710.000000;0.606963
9709.000000;0.604650
9708.000000;0.602553
9707.000000;0.600700
9706.000000;0.598898
9705.000000;0.597018
9704.000000;0.595201
9703.000000;0.593576
9702.000000;0.591914
9701.000000;0.589895
9700.000000;0.587646
9699.000000;0.585617
9698.000000;0.583928
9697.000000;0.582215
9696.000000;0.580170
9695.000000;0.577893
9694.000000;0.575594
9693.000000;0.573318
9692.000000;0.571109
9691.000000;0.569136
9690.000000;0.567439
9689.000000;0.565791
9688.000000;0.564006
9687.000000;0.562214
9686.000000;0.560616
9685.000000;0.559128
9684.000000;0.557448
9683.000000;0.555385
9682.000000;0.552997
9681.000000;0.550495
9680.000000;0.548085
9679.000000;0.545841
9678.000000;0.543698
9677.000000;0.541616
9676.000000;0.539695
9675.000000;0.537969
9674.000000;0.536153
9673.000000;0.533901
9672.000000;0.531324
9671.000000;0.528954
9670.000000;0.527071
9669.000000;0.525353
9668.000000;0.523344
9667.000000;0.521040
9666.000000;0.518815
9665.000000;0.516933
9664.000000;0.515296
9663.000000;0.513590
9662.000000;0.511520
9661.000000;0.509004
9660.000000;0.506261
9659.000000;0.503630
9658.000000;0.501277
9657.000000;0.499137
9656.000000;0.497114
9655.000000;0.495163
9654.000000;0.493162
9653.000000;0.490945
9652.000000;0.488556
9651.000000;0.486301
9650.000000;0.484416
9649.000000;0.482818
9648.000000;0.481232
9647.000000;0.479410
9646.000000;0.477211
9645.000000;0.474677
9644.000000;0.472114
9643.000000;0.469876
9642.000000;0.467949
9641.000000;0.465941
9640.000000;0.463596
9639.000000;0.461127
9638.000000;0.458889
9637.000000;0.456910
9636.000000;0.454949
9635.000000;0.452863
9634.000000;0.450709
9633.000000;0.448549
9632.000000;0.446362
9631.000000;0.444109
9630.000000;0.441770
9629.000000;0.439327
9628.000000;0.436788
9627.000000;0.434212
9626.000000;0.431659
9625.000000;0.429187
9624.000000;0.426908
9623.000000;0.424920
9622.000000;0.423131
9621.000000;0.421263
9620.000000;0.419133
9619.000000;0.416834
9618.000000;0.414555
9617.000000;0.412340
9616.000000;0.410120
9615.000000;0.407894
9614.000000;0.405723
9613.000000;0.403589
9612.000000;0.401361
9611.000000;0.398922
9610.000000;0.396282
9609.000000;0.393585
9608.000000;0.391018
9607.000000;0.388683
9606.000000;0.386556
9605.000000;0.384544
9604.000000;0.382553
9603.000000;0.380473
9602.000000;0.378199
9601.000000;0.375769
9600.000000;0.373392
9599.000000;0.371211
9598.000000;0.369109
9597.000000;0.366921
9596.000000;0.364736
9595.000000;0.362756
9594.000000;0.360888
9593.000000;0.358748
9592.000000;0.356127
9591.000000;0.353223
9590.000000;0.350363
9589.000000;0.347704
9588.000000;0.345276
9587.000000;0.343079
9586.000000;0.340989
9585.000000;0.338765
9584.000000;0.336294
9583.000000;0.333730
9582.000000;0.331278
9581.000000;0.328977
9580.000000;0.326751
9579.000000;0.324532
9578.000000;0.322238
9577.000000;0.319762
9576.000000;0.317131
9575.000000;0.314565
9574.000000;0.312235
9573.000000;0.310060
9572.000000;0.307853
9571.000000;0.305583
9570.000000;0.303390
9569.000000;0.301380
9568.000000;0.299509
9567.000000;0.297618
9566.000000;0.295539
9565.000000;0.293188
9564.000000;0.290640
9563.000000;0.288068
9562.000000;0.285584
9561.000000;0.283164
9560.000000;0.280729
9559.000000;0.278237
9558.000000;0.275690
9557.000000;0.273149
9556.000000;0.270734
9555.000000;0.268523
9554.000000;0.266416
9553.000000;0.264188
9552.000000;0.261722
9551.000000;0.259125
9550.000000;0.256591
9549.000000;0.254211
9548.000000;0.251934
9547.000000;0.249633
9546.000000;0.247243
9545.000000;0.244869
9544.000000;0.242724
9543.000000;0.240847
9542.000000;0.238958
9541.000000;0.236740
9540.000000;0.234228
9539.000000;0.231763
9538.000000;0.229589
9537.000000;0.227653
9536.000000;0.225793
9535.000000;0.223908
9534.000000;0.221923
9533.000000;0.219786
9532.000000;0.217552
9531.000000;0.215335
9530.000000;0.213148
9529.000000;0.210951
9528.000000;0.208837
9527.000000;0.206976
9526.000000;0.205327
9525.000000;0.203612
9524.000000;0.201638
9523.000000;0.199438
9522.000000;0.197070
9521.000000;0.194517
9520.000000;0.191895
9519.000000;0.189502
9518.000000;0.187513
9517.000000;0.185787
9516.000000;0.184122
9515.000000;0.182498
9514.000000;0.180919
9513.000000;0.179224
9512.000000;0.177271
9511.000000;0.175188
9510.000000;0.173195
9509.000000;0.171308
9508.000000;0.169413
9507.000000;0.167558
9506.000000;0.165900
9505.000000;0.164388
9504.000000;0.162768
9503.000000;0.160951
9502.000000;0.159154
9501.000000;0.157577
9500.000000;0.156104
9499.000000;0.154477
9498.000000;0.152662
9497.000000;0.150885
9496.000000;0.149299
9495.000000;0.147769
9494.000000;0.146076
9493.000000;0.144241
9492.000000;0.142526
9491.000000;0.141110
9490.000000;0.139906
9489.000000;0.138750
9488.000000;0.137634
9487.000000;0.136624
9486.000000;0.135607
9485.000000;0.134335
9484.000000;0.132731
9483.000000;0.130985
9482.000000;0.129311
9481.000000;0.127746
9480.000000;0.126274
9479.000000;0.125008
9478.000000;0.124108
9477.000000;0.123564
9476.000000;0.123154
9475.000000;0.122620
9474.000000;0.121850
9473.000000;0.120899
9472.000000;0.119853
9471.000000;0.118702
9470.000000;0.117375
9469.000000;0.115952
9468.000000;0.114716
9467.000000;0.113888
9466.000000;0.113336
9465.000000;0.112718
9464.000000;0.111930
9463.000000;0.111226
9462.000000;0.110850
9461.000000;0.110699
9460.000000;0.110461
9459.000000;0.109962
9458.000000;0.109276
9457.000000;0.108580
9456.000000;0.108005
9455.000000;0.107569
9454.000000;0.107185
9453.000000;0.106749
9452.000000;0.106267
9451.000000;0.105824
9450.000000;0.105399
9449.000000;0.104848
9448.000000;0.104156
9447.000000;0.103608
9446.000000;0.103547
9445.000000;0.103970
9444.000000;0.104487
9443.000000;0.104680
9442.000000;0.104461
9441.000000;0.104083
9440.000000;0.103879
9439.000000;0.103987
9438.000000;0.104269
9437.000000;0.104472
9436.000000;0.104477
9435.000000;0.104365
9434.000000;0.104278
9433.000000;0.104299
9432.000000;0.104490
9431.000000;0.104914
9430.000000;0.105509
9429.000000;0.106003
9428.000000;0.106114
9427.000000;0.105887
9426.000000;0.105727
9425.000000;0.106036
9424.000000;0.106878
9423.000000;0.107987
9422.000000;0.109033
9421.000000;0.109818
9420.000000;0.110294
9419.000000;0.110526
9418.000000;0.110666
9417.000000;0.110866
9416.000000;0.111161
9415.000000;0.111464
9414.000000;0.111750
9413.000000;0.112168
9412.000000;0.112889
9411.000000;0.113861
9410.000000;0.114810
9409.000000;0.115535
9408.000000;0.116107
9407.000000;0.116731
9406.000000;0.117494
9405.000000;0.118305
9404.000000;0.119039
9403.000000;0.119657
9402.000000;0.120232
9401.000000;0.120922
9400.000000;0.121861
9399.000000;0.122997
9398.000000;0.124067
9397.000000;0.124817
9396.000000;0.125236
9395.000000;0.125536
9394.000000;0.125954
9393.000000;0.126622
9392.000000;0.127598
9391.000000;0.128870
9390.000000;0.130291
9389.000000;0.131568
9388.000000;0.132446
9387.000000;0.132927
9386.000000;0.133323
9385.000000;0.134023
9384.000000;0.135154
9383.000000;0.136494
9382.000000;0.137766
9381.000000;0.138952
9380.000000;0.140204
9379.000000;0.141510
9378.000000;0.142668
9377.000000;0.143627
9376.000000;0.144639
9375.000000;0.145944
9374.000000;0.147467
9373.000000;0.148959
9372.000000;0.150317
9371.000000;0.151581
9370.000000;0.152742
9369.000000;0.153758
9368.000000;0.154696
9367.000000;0.155675
9366.000000;0.156685
9365.000000;0.157619
9364.000000;0.158459
9363.000000;0.159295
9362.000000;0.160189
9361.000000;0.161162
9360.000000;0.162254
9359.000000;0.163469
9358.000000;0.164697
9357.000000;0.165861
9356.000000;0.167085
9355.000000;0.168549
9354.000000;0.170211
9353.000000;0.171816
9352.000000;0.173183
9351.000000;0.174341
9350.000000;0.175394
9349.000000;0.176417
9348.000000;0.177484
9347.000000;0.178633
9346.000000;0.179781
9345.000000;0.180794
9344.000000;0.181656
9343.000000;0.182451
9342.000000;0.183213
9341.000000;0.183945
9340.000000;0.184766
9339.000000;0.185853
9338.000000;0.187224
9337.000000;0.188691
9336.000000;0.190059
9335.000000;0.191257
9334.000000;0.192307
9333.000000;0.193323
9332.000000;0.194509
9331.000000;0.195962
9330.000000;0.197460
9329.000000;0.198665
9328.000000;0.199542
9327.000000;0.200414
9326.000000;0.201549
9325.000000;0.202890
9324.000000;0.204237
9323.000000;0.205493
9322.000000;0.206647
9321.000000;0.207693
9320.000000;0.208683
9319.000000;0.209750
9318.000000;0.210976
9317.000000;0.212331
9316.000000;0.213775
9315.000000;0.215268
9314.000000;0.216649
9313.000000;0.217708
9312.000000;0.218472
9311.000000;0.219249
9310.000000;0.220271
9309.000000;0.221448
9308.000000;0.222574
9307.000000;0.223624
9306.000000;0.224710
9305.000000;0.225856
9304.000000;0.226981
9303.000000;0.228039
9302.000000;0.229046
9301.000000;0.230052
9300.000000;0.231149
9299.000000;0.232442
9298.000000;0.233865
9297.000000;0.235161
9296.000000;0.236154
9295.000000;0.236986
9294.000000;0.237948
9293.000000;0.239148
9292.000000;0.240472
9291.000000;0.241786
9290.000000;0.243017
9289.000000;0.244079
9288.000000;0.244909
9287.000000;0.245609
9286.000000;0.246384
9285.000000;0.247319
9284.000000;0.248318
9283.000000;0.249300
9282.000000;0.250343
9281.000000;0.251542
9280.000000;0.252826
9279.000000;0.254016
9278.000000;0.255001
9277.000000;0.255769
9276.000000;0.256341
9275.000000;0.256798
9274.000000;0.257369
9273.000000;0.258320
9272.000000;0.259653
9271.000000;0.261035
9270.000000;0.262136
9269.000000;0.263023
9268.000000;0.264065
9267.000000;0.265461
9266.000000;0.267007
9265.000000;0.268366
9264.000000;0.269426
9263.000000;0.270311
9262.000000;0.271161
9261.000000;0.272040
9260.000000;0.272963
9259.000000;0.273884
9258.000000;0.274692
9257.000000;0.275365
9256.000000;0.276093
9255.000000;0.277113
9254.000000;0.278406
9253.000000;0.279683
9252.000000;0.280702
9251.000000;0.281493
9250.000000;0.282234
9249.000000;0.283002
9248.000000;0.283717
9247.000000;0.284291
9246.000000;0.284779
9245.000000;0.285355
9244.000000;0.286161
9243.000000;0.287175
9242.000000;0.288258
9241.000000;0.289328
9240.000000;0.290415
9239.000000;0.291541
9238.000000;0.292621
9237.000000;0.293551
9236.000000;0.294304
9235.000000;0.294905
9234.000000;0.295398
9233.000000;0.295926
9232.000000;0.296721
9231.000000;0.297875
9230.000000;0.299161
9229.000000;0.300220
9228.000000;0.300886
9227.000000;0.301254
9226.000000;0.301502
9225.000000;0.301820
9224.000000;0.302424
9223.000000;0.303440
9222.000000;0.304715
9221.000000;0.305894
9220.000000;0.306761
9219.000000;0.307401
9218.000000;0.308012
9217.000000;0.308663
9216.000000;0.309290
9215.000000;0.309854
9214.000000;0.310414
9213.000000;0.311091
9212.000000;0.311959
9211.000000;0.312973
9210.000000;0.314001
9209.000000;0.314953
9208.000000;0.315826
9207.000000;0.316608
9206.000000;0.317230
9205.000000;0.317689
9204.000000;0.318126
9203.000000;0.318681
9202.000000;0.319331
9201.000000;0.319996
9200.000000;0.320711
9199.000000;0.321581
9198.000000;0.322598
9197.000000;0.323657
9196.000000;0.324686
9195.000000;0.325622
9194.000000;0.326330
9193.000000;0.326718
9192.000000;0.326941
9191.000000;0.327297
9190.000000;0.327923
9189.000000;0.328730
9188.000000;0.329612
9187.000000;0.330542
9186.000000;0.331461
9185.000000;0.332269
9184.000000;0.332985
9183.000000;0.333771
9182.000000;0.334695
9181.000000;0.335618
9180.000000;0.336364
9179.000000;0.336907
9178.000000;0.337317
9177.000000;0.337644
9176.000000;0.337942
9175.000000;0.338298
9174.000000;0.338755
9173.000000;0.339253
9172.000000;0.339708
9171.000000;0.340098
9170.000000;0.340460
9169.000000;0.340858
9168.000000;0.341371
9167.000000;0.342055
9166.000000;0.342873
9165.000000;0.343726
9164.000000;0.344531
9163.000000;0.345249
9162.000000;0.345845
9161.000000;0.346318
9160.000000;0.346751
9159.000000;0.347242
9158.000000;0.347791
9157.000000;0.348333
9156.000000;0.348872
9155.000000;0.349488
9154.000000;0.350217
9153.000000;0.350996
9152.000000;0.351750
9151.000000;0.352430
9150.000000;0.352979
9149.000000;0.353352
9148.000000;0.353577
9147.000000;0.353746
9146.000000;0.353953
9145.000000;0.354289
9144.000000;0.354846
9143.000000;0.355625
9142.000000;0.356478
9141.000000;0.357240
9140.000000;0.357904
9139.000000;0.358547
9138.000000;0.359140
9137.000000;0.359543
9136.000000;0.359709
9135.000000;0.359755
9134.000000;0.359841
9133.000000;0.360067
9132.000000;0.360479
9131.000000;0.361061
9130.000000;0.361723
9129.000000;0.362374
9128.000000;0.363003
9127.000000;0.363610
9126.000000;0.364126
9125.000000;0.364505
9124.000000;0.364841
9123.000000;0.365260
9122.000000;0.365747
9121.000000;0.366209
9120.000000;0.366680
9119.000000;0.367252
9118.000000;0.367847
9117.000000;0.368255
9116.000000;0.368442
9115.000000;0.368645
9114.000000;0.369088
9113.000000;0.369750
9112.000000;0.370433
9111.000000;0.370966
9110.000000;0.371303
9109.000000;0.371537
9108.000000;0.371844
9107.000000;0.372318
9106.000000;0.372835
9105.000000;0.373198
9104.000000;0.373399
9103.000000;0.373607
9102.000000;0.373916
9101.000000;0.374248
9100.000000;0.374540
9099.000000;0.374851
9098.000000;0.375232
9097.000000;0.375622
9096.000000;0.375947
9095.000000;0.376211
9094.000000;0.376460
9093.000000;0.376728
9092.000000;0.377060
9091.000000;0.377482
9090.000000;0.377948
9089.000000;0.378382
9088.000000;0.378781
9087.000000;0.379174
9086.000000;0.379528
9085.000000;0.379822
9084.000000;0.380175
9083.000000;0.380729
9082.000000;0.381401
9081.000000;0.381932
9080.000000;0.382208
9079.000000;0.382364
9078.000000;0.382552
9077.000000;0.382778
9076.000000;0.383002
9075.000000;0.383262
9074.000000;0.383625
9073.000000;0.384117
9072.000000;0.384720
9071.000000;0.385332
9070.000000;0.385743
9069.000000;0.385841
9068.000000;0.385809
9067.000000;0.385942
9066.000000;0.386240
9065.000000;0.386425
9064.000000;0.386387
9063.000000;0.386381
9062.000000;0.386667
9061.000000;0.387191
9060.000000;0.387757
9059.000000;0.388326
9058.000000;0.388953
9057.000000;0.389553
9056.000000;0.389934
9055.000000;0.390010
9054.000000;0.389859
9053.000000;0.389633
