Criado como novo conjunto de dados;"0307_DANIEL.spp","44824.1 Secs"
cm-1;Abs
10000.000000;1.108768
9999.000000;1.107634
9998.000000;1.106281
9997.000000;1.105059
9996.000000;1.103997
9995.000000;1.102754
9994.000000;1.101143
9993.000000;1.099467
9992.000000;1.098273
9991.000000;1.097888
9990.000000;1.098126
9989.000000;1.098302
9988.000000;1.097600
9987.000000;1.095681
9986.000000;1.092952
9985.000000;1.090164
9984.000000;1.087812
9983.000000;1.086024
9982.000000;1.084816
9981.000000;1.084147
9980.000000;1.083738
9979.000000;1.083158
9978.000000;1.082197
9977.000000;1.081008
9976.000000;1.079812
9975.000000;1.078645
9974.000000;1.077464
9973.000000;1.076300
9972.000000;1.075210
9971.000000;1.074180
9970.000000;1.073106
9969.000000;1.071792
9968.000000;1.070035
9967.000000;1.067929
9966.000000;1.066053
9965.000000;1.065020
9964.000000;1.064752
9963.000000;1.064455
9962.000000;1.063476
9961.000000;1.061949
9960.000000;1.060420
9959.000000;1.059087
9958.000000;1.057716
9957.000000;1.056131
9956.000000;1.054450
9955.000000;1.052886
9954.000000;1.051592
9953.000000;1.050687
9952.000000;1.050189
9951.000000;1.049850
9950.000000;1.049261
9949.000000;1.048187
9948.000000;1.046702
9947.000000;1.045013
9946.000000;1.043285
9945.000000;1.041639
9944.000000;1.040131
9943.000000;1.038675
9942.000000;1.037137
9941.000000;1.035544
9940.000000;1.034074
9939.000000;1.032807
9938.000000;1.031663
9937.000000;1.030601
9936.000000;1.029716
9935.000000;1.029050
9934.000000;1.028436
9933.000000;1.027660
9932.000000;1.026644
9931.000000;1.025374
9930.000000;1.023786
9929.000000;1.021920
9928.000000;1.020098
9927.000000;1.018704
9926.000000;1.017746
9925.000000;1.016780
9924.000000;1.015388
9923.000000;1.013667
9922.000000;1.012138
9921.000000;1.011155
9920.000000;1.010459
9919.000000;1.009399
9918.000000;1.007643
9917.000000;1.005597
9916.000000;1.003998
9915.000000;1.003131
9914.000000;1.002563
9913.000000;1.001671
9912.000000;1.000277
9911.000000;0.998670
9910.000000;0.997185
9909.000000;0.995928
9908.000000;0.994827
9907.000000;0.993732
9906.000000;0.992484
9905.000000;0.991044
9904.000000;0.989558
9903.000000;0.988210
9902.000000;0.986990
9901.000000;0.985745
9900.000000;0.984435
9899.000000;0.983163
9898.000000;0.981918
9897.000000;0.980486
9896.000000;0.978734
9895.000000;0.976824
9894.000000;0.975041
9893.000000;0.973515
9892.000000;0.972210
9891.000000;0.971049
9890.000000;0.969882
9889.000000;0.968429
9888.000000;0.966514
9887.000000;0.964375
9886.000000;0.962591
9885.000000;0.961573
9884.000000;0.961188
9883.000000;0.960870
9882.000000;0.960046
9881.000000;0.958512
9880.000000;0.956522
9879.000000;0.954588
9878.000000;0.953106
9877.000000;0.952102
9876.000000;0.951270
9875.000000;0.950254
9874.000000;0.948890
9873.000000;0.947238
9872.000000;0.945501
9871.000000;0.943882
9870.000000;0.942449
9869.000000;0.941052
9868.000000;0.939462
9867.000000;0.937631
9866.000000;0.935825
9865.000000;0.934433
9864.000000;0.933615
9863.000000;0.933098
9862.000000;0.932345
9861.000000;0.930978
9860.000000;0.929092
9859.000000;0.927136
9858.000000;0.925456
9857.000000;0.924003
9856.000000;0.922498
9855.000000;0.920802
9854.000000;0.919047
9853.000000;0.917451
9852.000000;0.916146
9851.000000;0.915162
9850.000000;0.914409
9849.000000;0.913637
9848.000000;0.912549
9847.000000;0.911041
9846.000000;0.909316
9845.000000;0.907667
9844.000000;0.906182
9843.000000;0.904682
9842.000000;0.902915
9841.000000;0.900808
9840.000000;0.898570
9839.000000;0.896542
9838.000000;0.894899
9837.000000;0.893485
9836.000000;0.891997
9835.000000;0.890335
9834.000000;0.888734
9833.000000;0.887494
9832.000000;0.886634
9831.000000;0.885817
9830.000000;0.884571
9829.000000;0.882619
9828.000000;0.880097
9827.000000;0.877499
9826.000000;0.875365
9825.000000;0.873923
9824.000000;0.872987
9823.000000;0.872174
9822.000000;0.871171
9821.000000;0.869848
9820.000000;0.868210
9819.000000;0.866309
9818.000000;0.864194
9817.000000;0.861953
9816.000000;0.859808
9815.000000;0.858074
9814.000000;0.856885
9813.000000;0.856003
9812.000000;0.855056
9811.000000;0.853984
9810.000000;0.853021
9809.000000;0.852180
9808.000000;0.851003
9807.000000;0.849072
9806.000000;0.846641
9805.000000;0.844465
9804.000000;0.843029
9803.000000;0.842106
9802.000000;0.841068
9801.000000;0.839453
9800.000000;0.837249
9799.000000;0.834852
9798.000000;0.832792
9797.000000;0.831349
9796.000000;0.830337
9795.000000;0.829315
9794.000000;0.828026
9793.000000;0.826531
9792.000000;0.824936
9791.000000;0.823197
9790.000000;0.821258
9789.000000;0.819236
9788.000000;0.817320
9787.000000;0.815573
9786.000000;0.813917
9785.000000;0.812242
9784.000000;0.810450
9783.000000;0.808497
9782.000000;0.806513
9781.000000;0.804775
9780.000000;0.803408
9779.000000;0.802181
9778.000000;0.800729
9777.000000;0.798934
9776.000000;0.796929
9775.000000;0.794821
9774.000000;0.792638
9773.000000;0.790562
9772.000000;0.788897
9771.000000;0.787645
9770.000000;0.786316
9769.000000;0.784398
9768.000000;0.781966
9767.000000;0.779622
9766.000000;0.777875
9765.000000;0.776715
9764.000000;0.775745
9763.000000;0.774563
9762.000000;0.773014
9761.000000;0.771243
9760.000000;0.769546
9759.000000;0.768073
9758.000000;0.766646
9757.000000;0.764961
9756.000000;0.762981
9755.000000;0.760973
9754.000000;0.759138
9753.000000;0.757402
9752.000000;0.755660
9751.000000;0.754020
9750.000000;0.752584
9749.000000;0.751149
9748.000000;0.749352
9747.000000;0.747102
9746.000000;0.744665
9745.000000;0.742339
9744.000000;0.740239
9743.000000;0.738385
9742.000000;0.736746
9741.000000;0.735130
9740.000000;0.733285
9739.000000;0.731233
9738.000000;0.729339
9737.000000;0.727870
9736.000000;0.726607
9735.000000;0.725079
9734.000000;0.723101
9733.000000;0.720920
9732.000000;0.718885
9731.000000;0.717125
9730.000000;0.715537
9729.000000;0.713922
9728.000000;0.712122
9727.000000;0.710178
9726.000000;0.708368
9725.000000;0.706964
9724.000000;0.705890
9723.000000;0.704700
9722.000000;0.702955
9721.000000;0.700572
9720.000000;0.697858
9719.000000;0.695304
9718.000000;0.693328
9717.000000;0.692012
9716.000000;0.690973
9715.000000;0.689591
9714.000000;0.687509
9713.000000;0.684908
9712.000000;0.682275
9711.000000;0.679987
9710.000000;0.678134
9709.000000;0.676600
9708.000000;0.675170
9707.000000;0.673601
9706.000000;0.671739
9705.000000;0.669606
9704.000000;0.667336
9703.000000;0.665043
9702.000000;0.662788
9701.000000;0.660619
9700.000000;0.658558
9699.000000;0.656583
9698.000000;0.654670
9697.000000;0.652826
9696.000000;0.651049
9695.000000;0.649280
9694.000000;0.647456
9693.000000;0.645572
9692.000000;0.643663
9691.000000;0.641800
9690.000000;0.640112
9689.000000;0.638656
9688.000000;0.637135
9687.000000;0.634950
9686.000000;0.631843
9685.000000;0.628432
9684.000000;0.625777
9683.000000;0.624322
9682.000000;0.623478
9681.000000;0.622316
9680.000000;0.620467
9679.000000;0.618209
9678.000000;0.615926
9677.000000;0.613771
9676.000000;0.611731
9675.000000;0.609736
9674.000000;0.607702
9673.000000;0.605631
9672.000000;0.603629
9671.000000;0.601670
9670.000000;0.599451
9669.000000;0.596739
9668.000000;0.593819
9667.000000;0.591324
9666.000000;0.589563
9665.000000;0.588200
9664.000000;0.586649
9663.000000;0.584588
9662.000000;0.582086
9661.000000;0.579465
9660.000000;0.577150
9659.000000;0.575423
9658.000000;0.574138
9657.000000;0.572788
9656.000000;0.570963
9655.000000;0.568652
9654.000000;0.566067
9653.000000;0.563392
9652.000000;0.560828
9651.000000;0.558633
9650.000000;0.556869
9649.000000;0.555243
9648.000000;0.553409
9647.000000;0.551351
9646.000000;0.549278
9645.000000;0.547257
9644.000000;0.545194
9643.000000;0.543091
9642.000000;0.541040
9641.000000;0.538948
9640.000000;0.536541
9639.000000;0.533718
9638.000000;0.530705
9637.000000;0.527814
9636.000000;0.525219
9635.000000;0.523009
9634.000000;0.521225
9633.000000;0.519725
9632.000000;0.518172
9631.000000;0.516295
9630.000000;0.514105
9629.000000;0.511772
9628.000000;0.509417
9627.000000;0.507089
9626.000000;0.504819
9625.000000;0.502569
9624.000000;0.500184
9623.000000;0.497524
9622.000000;0.494646
9621.000000;0.491777
9620.000000;0.489131
9619.000000;0.486768
9618.000000;0.484578
9617.000000;0.482385
9616.000000;0.480134
9615.000000;0.477998
9614.000000;0.476239
9613.000000;0.474907
9612.000000;0.473700
9611.000000;0.472141
9610.000000;0.469923
9609.000000;0.467169
9608.000000;0.464411
9607.000000;0.462192
9606.000000;0.460503
9605.000000;0.458702
9604.000000;0.456192
9603.000000;0.453152
9602.000000;0.450315
9601.000000;0.448042
9600.000000;0.445969
9599.000000;0.443653
9598.000000;0.441164
9597.000000;0.438748
9596.000000;0.436267
9595.000000;0.433412
9594.000000;0.430321
9593.000000;0.427517
9592.000000;0.425247
9591.000000;0.423236
9590.000000;0.421143
9589.000000;0.418957
9588.000000;0.416838
9587.000000;0.414842
9586.000000;0.412909
9585.000000;0.410925
9584.000000;0.408671
9583.000000;0.405981
9582.000000;0.403059
9581.000000;0.400431
9580.000000;0.398366
9579.000000;0.396501
9578.000000;0.394244
9577.000000;0.391454
9576.000000;0.388523
9575.000000;0.385875
9574.000000;0.383608
9573.000000;0.381581
9572.000000;0.379613
9571.000000;0.377540
9570.000000;0.375253
9569.000000;0.372778
9568.000000;0.370254
9567.000000;0.367790
9566.000000;0.365379
9565.000000;0.362968
9564.000000;0.360558
9563.000000;0.358209
9562.000000;0.356003
9561.000000;0.354024
9560.000000;0.352300
9559.000000;0.350709
9558.000000;0.348983
9557.000000;0.346881
9556.000000;0.344386
9555.000000;0.341738
9554.000000;0.339231
9553.000000;0.336964
9552.000000;0.334763
9551.000000;0.332385
9550.000000;0.329790
9549.000000;0.327154
9548.000000;0.324632
9547.000000;0.322182
9546.000000;0.319689
9545.000000;0.317185
9544.000000;0.314826
9543.000000;0.312678
9542.000000;0.310649
9541.000000;0.308628
9540.000000;0.306581
9539.000000;0.304467
9538.000000;0.302184
9537.000000;0.299706
9536.000000;0.297210
9535.000000;0.294947
9534.000000;0.293001
9533.000000;0.291235
9532.000000;0.289452
9531.000000;0.287528
9530.000000;0.285411
9529.000000;0.283128
9528.000000;0.280860
9527.000000;0.278876
9526.000000;0.277275
9525.000000;0.275823
9524.000000;0.274127
9523.000000;0.271980
9522.000000;0.269491
9521.000000;0.266927
9520.000000;0.264499
9519.000000;0.262305
9518.000000;0.260350
9517.000000;0.258555
9516.000000;0.256788
9515.000000;0.254932
9514.000000;0.252930
9513.000000;0.250781
9512.000000;0.248539
9511.000000;0.246332
9510.000000;0.244291
9509.000000;0.242444
9508.000000;0.240724
9507.000000;0.239107
9506.000000;0.237646
9505.000000;0.236318
9504.000000;0.234921
9503.000000;0.233252
9502.000000;0.231347
9501.000000;0.229427
9500.000000;0.227618
9499.000000;0.225825
9498.000000;0.223938
9497.000000;0.222058
9496.000000;0.220433
9495.000000;0.219179
9494.000000;0.218139
9493.000000;0.217011
9492.000000;0.215599
9491.000000;0.213949
9490.000000;0.212247
9489.000000;0.210646
9488.000000;0.209173
9487.000000;0.207797
9486.000000;0.206500
9485.000000;0.205252
9484.000000;0.203943
9483.000000;0.202425
9482.000000;0.200686
9481.000000;0.198937
9480.000000;0.197502
9479.000000;0.196551
9478.000000;0.195961
9477.000000;0.195403
9476.000000;0.194624
9475.000000;0.193617
9474.000000;0.192548
9473.000000;0.191521
9472.000000;0.190470
9471.000000;0.189310
9470.000000;0.188102
9469.000000;0.187024
9468.000000;0.186195
9467.000000;0.185589
9466.000000;0.185119
9465.000000;0.184716
9464.000000;0.184323
9463.000000;0.183853
9462.000000;0.183224
9461.000000;0.182422
9460.000000;0.181538
9459.000000;0.180714
9458.000000;0.180047
9457.000000;0.179528
9456.000000;0.179062
9455.000000;0.178563
9454.000000;0.177995
9453.000000;0.177334
9452.000000;0.176565
9451.000000;0.175757
9450.000000;0.175087
9449.000000;0.174720
9448.000000;0.174668
9447.000000;0.174842
9446.000000;0.175212
9445.000000;0.175793
9444.000000;0.176432
9443.000000;0.176735
9442.000000;0.176377
9441.000000;0.175468
9440.000000;0.174513
9439.000000;0.173975
9438.000000;0.173928
9437.000000;0.174144
9436.000000;0.174411
9435.000000;0.174693
9434.000000;0.175007
9433.000000;0.175307
9432.000000;0.175549
9431.000000;0.175775
9430.000000;0.176036
9429.000000;0.176259
9428.000000;0.176300
9427.000000;0.176178
9426.000000;0.176195
9425.000000;0.176733
9424.000000;0.177909
9423.000000;0.179387
9422.000000;0.180570
9421.000000;0.181052
9420.000000;0.180981
9419.000000;0.180967
9418.000000;0.181527
9417.000000;0.182608
9416.000000;0.183664
9415.000000;0.184216
9414.000000;0.184262
9413.000000;0.184183
9412.000000;0.184330
9411.000000;0.184766
9410.000000;0.185330
9409.000000;0.185869
9408.000000;0.186419
9407.000000;0.187165
9406.000000;0.188212
9405.000000;0.189412
9404.000000;0.190484
9403.000000;0.191294
9402.000000;0.191937
9401.000000;0.192548
9400.000000;0.193149
9399.000000;0.193719
9398.000000;0.194288
9397.000000;0.194917
9396.000000;0.195668
9395.000000;0.196637
9394.000000;0.197881
9393.000000;0.199246
9392.000000;0.200403
9391.000000;0.201180
9390.000000;0.201762
9389.000000;0.202427
9388.000000;0.203204
9387.000000;0.203968
9386.000000;0.204732
9385.000000;0.205656
9384.000000;0.206793
9383.000000;0.208042
9382.000000;0.209354
9381.000000;0.210766
9380.000000;0.212190
9379.000000;0.213376
9378.000000;0.214217
9377.000000;0.214937
9376.000000;0.215862
9375.000000;0.217089
9374.000000;0.218475
9373.000000;0.219858
9372.000000;0.221170
9371.000000;0.222383
9370.000000;0.223479
9369.000000;0.224468
9368.000000;0.225378
9367.000000;0.226229
9366.000000;0.227080
9365.000000;0.228036
9364.000000;0.229147
9363.000000;0.230315
9362.000000;0.231394
9361.000000;0.232389
9360.000000;0.233461
9359.000000;0.234703
9358.000000;0.235993
9357.000000;0.237131
9356.000000;0.238110
9355.000000;0.239169
9354.000000;0.240543
9353.000000;0.242184
9352.000000;0.243792
9351.000000;0.245103
9350.000000;0.246120
9349.000000;0.247060
9348.000000;0.248122
9347.000000;0.249365
9346.000000;0.250757
9345.000000;0.252251
9344.000000;0.253775
9343.000000;0.255167
9342.000000;0.256232
9341.000000;0.256916
9340.000000;0.257439
9339.000000;0.258209
9338.000000;0.259478
9337.000000;0.261084
9336.000000;0.262578
9335.000000;0.263660
9334.000000;0.264472
9333.000000;0.265404
9332.000000;0.266691
9331.000000;0.268234
9330.000000;0.269758
9329.000000;0.271048
9328.000000;0.272072
9327.000000;0.272971
9326.000000;0.273965
9325.000000;0.275192
9324.000000;0.276610
9323.000000;0.278057
9322.000000;0.279382
9321.000000;0.280493
9320.000000;0.281376
9319.000000;0.282156
9318.000000;0.283067
9317.000000;0.284207
9316.000000;0.285349
9315.000000;0.286145
9314.000000;0.286561
9313.000000;0.286972
9312.000000;0.287773
9311.000000;0.289011
9310.000000;0.290485
9309.000000;0.292036
9308.000000;0.293618
9307.000000;0.295138
9306.000000;0.296445
9305.000000;0.297489
9304.000000;0.298390
9303.000000;0.299308
9302.000000;0.300303
9301.000000;0.301345
9300.000000;0.302400
9299.000000;0.303485
9298.000000;0.304659
9297.000000;0.305943
9296.000000;0.307250
9295.000000;0.308424
9294.000000;0.309412
9293.000000;0.310344
9292.000000;0.311354
9291.000000;0.312355
9290.000000;0.313139
9289.000000;0.313695
9288.000000;0.314296
9287.000000;0.315196
9286.000000;0.316373
9285.000000;0.317658
9284.000000;0.319007
9283.000000;0.320475
9282.000000;0.321968
9281.000000;0.323221
9280.000000;0.324083
9279.000000;0.324710
9278.000000;0.325414
9277.000000;0.326378
9276.000000;0.327568
9275.000000;0.328860
9274.000000;0.330132
9273.000000;0.331283
9272.000000;0.332268
9271.000000;0.333152
9270.000000;0.334063
9269.000000;0.335041
9268.000000;0.335981
9267.000000;0.336770
9266.000000;0.337459
9265.000000;0.338239
9264.000000;0.339216
9263.000000;0.340272
9262.000000;0.341221
9261.000000;0.342074
9260.000000;0.343046
9259.000000;0.344263
9258.000000;0.345537
9257.000000;0.346544
9256.000000;0.347207
9255.000000;0.347798
9254.000000;0.348630
9253.000000;0.349728
9252.000000;0.350871
9251.000000;0.351888
9250.000000;0.352828
9249.000000;0.353830
9248.000000;0.354889
9247.000000;0.355783
9246.000000;0.356282
9245.000000;0.356439
9244.000000;0.356644
9243.000000;0.357303
9242.000000;0.358452
9241.000000;0.359757
9240.000000;0.360882
9239.000000;0.361784
9238.000000;0.362593
9237.000000;0.363379
9236.000000;0.364131
9235.000000;0.364865
9234.000000;0.365606
9233.000000;0.366299
9232.000000;0.366899
9231.000000;0.367550
9230.000000;0.368516
9229.000000;0.369882
9228.000000;0.371411
9227.000000;0.372717
9226.000000;0.373529
9225.000000;0.373838
9224.000000;0.373933
9223.000000;0.374265
9222.000000;0.375104
9221.000000;0.376268
9220.000000;0.377303
9219.000000;0.377992
9218.000000;0.378562
9217.000000;0.379330
9216.000000;0.380310
9215.000000;0.381279
9214.000000;0.382110
9213.000000;0.382853
9212.000000;0.383574
9211.000000;0.384287
9210.000000;0.385046
9209.000000;0.385948
9208.000000;0.386978
9207.000000;0.387956
9206.000000;0.388688
9205.000000;0.389126
9204.000000;0.389387
9203.000000;0.389656
9202.000000;0.390092
9201.000000;0.390783
9200.000000;0.391723
9199.000000;0.392815
9198.000000;0.393890
9197.000000;0.394751
9196.000000;0.395278
9195.000000;0.395543
9194.000000;0.395790
9193.000000;0.396253
9192.000000;0.396984
9191.000000;0.397870
9190.000000;0.398765
9189.000000;0.399579
9188.000000;0.400294
9187.000000;0.400952
9186.000000;0.401623
9185.000000;0.402355
9184.000000;0.403158
9183.000000;0.404017
9182.000000;0.404868
9181.000000;0.405590
9180.000000;0.406130
9179.000000;0.406620
9178.000000;0.407262
9177.000000;0.408033
9176.000000;0.408654
9175.000000;0.408959
9174.000000;0.409169
9173.000000;0.409638
9172.000000;0.410418
9171.000000;0.411248
9170.000000;0.411910
9169.000000;0.412433
9168.000000;0.412939
9167.000000;0.413473
9166.000000;0.414031
9165.000000;0.414607
9164.000000;0.415150
9163.000000;0.415575
9162.000000;0.415883
9161.000000;0.416178
9160.000000;0.416549
9159.000000;0.417011
9158.000000;0.417575
9157.000000;0.418247
9156.000000;0.418940
9155.000000;0.419519
9154.000000;0.419977
9153.000000;0.420473
9152.000000;0.421119
9151.000000;0.421857
9150.000000;0.422594
9149.000000;0.423339
9148.000000;0.424084
9147.000000;0.424671
9146.000000;0.424964
9145.000000;0.425112
9144.000000;0.425454
9143.000000;0.426148
9142.000000;0.427012
9141.000000;0.427752
9140.000000;0.428262
9139.000000;0.428673
9138.000000;0.429171
9137.000000;0.429813
9136.000000;0.430474
9135.000000;0.430956
9134.000000;0.431196
9133.000000;0.431354
9132.000000;0.431651
9131.000000;0.432116
9130.000000;0.432587
9129.000000;0.432998
9128.000000;0.433516
9127.000000;0.434310
9126.000000;0.435210
9125.000000;0.435789
9124.000000;0.435808
9123.000000;0.435533
9122.000000;0.435514
9121.000000;0.436068
9120.000000;0.437021
9119.000000;0.437924
9118.000000;0.438449
9117.000000;0.438599
9116.000000;0.438622
9115.000000;0.438796
9114.000000;0.439270
9113.000000;0.440017
9112.000000;0.440874
9111.000000;0.441648
9110.000000;0.442228
9109.000000;0.442627
9108.000000;0.442935
9107.000000;0.443232
9106.000000;0.443548
9105.000000;0.443878
9104.000000;0.444219
9103.000000;0.444577
9102.000000;0.444939
9101.000000;0.445243
9100.000000;0.445429
9099.000000;0.445520
9098.000000;0.445643
9097.000000;0.445911
9096.000000;0.446319
9095.000000;0.446774
9094.000000;0.447241
9093.000000;0.447786
9092.000000;0.448458
9091.000000;0.449175
9090.000000;0.449757
9089.000000;0.450076
9088.000000;0.450158
9087.000000;0.450153
9086.000000;0.450214
9085.000000;0.450401
9084.000000;0.450673
9083.000000;0.450949
9082.000000;0.451173
9081.000000;0.451334
9080.000000;0.451464
9079.000000;0.451643
9078.000000;0.451954
9077.000000;0.452383
9076.000000;0.452792
9075.000000;0.453063
9074.000000;0.453260
9073.000000;0.453570
9072.000000;0.454052
9071.000000;0.454522
9070.000000;0.454770
9069.000000;0.454828
9068.000000;0.454925
9067.000000;0.455210
9066.000000;0.455620
9065.000000;0.456038
9064.000000;0.456470
9063.000000;0.457000
9062.000000;0.457599
9061.000000;0.458099
9060.000000;0.458366
9059.000000;0.458443
9058.000000;0.458494
9057.000000;0.458617
9056.000000;0.458766
9055.000000;0.458839
9054.000000;0.458815
9053.000000;0.458793
