Criado como novo conjunto de dados;"0307_DANIEL.spp","65525.4 Secs"
cm-1;Abs
10000.000000;0.582930
9999.000000;0.582080
9998.000000;0.581231
9997.000000;0.580384
9996.000000;0.579539
9995.000000;0.578695
9994.000000;0.577853
9993.000000;0.577013
9992.000000;0.576175
9991.000000;0.575336
9990.000000;0.574504
9989.000000;0.573646
9988.000000;0.572719
9987.000000;0.571781
9986.000000;0.570954
9985.000000;0.570282
9984.000000;0.569681
9983.000000;0.569012
9982.000000;0.568234
9981.000000;0.567475
9980.000000;0.566877
9979.000000;0.566392
9978.000000;0.565818
9977.000000;0.565068
9976.000000;0.564264
9975.000000;0.563493
9974.000000;0.562607
9973.000000;0.561457
9972.000000;0.560246
9971.000000;0.559423
9970.000000;0.559190
9969.000000;0.559236
9968.000000;0.559024
9967.000000;0.558231
9966.000000;0.556885
9965.000000;0.555245
9964.000000;0.553645
9963.000000;0.552354
9962.000000;0.551425
9961.000000;0.550675
9960.000000;0.549883
9959.000000;0.549011
9958.000000;0.548177
9957.000000;0.547442
9956.000000;0.546679
9955.000000;0.545718
9954.000000;0.544582
9953.000000;0.543533
9952.000000;0.542800
9951.000000;0.542312
9950.000000;0.541781
9949.000000;0.541079
9948.000000;0.540400
9947.000000;0.539939
9946.000000;0.539580
9945.000000;0.539040
9944.000000;0.538227
9943.000000;0.537244
9942.000000;0.536100
9941.000000;0.534695
9940.000000;0.533088
9939.000000;0.531533
9938.000000;0.530200
9937.000000;0.529090
9936.000000;0.528275
9935.000000;0.527915
9934.000000;0.527885
9933.000000;0.527679
9932.000000;0.526915
9931.000000;0.525788
9930.000000;0.524775
9929.000000;0.524054
9928.000000;0.523431
9927.000000;0.522683
9926.000000;0.521710
9925.000000;0.520475
9924.000000;0.519079
9923.000000;0.517823
9922.000000;0.516907
9921.000000;0.516078
9920.000000;0.514890
9919.000000;0.513291
9918.000000;0.511702
9917.000000;0.510480
9916.000000;0.509607
9915.000000;0.508940
9914.000000;0.508443
9913.000000;0.508032
9912.000000;0.507466
9911.000000;0.506603
9910.000000;0.505587
9909.000000;0.504615
9908.000000;0.503696
9907.000000;0.502797
9906.000000;0.502043
9905.000000;0.501539
9904.000000;0.501117
9903.000000;0.500494
9902.000000;0.499623
9901.000000;0.498672
9900.000000;0.497732
9899.000000;0.496772
9898.000000;0.495812
9897.000000;0.494903
9896.000000;0.493917
9895.000000;0.492623
9894.000000;0.491042
9893.000000;0.489524
9892.000000;0.488341
9891.000000;0.487359
9890.000000;0.486261
9889.000000;0.484999
9888.000000;0.483851
9887.000000;0.483081
9886.000000;0.482671
9885.000000;0.482396
9884.000000;0.482020
9883.000000;0.481397
9882.000000;0.480480
9881.000000;0.479341
9880.000000;0.478140
9879.000000;0.476977
9878.000000;0.475761
9877.000000;0.474294
9876.000000;0.472559
9875.000000;0.470861
9874.000000;0.469613
9873.000000;0.468925
9872.000000;0.468478
9871.000000;0.467813
9870.000000;0.466740
9869.000000;0.465421
9868.000000;0.464115
9867.000000;0.462938
9866.000000;0.461844
9865.000000;0.460747
9864.000000;0.459610
9863.000000;0.458480
9862.000000;0.457464
9861.000000;0.456627
9860.000000;0.455890
9859.000000;0.455057
9858.000000;0.454011
9857.000000;0.452826
9856.000000;0.451638
9855.000000;0.450464
9854.000000;0.449225
9853.000000;0.447951
9852.000000;0.446828
9851.000000;0.445955
9850.000000;0.445151
9849.000000;0.444094
9848.000000;0.442667
9847.000000;0.441091
9846.000000;0.439715
9845.000000;0.438726
9844.000000;0.438060
9843.000000;0.437500
9842.000000;0.436829
9841.000000;0.435946
9840.000000;0.434880
9839.000000;0.433697
9838.000000;0.432402
9837.000000;0.430997
9836.000000;0.429611
9835.000000;0.428447
9834.000000;0.427520
9833.000000;0.426551
9832.000000;0.425261
9831.000000;0.423714
9830.000000;0.422224
9829.000000;0.420978
9828.000000;0.419877
9827.000000;0.418772
9826.000000;0.417661
9825.000000;0.416605
9824.000000;0.415579
9823.000000;0.414530
9822.000000;0.413493
9821.000000;0.412530
9820.000000;0.411606
9819.000000;0.410598
9818.000000;0.409408
9817.000000;0.408000
9816.000000;0.406398
9815.000000;0.404753
9814.000000;0.403348
9813.000000;0.402384
9812.000000;0.401716
9811.000000;0.400919
9810.000000;0.399679
9809.000000;0.398079
9808.000000;0.396469
9807.000000;0.395092
9806.000000;0.393897
9805.000000;0.392689
9804.000000;0.391374
9803.000000;0.390053
9802.000000;0.388901
9801.000000;0.387982
9800.000000;0.387197
9799.000000;0.386370
9798.000000;0.385349
9797.000000;0.384024
9796.000000;0.382374
9795.000000;0.380549
9794.000000;0.378876
9793.000000;0.377629
9792.000000;0.376780
9791.000000;0.375978
9790.000000;0.374830
9789.000000;0.373195
9788.000000;0.371274
9787.000000;0.369431
9786.000000;0.367913
9785.000000;0.366692
9784.000000;0.365571
9783.000000;0.364424
9782.000000;0.363298
9781.000000;0.362270
9780.000000;0.361320
9779.000000;0.360378
9778.000000;0.359379
9777.000000;0.358168
9776.000000;0.356536
9775.000000;0.354553
9774.000000;0.352753
9773.000000;0.351707
9772.000000;0.351370
9771.000000;0.351089
9770.000000;0.350297
9769.000000;0.348982
9768.000000;0.347415
9767.000000;0.345723
9766.000000;0.343943
9765.000000;0.342261
9764.000000;0.340861
9763.000000;0.339637
9762.000000;0.338299
9761.000000;0.336757
9760.000000;0.335157
9759.000000;0.333594
9758.000000;0.332011
9757.000000;0.330422
9756.000000;0.328979
9755.000000;0.327765
9754.000000;0.326655
9753.000000;0.325480
9752.000000;0.324178
9751.000000;0.322733
9750.000000;0.321119
9749.000000;0.319419
9748.000000;0.317862
9747.000000;0.316620
9746.000000;0.315600
9745.000000;0.314513
9744.000000;0.313125
9743.000000;0.311417
9742.000000;0.309568
9741.000000;0.307844
9740.000000;0.306428
9739.000000;0.305289
9738.000000;0.304232
9737.000000;0.303083
9736.000000;0.301786
9735.000000;0.300332
9734.000000;0.298704
9733.000000;0.296938
9732.000000;0.295123
9731.000000;0.293320
9730.000000;0.291549
9729.000000;0.289909
9728.000000;0.288558
9727.000000;0.287482
9726.000000;0.286387
9725.000000;0.284966
9724.000000;0.283237
9723.000000;0.281518
9722.000000;0.280073
9721.000000;0.278888
9720.000000;0.277734
9719.000000;0.276383
9718.000000;0.274751
9717.000000;0.272922
9716.000000;0.271038
9715.000000;0.269185
9714.000000;0.267407
9713.000000;0.265802
9712.000000;0.264486
9711.000000;0.263404
9710.000000;0.262301
9709.000000;0.260995
9708.000000;0.259543
9707.000000;0.258058
9706.000000;0.256481
9705.000000;0.254712
9704.000000;0.252852
9703.000000;0.251094
9702.000000;0.249406
9701.000000;0.247555
9700.000000;0.245480
9699.000000;0.243444
9698.000000;0.241732
9697.000000;0.240357
9696.000000;0.239146
9695.000000;0.237965
9694.000000;0.236758
9693.000000;0.235466
9692.000000;0.234032
9691.000000;0.232442
9690.000000;0.230698
9689.000000;0.228819
9688.000000;0.226937
9687.000000;0.225270
9686.000000;0.223910
9685.000000;0.222679
9684.000000;0.221310
9683.000000;0.219720
9682.000000;0.218003
9681.000000;0.216227
9680.000000;0.214374
9679.000000;0.212464
9678.000000;0.210594
9677.000000;0.208825
9676.000000;0.207127
9675.000000;0.205448
9674.000000;0.203753
9673.000000;0.201960
9672.000000;0.199968
9671.000000;0.197826
9670.000000;0.195771
9669.000000;0.194010
9668.000000;0.192473
9667.000000;0.190889
9666.000000;0.189083
9665.000000;0.187141
9664.000000;0.185275
9663.000000;0.183596
9662.000000;0.182035
9661.000000;0.180436
9660.000000;0.178685
9659.000000;0.176780
9658.000000;0.174797
9657.000000;0.172786
9656.000000;0.170729
9655.000000;0.168652
9654.000000;0.166725
9653.000000;0.165161
9652.000000;0.163947
9651.000000;0.162768
9650.000000;0.161292
9649.000000;0.159492
9648.000000;0.157622
9647.000000;0.155864
9646.000000;0.154127
9645.000000;0.152198
9644.000000;0.150030
9643.000000;0.147784
9642.000000;0.145650
9641.000000;0.143682
9640.000000;0.141821
9639.000000;0.140017
9638.000000;0.138291
9637.000000;0.136665
9636.000000;0.135071
9635.000000;0.133356
9634.000000;0.131420
9633.000000;0.129313
9632.000000;0.127170
9631.000000;0.125046
9630.000000;0.122891
9629.000000;0.120669
9628.000000;0.118477
9627.000000;0.116486
9626.000000;0.114769
9625.000000;0.113212
9624.000000;0.111592
9623.000000;0.109770
9622.000000;0.107824
9621.000000;0.105966
9620.000000;0.104317
9619.000000;0.102780
9618.000000;0.101182
9617.000000;0.099493
9616.000000;0.097812
9615.000000;0.096148
9614.000000;0.094341
9613.000000;0.092264
9612.000000;0.090005
9611.000000;0.087757
9610.000000;0.085576
9609.000000;0.083377
9608.000000;0.081154
9607.000000;0.079072
9606.000000;0.077277
9605.000000;0.075654
9604.000000;0.073876
9603.000000;0.071719
9602.000000;0.069295
9601.000000;0.066950
9600.000000;0.064953
9599.000000;0.063299
9598.000000;0.061788
9597.000000;0.060224
9596.000000;0.058498
9595.000000;0.056532
9594.000000;0.054246
9593.000000;0.051650
9592.000000;0.048936
9591.000000;0.046422
9590.000000;0.044355
9589.000000;0.042707
9588.000000;0.041184
9587.000000;0.039470
9586.000000;0.037498
9585.000000;0.035480
9584.000000;0.033656
9583.000000;0.032062
9582.000000;0.030542
9581.000000;0.028899
9580.000000;0.026992
9579.000000;0.024784
9578.000000;0.022402
9577.000000;0.020102
9576.000000;0.018064
9575.000000;0.016216
9574.000000;0.014329
9573.000000;0.012252
9572.000000;0.009987
9571.000000;0.007593
9570.000000;0.005140
9569.000000;0.002757
9568.000000;0.000585
9567.000000;-0.001342
9566.000000;-0.003073
9565.000000;-0.004666
9564.000000;-0.006255
9563.000000;-0.008121
9562.000000;-0.010479
9561.000000;-0.013161
9560.000000;-0.015711
9559.000000;-0.017881
9558.000000;-0.019854
9557.000000;-0.021920
9556.000000;-0.024121
9555.000000;-0.026329
9554.000000;-0.028476
9553.000000;-0.030545
9552.000000;-0.032454
9551.000000;-0.034144
9550.000000;-0.035703
9549.000000;-0.037274
9548.000000;-0.038910
9547.000000;-0.040625
9546.000000;-0.042488
9545.000000;-0.044502
9544.000000;-0.046508
9543.000000;-0.048361
9542.000000;-0.050145
9541.000000;-0.052030
9540.000000;-0.053997
9539.000000;-0.055895
9538.000000;-0.057733
9537.000000;-0.059693
9536.000000;-0.061861
9535.000000;-0.064112
9534.000000;-0.066292
9533.000000;-0.068342
9532.000000;-0.070271
9531.000000;-0.072162
9530.000000;-0.074204
9529.000000;-0.076502
9528.000000;-0.078803
9527.000000;-0.080619
9526.000000;-0.081719
9525.000000;-0.082401
9524.000000;-0.083174
9523.000000;-0.084314
9522.000000;-0.085799
9521.000000;-0.087549
9520.000000;-0.089518
9519.000000;-0.091626
9518.000000;-0.093745
9517.000000;-0.095776
9516.000000;-0.097660
9515.000000;-0.099342
9514.000000;-0.100806
9513.000000;-0.102162
9512.000000;-0.103618
9511.000000;-0.105334
9510.000000;-0.107293
9509.000000;-0.109311
9508.000000;-0.111141
9507.000000;-0.112605
9506.000000;-0.113705
9505.000000;-0.114643
9504.000000;-0.115733
9503.000000;-0.117190
9502.000000;-0.118946
9501.000000;-0.120673
9500.000000;-0.122080
9499.000000;-0.123195
9498.000000;-0.124274
9497.000000;-0.125423
9496.000000;-0.126453
9495.000000;-0.127217
9494.000000;-0.127957
9493.000000;-0.129099
9492.000000;-0.130744
9491.000000;-0.132547
9490.000000;-0.134091
9489.000000;-0.135253
9488.000000;-0.136159
9487.000000;-0.136977
9486.000000;-0.137828
9485.000000;-0.138776
9484.000000;-0.139786
9483.000000;-0.140771
9482.000000;-0.141721
9481.000000;-0.142701
9480.000000;-0.143705
9479.000000;-0.144613
9478.000000;-0.145383
9477.000000;-0.146183
9476.000000;-0.147214
9475.000000;-0.148445
9474.000000;-0.149633
9473.000000;-0.150538
9472.000000;-0.151069
9471.000000;-0.151280
9470.000000;-0.151344
9469.000000;-0.151494
9468.000000;-0.151885
9467.000000;-0.152464
9466.000000;-0.153046
9465.000000;-0.153479
9464.000000;-0.153772
9463.000000;-0.154085
9462.000000;-0.154629
9461.000000;-0.155448
9460.000000;-0.156241
9459.000000;-0.156545
9458.000000;-0.156240
9457.000000;-0.155784
9456.000000;-0.155763
9455.000000;-0.156220
9454.000000;-0.156627
9453.000000;-0.156545
9452.000000;-0.156140
9451.000000;-0.155957
9450.000000;-0.156312
9449.000000;-0.157018
9448.000000;-0.157637
9447.000000;-0.157877
9446.000000;-0.157781
9445.000000;-0.157605
9444.000000;-0.157531
9443.000000;-0.157516
9442.000000;-0.157404
9441.000000;-0.157152
9440.000000;-0.156851
9439.000000;-0.156534
9438.000000;-0.156117
9437.000000;-0.155594
9436.000000;-0.155167
9435.000000;-0.155044
9434.000000;-0.155137
9433.000000;-0.155100
9432.000000;-0.154681
9431.000000;-0.153953
9430.000000;-0.153179
9429.000000;-0.152528
9428.000000;-0.151935
9427.000000;-0.151210
9426.000000;-0.150243
9425.000000;-0.149133
9424.000000;-0.148093
9423.000000;-0.147237
9422.000000;-0.146464
9421.000000;-0.145596
9420.000000;-0.144586
9419.000000;-0.143558
9418.000000;-0.142667
9417.000000;-0.142015
9416.000000;-0.141650
9415.000000;-0.141548
9414.000000;-0.141551
9413.000000;-0.141396
9412.000000;-0.140873
9411.000000;-0.139941
9410.000000;-0.138702
9409.000000;-0.137348
9408.000000;-0.136134
9407.000000;-0.135245
9406.000000;-0.134575
9405.000000;-0.133733
9404.000000;-0.132431
9403.000000;-0.130864
9402.000000;-0.129535
9401.000000;-0.128675
9400.000000;-0.127967
9399.000000;-0.126941
9398.000000;-0.125532
9397.000000;-0.124096
9396.000000;-0.122950
9395.000000;-0.122052
9394.000000;-0.121161
9393.000000;-0.120149
9392.000000;-0.119047
9391.000000;-0.117892
9390.000000;-0.116700
9389.000000;-0.115582
9388.000000;-0.114695
9387.000000;-0.113988
9386.000000;-0.113122
9385.000000;-0.111791
9384.000000;-0.110091
9383.000000;-0.108437
9382.000000;-0.107089
9381.000000;-0.105906
9380.000000;-0.104608
9379.000000;-0.103152
9378.000000;-0.101712
9377.000000;-0.100352
9376.000000;-0.098912
9375.000000;-0.097270
9374.000000;-0.095591
9373.000000;-0.094192
9372.000000;-0.093157
9371.000000;-0.092154
9370.000000;-0.090739
9369.000000;-0.088832
9368.000000;-0.086878
9367.000000;-0.085430
9366.000000;-0.084561
9365.000000;-0.083768
9364.000000;-0.082505
9363.000000;-0.080748
9362.000000;-0.078946
9361.000000;-0.077488
9360.000000;-0.076342
9359.000000;-0.075210
9358.000000;-0.073888
9357.000000;-0.072383
9356.000000;-0.070792
9355.000000;-0.069178
9354.000000;-0.067554
9353.000000;-0.065943
9352.000000;-0.064417
9351.000000;-0.063089
9350.000000;-0.062035
9349.000000;-0.061201
9348.000000;-0.060426
9347.000000;-0.059549
9346.000000;-0.058485
9345.000000;-0.057205
9344.000000;-0.055715
9343.000000;-0.054082
9342.000000;-0.052450
9341.000000;-0.050973
9340.000000;-0.049706
9339.000000;-0.048550
9338.000000;-0.047287
9337.000000;-0.045725
9336.000000;-0.043888
9335.000000;-0.042029
9334.000000;-0.040379
9333.000000;-0.038892
9332.000000;-0.037317
9331.000000;-0.035529
9330.000000;-0.033678
9329.000000;-0.032028
9328.000000;-0.030754
9327.000000;-0.029873
9326.000000;-0.029249
9325.000000;-0.028605
9324.000000;-0.027659
9323.000000;-0.026337
9322.000000;-0.024803
9321.000000;-0.023234
9320.000000;-0.021679
9319.000000;-0.020126
9318.000000;-0.018569
9317.000000;-0.016953
9316.000000;-0.015236
9315.000000;-0.013575
9314.000000;-0.012240
9313.000000;-0.011193
9312.000000;-0.009992
9311.000000;-0.008307
9310.000000;-0.006391
9309.000000;-0.004787
9308.000000;-0.003712
9307.000000;-0.002966
9306.000000;-0.002310
9305.000000;-0.001586
9304.000000;-0.000540
9303.000000;0.001037
9302.000000;0.002911
9301.000000;0.004504
9300.000000;0.005573
9299.000000;0.006545
9298.000000;0.007997
9297.000000;0.010002
9296.000000;0.012155
9295.000000;0.014059
9294.000000;0.015576
9293.000000;0.016742
9292.000000;0.017676
9291.000000;0.018548
9290.000000;0.019469
9289.000000;0.020451
9288.000000;0.021524
9287.000000;0.022773
9286.000000;0.024149
9285.000000;0.025381
9284.000000;0.026272
9283.000000;0.027009
9282.000000;0.027981
9281.000000;0.029345
9280.000000;0.030947
9279.000000;0.032605
9278.000000;0.034245
9277.000000;0.035760
9276.000000;0.036999
9275.000000;0.037985
9274.000000;0.038973
9273.000000;0.040146
9272.000000;0.041382
9271.000000;0.042437
9270.000000;0.043274
9269.000000;0.044073
9268.000000;0.044989
9267.000000;0.046039
9266.000000;0.047223
9265.000000;0.048604
9264.000000;0.050212
9263.000000;0.051933
9262.000000;0.053560
9261.000000;0.054943
9260.000000;0.056065
9259.000000;0.056979
9258.000000;0.057752
9257.000000;0.058482
9256.000000;0.059330
9255.000000;0.060448
9254.000000;0.061832
9253.000000;0.063303
9252.000000;0.064668
9251.000000;0.065888
9250.000000;0.067033
9249.000000;0.068141
9248.000000;0.069207
9247.000000;0.070290
9246.000000;0.071496
9245.000000;0.072794
9244.000000;0.073966
9243.000000;0.074847
9242.000000;0.075581
9241.000000;0.076504
9240.000000;0.077769
9239.000000;0.079177
9238.000000;0.080428
9237.000000;0.081449
9236.000000;0.082415
9235.000000;0.083482
9234.000000;0.084596
9233.000000;0.085594
9232.000000;0.086438
9231.000000;0.087295
9230.000000;0.088369
9229.000000;0.089679
9228.000000;0.091032
9227.000000;0.092203
9226.000000;0.093131
9225.000000;0.093931
9224.000000;0.094766
9223.000000;0.095725
9222.000000;0.096792
9221.000000;0.097873
9220.000000;0.098853
9219.000000;0.099687
9218.000000;0.100465
9217.000000;0.101325
9216.000000;0.102291
9215.000000;0.103240
9214.000000;0.104081
9213.000000;0.104904
9212.000000;0.105880
9211.000000;0.107040
9210.000000;0.108233
9209.000000;0.109316
9208.000000;0.110316
9207.000000;0.111340
9206.000000;0.112356
9205.000000;0.113156
9204.000000;0.113615
9203.000000;0.113963
9202.000000;0.114651
9201.000000;0.115857
9200.000000;0.117200
9199.000000;0.118112
9198.000000;0.118485
9197.000000;0.118773
9196.000000;0.119417
9195.000000;0.120405
9194.000000;0.121498
9193.000000;0.122656
9192.000000;0.123998
9191.000000;0.125455
9190.000000;0.126752
9189.000000;0.127704
9188.000000;0.128320
9187.000000;0.128651
9186.000000;0.128779
9185.000000;0.128986
9184.000000;0.129645
9183.000000;0.130839
9182.000000;0.132245
9181.000000;0.133469
9180.000000;0.134385
9179.000000;0.135096
9178.000000;0.135776
9177.000000;0.136591
9176.000000;0.137574
9175.000000;0.138490
9174.000000;0.139023
9173.000000;0.139229
9172.000000;0.139580
9171.000000;0.140399
9170.000000;0.141458
9169.000000;0.142310
9168.000000;0.142876
9167.000000;0.143455
9166.000000;0.144286
9165.000000;0.145323
9164.000000;0.146385
9163.000000;0.147324
9162.000000;0.148096
9161.000000;0.148804
9160.000000;0.149636
9159.000000;0.150622
9158.000000;0.151567
9157.000000;0.152337
9156.000000;0.153073
9155.000000;0.153917
9154.000000;0.154682
9153.000000;0.155074
9152.000000;0.155166
9151.000000;0.155355
9150.000000;0.155877
9149.000000;0.156647
9148.000000;0.157563
9147.000000;0.158650
9146.000000;0.159836
9145.000000;0.160858
9144.000000;0.161547
9143.000000;0.161981
9142.000000;0.162288
9141.000000;0.162492
9140.000000;0.162708
9139.000000;0.163216
9138.000000;0.164159
9137.000000;0.165297
9136.000000;0.166263
9135.000000;0.166960
9134.000000;0.167534
9133.000000;0.168070
9132.000000;0.168520
9131.000000;0.168941
9130.000000;0.169553
9129.000000;0.170483
9128.000000;0.171537
9127.000000;0.172355
9126.000000;0.172785
9125.000000;0.173059
9124.000000;0.173552
9123.000000;0.174372
9122.000000;0.175241
9121.000000;0.175818
9120.000000;0.176075
9119.000000;0.176263
9118.000000;0.176548
9117.000000;0.176879
9116.000000;0.177225
9115.000000;0.177771
9114.000000;0.178733
9113.000000;0.180043
9112.000000;0.181342
9111.000000;0.182280
9110.000000;0.182777
9109.000000;0.182987
9108.000000;0.183095
9107.000000;0.183205
9106.000000;0.183390
9105.000000;0.183764
9104.000000;0.184405
9103.000000;0.185225
9102.000000;0.186002
9101.000000;0.186603
9100.000000;0.187120
9099.000000;0.187703
9098.000000;0.188360
9097.000000;0.189018
9096.000000;0.189700
9095.000000;0.190481
9094.000000;0.191293
9093.000000;0.191940
9092.000000;0.192356
9091.000000;0.192706
9090.000000;0.193149
9089.000000;0.193645
9088.000000;0.194068
9087.000000;0.194426
9086.000000;0.194848
9085.000000;0.195418
9084.000000;0.196083
9083.000000;0.196714
9082.000000;0.197201
9081.000000;0.197528
9080.000000;0.197799
9079.000000;0.198166
9078.000000;0.198696
9077.000000;0.199329
9076.000000;0.199961
9075.000000;0.200543
9074.000000;0.201090
9073.000000;0.201645
9072.000000;0.202236
9071.000000;0.202855
9070.000000;0.203454
9069.000000;0.203998
9068.000000;0.204495
9067.000000;0.204927
9066.000000;0.205217
9065.000000;0.205336
