Criado como novo conjunto de dados;"0307_DANIEL.spp","72546.0 Secs"
cm-1;Abs
10000.000000;0.586351
9999.000000;0.585045
9998.000000;0.583711
9997.000000;0.582449
9996.000000;0.580881
9995.000000;0.579150
9994.000000;0.577761
9993.000000;0.576812
9992.000000;0.576330
9991.000000;0.576129
9990.000000;0.575908
9989.000000;0.575440
9988.000000;0.574801
9987.000000;0.574194
9986.000000;0.573605
9985.000000;0.572813
9984.000000;0.571717
9983.000000;0.570479
9982.000000;0.569305
9981.000000;0.568265
9980.000000;0.567380
9979.000000;0.566720
9978.000000;0.566322
9977.000000;0.566069
9976.000000;0.565752
9975.000000;0.565226
9974.000000;0.564452
9973.000000;0.563439
9972.000000;0.562211
9971.000000;0.560852
9970.000000;0.559543
9969.000000;0.558483
9968.000000;0.557701
9967.000000;0.556979
9966.000000;0.556068
9965.000000;0.555009
9964.000000;0.554111
9963.000000;0.553543
9962.000000;0.553102
9961.000000;0.552479
9960.000000;0.551627
9959.000000;0.550689
9958.000000;0.549708
9957.000000;0.548621
9956.000000;0.547513
9955.000000;0.546608
9954.000000;0.545978
9953.000000;0.545417
9952.000000;0.544677
9951.000000;0.543702
9950.000000;0.542611
9949.000000;0.541558
9948.000000;0.540655
9947.000000;0.539897
9946.000000;0.539132
9945.000000;0.538228
9944.000000;0.537295
9943.000000;0.536577
9942.000000;0.536098
9941.000000;0.535589
9940.000000;0.534827
9939.000000;0.533875
9938.000000;0.532898
9937.000000;0.531902
9936.000000;0.530819
9935.000000;0.529687
9934.000000;0.528569
9933.000000;0.527393
9932.000000;0.526090
9931.000000;0.524849
9930.000000;0.524014
9929.000000;0.523672
9928.000000;0.523494
9927.000000;0.523055
9926.000000;0.522247
9925.000000;0.521293
9924.000000;0.520442
9923.000000;0.519713
9922.000000;0.518955
9921.000000;0.518060
9920.000000;0.517054
9919.000000;0.515991
9918.000000;0.514846
9917.000000;0.513607
9916.000000;0.512416
9915.000000;0.511473
9914.000000;0.510775
9913.000000;0.510065
9912.000000;0.509100
9911.000000;0.507914
9910.000000;0.506768
9909.000000;0.505904
9908.000000;0.505399
9907.000000;0.505139
9906.000000;0.504864
9905.000000;0.504296
9904.000000;0.503330
9903.000000;0.502067
9902.000000;0.500647
9901.000000;0.499166
9900.000000;0.497768
9899.000000;0.496629
9898.000000;0.495716
9897.000000;0.494745
9896.000000;0.493533
9895.000000;0.492286
9894.000000;0.491298
9893.000000;0.490487
9892.000000;0.489482
9891.000000;0.488141
9890.000000;0.486720
9889.000000;0.485493
9888.000000;0.484481
9887.000000;0.483597
9886.000000;0.482792
9885.000000;0.481942
9884.000000;0.480857
9883.000000;0.479578
9882.000000;0.478467
9881.000000;0.477785
9880.000000;0.477300
9879.000000;0.476548
9878.000000;0.475397
9877.000000;0.474115
9876.000000;0.472936
9875.000000;0.471824
9874.000000;0.470696
9873.000000;0.469639
9872.000000;0.468778
9871.000000;0.468068
9870.000000;0.467356
9869.000000;0.466602
9868.000000;0.465920
9867.000000;0.465371
9866.000000;0.464780
9865.000000;0.463820
9864.000000;0.462330
9863.000000;0.460516
9862.000000;0.458794
9861.000000;0.457404
9860.000000;0.456260
9859.000000;0.455195
9858.000000;0.454219
9857.000000;0.453414
9856.000000;0.452680
9855.000000;0.451769
9854.000000;0.450597
9853.000000;0.449368
9852.000000;0.448312
9851.000000;0.447389
9850.000000;0.446326
9849.000000;0.444907
9848.000000;0.443224
9847.000000;0.441653
9846.000000;0.440561
9845.000000;0.439949
9844.000000;0.439409
9843.000000;0.438496
9842.000000;0.437171
9841.000000;0.435768
9840.000000;0.434580
9839.000000;0.433598
9838.000000;0.432671
9837.000000;0.431723
9836.000000;0.430731
9835.000000;0.429616
9834.000000;0.428319
9833.000000;0.426925
9832.000000;0.425594
9831.000000;0.424380
9830.000000;0.423202
9829.000000;0.421957
9828.000000;0.420611
9827.000000;0.419206
9826.000000;0.417817
9825.000000;0.416498
9824.000000;0.415228
9823.000000;0.413939
9822.000000;0.412635
9821.000000;0.411443
9820.000000;0.410462
9819.000000;0.409615
9818.000000;0.408708
9817.000000;0.407610
9816.000000;0.406342
9815.000000;0.405024
9814.000000;0.403807
9813.000000;0.402808
9812.000000;0.402022
9811.000000;0.401282
9810.000000;0.400352
9809.000000;0.399101
9808.000000;0.397574
9807.000000;0.395959
9806.000000;0.394494
9805.000000;0.393330
9804.000000;0.392380
9803.000000;0.391337
9802.000000;0.389932
9801.000000;0.388195
9800.000000;0.386414
9799.000000;0.384872
9798.000000;0.383662
9797.000000;0.382715
9796.000000;0.381871
9795.000000;0.380923
9794.000000;0.379737
9793.000000;0.378380
9792.000000;0.377070
9791.000000;0.375928
9790.000000;0.374846
9789.000000;0.373647
9788.000000;0.372320
9787.000000;0.370992
9786.000000;0.369729
9785.000000;0.368440
9784.000000;0.367016
9783.000000;0.365481
9782.000000;0.363946
9781.000000;0.362467
9780.000000;0.361020
9779.000000;0.359630
9778.000000;0.358448
9777.000000;0.357598
9776.000000;0.356945
9775.000000;0.356107
9774.000000;0.354779
9773.000000;0.353021
9772.000000;0.351192
9771.000000;0.349642
9770.000000;0.348509
9769.000000;0.347715
9768.000000;0.347047
9767.000000;0.346237
9766.000000;0.345103
9765.000000;0.343665
9764.000000;0.342082
9763.000000;0.340452
9762.000000;0.338723
9761.000000;0.336837
9760.000000;0.334880
9759.000000;0.333032
9758.000000;0.331401
9757.000000;0.329968
9756.000000;0.328676
9755.000000;0.327475
9754.000000;0.326276
9753.000000;0.324937
9752.000000;0.323398
9751.000000;0.321803
9750.000000;0.320408
9749.000000;0.319297
9748.000000;0.318215
9747.000000;0.316768
9746.000000;0.314833
9745.000000;0.312712
9744.000000;0.310859
9743.000000;0.309498
9742.000000;0.308530
9741.000000;0.307723
9740.000000;0.306879
9739.000000;0.305859
9738.000000;0.304551
9737.000000;0.302915
9736.000000;0.301060
9735.000000;0.299224
9734.000000;0.297629
9733.000000;0.296328
9732.000000;0.295168
9731.000000;0.293950
9730.000000;0.292602
9729.000000;0.291161
9728.000000;0.289622
9727.000000;0.287932
9726.000000;0.286147
9725.000000;0.284460
9724.000000;0.282961
9723.000000;0.281484
9722.000000;0.279853
9721.000000;0.278182
9720.000000;0.276751
9719.000000;0.275599
9718.000000;0.274426
9717.000000;0.272946
9716.000000;0.271183
9715.000000;0.269350
9714.000000;0.267579
9713.000000;0.265879
9712.000000;0.264260
9711.000000;0.262764
9710.000000;0.261421
9709.000000;0.260237
9708.000000;0.259181
9707.000000;0.258099
9706.000000;0.256710
9705.000000;0.254804
9704.000000;0.252470
9703.000000;0.250080
9702.000000;0.248019
9701.000000;0.246423
9700.000000;0.245141
9699.000000;0.243896
9698.000000;0.242510
9697.000000;0.240976
9696.000000;0.239360
9695.000000;0.237694
9694.000000;0.236011
9693.000000;0.234432
9692.000000;0.233075
9691.000000;0.231879
9690.000000;0.230619
9689.000000;0.229128
9688.000000;0.227398
9687.000000;0.225464
9686.000000;0.223334
9685.000000;0.221131
9684.000000;0.219119
9683.000000;0.217458
9682.000000;0.216024
9681.000000;0.214591
9680.000000;0.213111
9679.000000;0.211659
9678.000000;0.210186
9677.000000;0.208522
9676.000000;0.206621
9675.000000;0.204623
9674.000000;0.202665
9673.000000;0.200781
9672.000000;0.199016
9671.000000;0.197464
9670.000000;0.196106
9669.000000;0.194730
9668.000000;0.193108
9667.000000;0.191207
9666.000000;0.189162
9665.000000;0.187102
9664.000000;0.185071
9663.000000;0.183044
9662.000000;0.180958
9661.000000;0.178764
9660.000000;0.176534
9659.000000;0.174490
9658.000000;0.172852
9657.000000;0.171626
9656.000000;0.170561
9655.000000;0.169327
9654.000000;0.167737
9653.000000;0.165860
9652.000000;0.163953
9651.000000;0.162238
9650.000000;0.160690
9649.000000;0.159066
9648.000000;0.157181
9647.000000;0.155120
9646.000000;0.153116
9645.000000;0.151256
9644.000000;0.149412
9643.000000;0.147477
9642.000000;0.145532
9641.000000;0.143728
9640.000000;0.142044
9639.000000;0.140275
9638.000000;0.138247
9637.000000;0.136009
9636.000000;0.133799
9635.000000;0.131868
9634.000000;0.130301
9633.000000;0.128908
9632.000000;0.127307
9631.000000;0.125211
9630.000000;0.122717
9629.000000;0.120258
9628.000000;0.118213
9627.000000;0.116580
9626.000000;0.115072
9625.000000;0.113466
9624.000000;0.111775
9623.000000;0.110093
9622.000000;0.108390
9621.000000;0.106522
9620.000000;0.104398
9619.000000;0.102074
9618.000000;0.099739
9617.000000;0.097609
9616.000000;0.095792
9615.000000;0.094183
9614.000000;0.092520
9613.000000;0.090633
9612.000000;0.088639
9611.000000;0.086821
9610.000000;0.085291
9609.000000;0.083826
9608.000000;0.082092
9607.000000;0.079966
9606.000000;0.077600
9605.000000;0.075210
9604.000000;0.072896
9603.000000;0.070693
9602.000000;0.068648
9601.000000;0.066742
9600.000000;0.064788
9599.000000;0.062557
9598.000000;0.060067
9597.000000;0.057645
9596.000000;0.055646
9595.000000;0.054110
9594.000000;0.052745
9593.000000;0.051202
9592.000000;0.049338
9591.000000;0.047253
9590.000000;0.045142
9589.000000;0.043126
9588.000000;0.041183
9587.000000;0.039197
9586.000000;0.037077
9585.000000;0.034832
9584.000000;0.032536
9583.000000;0.030251
9582.000000;0.027991
9581.000000;0.025746
9580.000000;0.023506
9579.000000;0.021287
9578.000000;0.019124
9577.000000;0.017022
9576.000000;0.014914
9575.000000;0.012748
9574.000000;0.010652
9573.000000;0.008890
9572.000000;0.007548
9571.000000;0.006312
9570.000000;0.004685
9569.000000;0.002470
9568.000000;-0.000071
9567.000000;-0.002526
9566.000000;-0.004704
9565.000000;-0.006656
9564.000000;-0.008476
9563.000000;-0.010232
9562.000000;-0.012042
9561.000000;-0.014039
9560.000000;-0.016202
9559.000000;-0.018312
9558.000000;-0.020204
9557.000000;-0.022014
9556.000000;-0.024051
9555.000000;-0.026366
9554.000000;-0.028600
9553.000000;-0.030395
9552.000000;-0.031892
9551.000000;-0.033619
9550.000000;-0.035860
9549.000000;-0.038318
9548.000000;-0.040496
9547.000000;-0.042265
9546.000000;-0.043907
9545.000000;-0.045691
9544.000000;-0.047604
9543.000000;-0.049486
9542.000000;-0.051263
9541.000000;-0.052983
9540.000000;-0.054739
9539.000000;-0.056611
9538.000000;-0.058639
9537.000000;-0.060792
9536.000000;-0.063016
9535.000000;-0.065281
9534.000000;-0.067539
9533.000000;-0.069657
9532.000000;-0.071501
9531.000000;-0.073094
9530.000000;-0.074614
9529.000000;-0.076202
9528.000000;-0.077838
9527.000000;-0.079413
9526.000000;-0.080861
9525.000000;-0.082234
9524.000000;-0.083711
9523.000000;-0.085536
9522.000000;-0.087791
9521.000000;-0.090200
9520.000000;-0.092273
9519.000000;-0.093756
9518.000000;-0.094885
9517.000000;-0.096138
9516.000000;-0.097734
9515.000000;-0.099473
9514.000000;-0.101036
9513.000000;-0.102382
9512.000000;-0.103778
9511.000000;-0.105481
9510.000000;-0.107482
9509.000000;-0.109597
9508.000000;-0.111709
9507.000000;-0.113754
9506.000000;-0.115539
9505.000000;-0.116841
9504.000000;-0.117770
9503.000000;-0.118812
9502.000000;-0.120304
9501.000000;-0.122030
9500.000000;-0.123570
9499.000000;-0.124902
9498.000000;-0.126339
9497.000000;-0.127918
9496.000000;-0.129228
9495.000000;-0.129972
9494.000000;-0.130384
9493.000000;-0.130934
9492.000000;-0.131822
9491.000000;-0.132954
9490.000000;-0.134219
9489.000000;-0.135574
9488.000000;-0.136945
9487.000000;-0.138272
9486.000000;-0.139608
9485.000000;-0.141034
9484.000000;-0.142485
9483.000000;-0.143772
9482.000000;-0.144739
9481.000000;-0.145346
9480.000000;-0.145679
9479.000000;-0.145963
9478.000000;-0.146475
9477.000000;-0.147302
9476.000000;-0.148229
9475.000000;-0.148982
9474.000000;-0.149543
9473.000000;-0.150135
9472.000000;-0.150917
9471.000000;-0.151805
9470.000000;-0.152585
9469.000000;-0.153143
9468.000000;-0.153605
9467.000000;-0.154273
9466.000000;-0.155335
9465.000000;-0.156567
9464.000000;-0.157441
9463.000000;-0.157645
9462.000000;-0.157427
9461.000000;-0.157298
9460.000000;-0.157477
9459.000000;-0.157791
9458.000000;-0.158067
9457.000000;-0.158370
9456.000000;-0.158817
9455.000000;-0.159336
9454.000000;-0.159738
9453.000000;-0.159933
9452.000000;-0.159976
9451.000000;-0.159958
9450.000000;-0.159927
9449.000000;-0.159899
9448.000000;-0.159887
9447.000000;-0.159903
9446.000000;-0.159913
9445.000000;-0.159820
9444.000000;-0.159526
9443.000000;-0.159049
9442.000000;-0.158540
9441.000000;-0.158136
9440.000000;-0.157832
9439.000000;-0.157555
9438.000000;-0.157302
9437.000000;-0.157120
9436.000000;-0.156976
9435.000000;-0.156770
9434.000000;-0.156480
9433.000000;-0.156191
9432.000000;-0.155951
9431.000000;-0.155670
9430.000000;-0.155217
9429.000000;-0.154555
9428.000000;-0.153782
9427.000000;-0.153035
9426.000000;-0.152385
9425.000000;-0.151759
9424.000000;-0.150994
9423.000000;-0.150017
9422.000000;-0.148953
9421.000000;-0.147994
9420.000000;-0.147174
9419.000000;-0.146346
9418.000000;-0.145414
9417.000000;-0.144492
9416.000000;-0.143768
9415.000000;-0.143266
9414.000000;-0.142815
9413.000000;-0.142216
9412.000000;-0.141426
9411.000000;-0.140557
9410.000000;-0.139741
9409.000000;-0.139001
9408.000000;-0.138251
9407.000000;-0.137404
9406.000000;-0.136455
9405.000000;-0.135479
9404.000000;-0.134553
9403.000000;-0.133687
9402.000000;-0.132770
9401.000000;-0.131615
9400.000000;-0.130141
9399.000000;-0.128567
9398.000000;-0.127292
9397.000000;-0.126496
9396.000000;-0.125915
9395.000000;-0.125107
9394.000000;-0.123881
9393.000000;-0.122362
9392.000000;-0.120735
9391.000000;-0.119115
9390.000000;-0.117665
9389.000000;-0.116612
9388.000000;-0.116030
9387.000000;-0.115693
9386.000000;-0.115220
9385.000000;-0.114309
9384.000000;-0.112812
9383.000000;-0.110738
9382.000000;-0.108319
9381.000000;-0.106018
9380.000000;-0.104314
9379.000000;-0.103390
9378.000000;-0.103003
9377.000000;-0.102631
9376.000000;-0.101798
9375.000000;-0.100368
9374.000000;-0.098594
9373.000000;-0.096849
9372.000000;-0.095284
9371.000000;-0.093788
9370.000000;-0.092262
9369.000000;-0.090805
9368.000000;-0.089562
9367.000000;-0.088482
9366.000000;-0.087357
9365.000000;-0.086057
9364.000000;-0.084658
9363.000000;-0.083341
9362.000000;-0.082215
9361.000000;-0.081202
9360.000000;-0.080048
9359.000000;-0.078479
9358.000000;-0.076440
9357.000000;-0.074195
9356.000000;-0.072149
9355.000000;-0.070537
9354.000000;-0.069274
9353.000000;-0.068083
9352.000000;-0.066747
9351.000000;-0.065269
9350.000000;-0.063817
9349.000000;-0.062536
9348.000000;-0.061421
9347.000000;-0.060375
9346.000000;-0.059348
9345.000000;-0.058344
9344.000000;-0.057301
9343.000000;-0.056058
9342.000000;-0.054507
9341.000000;-0.052710
9340.000000;-0.050848
9339.000000;-0.049070
9338.000000;-0.047441
9337.000000;-0.045976
9336.000000;-0.044671
9335.000000;-0.043503
9334.000000;-0.042455
9333.000000;-0.041503
9332.000000;-0.040575
9331.000000;-0.039560
9330.000000;-0.038380
9329.000000;-0.037030
9328.000000;-0.035546
9327.000000;-0.033964
9326.000000;-0.032337
9325.000000;-0.030714
9324.000000;-0.029080
9323.000000;-0.027405
9322.000000;-0.025760
9321.000000;-0.024327
9320.000000;-0.023193
9319.000000;-0.022200
9318.000000;-0.021101
9317.000000;-0.019809
9316.000000;-0.018423
9315.000000;-0.017043
9314.000000;-0.015666
9313.000000;-0.014252
9312.000000;-0.012804
9311.000000;-0.011364
9310.000000;-0.009975
9309.000000;-0.008645
9308.000000;-0.007304
9307.000000;-0.005819
9306.000000;-0.004142
9305.000000;-0.002427
9304.000000;-0.000924
9303.000000;0.000277
9302.000000;0.001319
9301.000000;0.002379
9300.000000;0.003501
9299.000000;0.004664
9298.000000;0.005911
9297.000000;0.007322
9296.000000;0.008880
9295.000000;0.010472
9294.000000;0.012008
9293.000000;0.013459
9292.000000;0.014782
9291.000000;0.015918
9290.000000;0.016909
9289.000000;0.017932
9288.000000;0.019138
9287.000000;0.020498
9286.000000;0.021881
9285.000000;0.023270
9284.000000;0.024745
9283.000000;0.026239
9282.000000;0.027463
9281.000000;0.028208
9280.000000;0.028687
9279.000000;0.029408
9278.000000;0.030686
9277.000000;0.032369
9276.000000;0.034054
9275.000000;0.035487
9274.000000;0.036685
9273.000000;0.037793
9272.000000;0.038962
9271.000000;0.040330
9270.000000;0.041979
9269.000000;0.043804
9268.000000;0.045484
9267.000000;0.046669
9266.000000;0.047264
9265.000000;0.047546
9264.000000;0.048012
9263.000000;0.049057
9262.000000;0.050708
9261.000000;0.052613
9260.000000;0.054266
9259.000000;0.055336
9258.000000;0.055862
9257.000000;0.056214
9256.000000;0.056831
9255.000000;0.057937
9254.000000;0.059405
9253.000000;0.060892
9252.000000;0.062086
9251.000000;0.062896
9250.000000;0.063462
9249.000000;0.064049
9248.000000;0.064883
9247.000000;0.066033
9246.000000;0.067415
9245.000000;0.068905
9244.000000;0.070417
9243.000000;0.071844
9242.000000;0.073008
9241.000000;0.073806
9240.000000;0.074406
9239.000000;0.075180
9238.000000;0.076359
9237.000000;0.077826
9236.000000;0.079283
9235.000000;0.080557
9234.000000;0.081672
9233.000000;0.082704
9232.000000;0.083688
9231.000000;0.084640
9230.000000;0.085568
9229.000000;0.086435
9228.000000;0.087185
9227.000000;0.087830
9226.000000;0.088489
9225.000000;0.089305
9224.000000;0.090359
9223.000000;0.091652
9222.000000;0.093107
9221.000000;0.094550
9220.000000;0.095752
9219.000000;0.096585
9218.000000;0.097162
9217.000000;0.097779
9216.000000;0.098672
9215.000000;0.099825
9214.000000;0.101029
9213.000000;0.102099
9212.000000;0.102994
9211.000000;0.103746
9210.000000;0.104371
9209.000000;0.104916
9208.000000;0.105527
9207.000000;0.106346
9206.000000;0.107335
9205.000000;0.108279
9204.000000;0.109034
9203.000000;0.109693
9202.000000;0.110472
9201.000000;0.111485
9200.000000;0.112690
9199.000000;0.113973
9198.000000;0.115210
9197.000000;0.116290
9196.000000;0.117181
9195.000000;0.117974
9194.000000;0.118783
9193.000000;0.119594
9192.000000;0.120289
9191.000000;0.120843
9190.000000;0.121409
9189.000000;0.122178
9188.000000;0.123208
9187.000000;0.124419
9186.000000;0.125664
9185.000000;0.126775
9184.000000;0.127605
9183.000000;0.128136
9182.000000;0.128567
9181.000000;0.129199
9180.000000;0.130185
9179.000000;0.131407
9178.000000;0.132596
9177.000000;0.133568
9176.000000;0.134351
9175.000000;0.135099
9174.000000;0.135927
9173.000000;0.136782
9172.000000;0.137495
9171.000000;0.137956
9170.000000;0.138257
9169.000000;0.138634
9168.000000;0.139270
9167.000000;0.140173
9166.000000;0.141241
9165.000000;0.142371
9164.000000;0.143461
9163.000000;0.144387
9162.000000;0.145072
9161.000000;0.145603
9160.000000;0.146191
9159.000000;0.146979
9158.000000;0.147884
9157.000000;0.148676
9156.000000;0.149195
9155.000000;0.149516
9154.000000;0.149909
9153.000000;0.150620
9152.000000;0.151641
9151.000000;0.152692
9150.000000;0.153490
9149.000000;0.154041
9148.000000;0.154599
9147.000000;0.155328
9146.000000;0.156109
9145.000000;0.156737
9144.000000;0.157211
9143.000000;0.157719
9142.000000;0.158395
9141.000000;0.159200
9140.000000;0.160015
9139.000000;0.160758
9138.000000;0.161396
9137.000000;0.161960
9136.000000;0.162549
9135.000000;0.163220
9134.000000;0.163863
9133.000000;0.164307
9132.000000;0.164593
9131.000000;0.165024
9130.000000;0.165825
9129.000000;0.166842
9128.000000;0.167707
9127.000000;0.168248
9126.000000;0.168619
9125.000000;0.169023
9124.000000;0.169482
9123.000000;0.169939
9122.000000;0.170441
9121.000000;0.171096
9120.000000;0.171907
9119.000000;0.172761
9118.000000;0.173573
9117.000000;0.174345
9116.000000;0.175078
9115.000000;0.175731
9114.000000;0.176310
9113.000000;0.176882
9112.000000;0.177455
9111.000000;0.177904
9110.000000;0.178140
9109.000000;0.178304
9108.000000;0.178683
9107.000000;0.179414
9106.000000;0.180381
9105.000000;0.181380
9104.000000;0.182307
9103.000000;0.183127
9102.000000;0.183788
9101.000000;0.184253
9100.000000;0.184569
9099.000000;0.184820
9098.000000;0.185049
9097.000000;0.185292
9096.000000;0.185663
9095.000000;0.186307
9094.000000;0.187244
9093.000000;0.188318
9092.000000;0.189311
9091.000000;0.190080
9090.000000;0.190601
9089.000000;0.190926
9088.000000;0.191137
9087.000000;0.191311
9086.000000;0.191509
9085.000000;0.191787
9084.000000;0.192189
9083.000000;0.192710
9082.000000;0.193278
9081.000000;0.193801
9080.000000;0.194219
9079.000000;0.194515
9078.000000;0.194727
9077.000000;0.194979
9076.000000;0.195414
9075.000000;0.196030
9074.000000;0.196635
9073.000000;0.197067
9072.000000;0.197421
9071.000000;0.197929
9070.000000;0.198607
9069.000000;0.199172
9068.000000;0.199385
9067.000000;0.199367
9066.000000;0.199459
9065.000000;0.199825
