Criado como novo conjunto de dados;"0307_DANIEL.spp","16022.3 Secs"
cm-1;Abs
10000.000000;0.843824
9999.000000;0.842714
9998.000000;0.841516
9997.000000;0.840512
9996.000000;0.839830
9995.000000;0.839204
9994.000000;0.838187
9993.000000;0.836636
9992.000000;0.834890
9991.000000;0.833426
9990.000000;0.832410
9989.000000;0.831642
9988.000000;0.830844
9987.000000;0.829834
9986.000000;0.828457
9985.000000;0.826586
9984.000000;0.824355
9983.000000;0.822278
9982.000000;0.820895
9981.000000;0.820267
9980.000000;0.819921
9979.000000;0.819311
9978.000000;0.818269
9977.000000;0.816984
9976.000000;0.815679
9975.000000;0.814430
9974.000000;0.813244
9973.000000;0.812120
9972.000000;0.810983
9971.000000;0.809685
9970.000000;0.808184
9969.000000;0.806699
9968.000000;0.805507
9967.000000;0.804572
9966.000000;0.803493
9965.000000;0.801936
9964.000000;0.800026
9963.000000;0.798225
9962.000000;0.796860
9961.000000;0.795902
9960.000000;0.795132
9959.000000;0.794347
9958.000000;0.793405
9957.000000;0.792229
9956.000000;0.790890
9955.000000;0.789593
9954.000000;0.788492
9953.000000;0.787549
9952.000000;0.786641
9951.000000;0.785715
9950.000000;0.784765
9949.000000;0.783707
9948.000000;0.782398
9947.000000;0.780787
9946.000000;0.779010
9945.000000;0.777313
9944.000000;0.775877
9943.000000;0.774688
9942.000000;0.773556
9941.000000;0.772303
9940.000000;0.770954
9939.000000;0.769697
9938.000000;0.768664
9937.000000;0.767794
9936.000000;0.766930
9935.000000;0.765975
9934.000000;0.764889
9933.000000;0.763620
9932.000000;0.762126
9931.000000;0.760481
9930.000000;0.758891
9929.000000;0.757544
9928.000000;0.756427
9927.000000;0.755311
9926.000000;0.753996
9925.000000;0.752571
9924.000000;0.751324
9923.000000;0.750324
9922.000000;0.749239
9921.000000;0.747730
9920.000000;0.745959
9919.000000;0.744439
9918.000000;0.743385
9917.000000;0.742458
9916.000000;0.741276
9915.000000;0.739932
9914.000000;0.738797
9913.000000;0.737953
9912.000000;0.737092
9911.000000;0.735951
9910.000000;0.734606
9909.000000;0.733261
9908.000000;0.731939
9907.000000;0.730499
9906.000000;0.728877
9905.000000;0.727165
9904.000000;0.725478
9903.000000;0.723848
9902.000000;0.722327
9901.000000;0.721061
9900.000000;0.720121
9899.000000;0.719264
9898.000000;0.718046
9897.000000;0.716305
9896.000000;0.714409
9895.000000;0.712871
9894.000000;0.711800
9893.000000;0.710894
9892.000000;0.709896
9891.000000;0.708791
9890.000000;0.707553
9889.000000;0.706023
9888.000000;0.704190
9887.000000;0.702405
9886.000000;0.701089
9885.000000;0.700293
9884.000000;0.699673
9883.000000;0.698815
9882.000000;0.697504
9881.000000;0.695793
9880.000000;0.693961
9879.000000;0.692331
9878.000000;0.690999
9877.000000;0.689743
9876.000000;0.688291
9875.000000;0.686638
9874.000000;0.685023
9873.000000;0.683639
9872.000000;0.682424
9871.000000;0.681129
9870.000000;0.679521
9869.000000;0.677607
9868.000000;0.675688
9867.000000;0.674141
9866.000000;0.673057
9865.000000;0.672166
9864.000000;0.671161
9863.000000;0.669995
9862.000000;0.668796
9861.000000;0.667585
9860.000000;0.666244
9859.000000;0.664695
9858.000000;0.662970
9857.000000;0.661166
9856.000000;0.659433
9855.000000;0.657952
9854.000000;0.656780
9853.000000;0.655727
9852.000000;0.654515
9851.000000;0.653042
9850.000000;0.651423
9849.000000;0.649784
9848.000000;0.648153
9847.000000;0.646542
9846.000000;0.644996
9845.000000;0.643547
9844.000000;0.642166
9843.000000;0.640796
9842.000000;0.639392
9841.000000;0.637946
9840.000000;0.636513
9839.000000;0.635176
9838.000000;0.633929
9837.000000;0.632655
9836.000000;0.631275
9835.000000;0.629845
9834.000000;0.628455
9833.000000;0.627090
9832.000000;0.625664
9831.000000;0.624111
9830.000000;0.622379
9829.000000;0.620443
9828.000000;0.618462
9827.000000;0.616763
9826.000000;0.615481
9825.000000;0.614287
9824.000000;0.612706
9823.000000;0.610694
9822.000000;0.608679
9821.000000;0.607008
9820.000000;0.605617
9819.000000;0.604303
9818.000000;0.603053
9817.000000;0.601933
9816.000000;0.600817
9815.000000;0.599469
9814.000000;0.597851
9813.000000;0.596176
9812.000000;0.594641
9811.000000;0.593227
9810.000000;0.591782
9809.000000;0.590220
9808.000000;0.588592
9807.000000;0.587011
9806.000000;0.585529
9805.000000;0.584075
9804.000000;0.582521
9803.000000;0.580801
9802.000000;0.578964
9801.000000;0.577120
9800.000000;0.575366
9799.000000;0.573734
9798.000000;0.572158
9797.000000;0.570504
9796.000000;0.568710
9795.000000;0.566899
9794.000000;0.565255
9793.000000;0.563791
9792.000000;0.562322
9791.000000;0.560721
9790.000000;0.559100
9789.000000;0.557668
9788.000000;0.556475
9787.000000;0.555385
9786.000000;0.554230
9785.000000;0.552864
9784.000000;0.551131
9783.000000;0.548975
9782.000000;0.546640
9781.000000;0.544604
9780.000000;0.543158
9779.000000;0.542093
9778.000000;0.540875
9777.000000;0.539151
9776.000000;0.537002
9775.000000;0.534769
9774.000000;0.532722
9773.000000;0.530944
9772.000000;0.529400
9771.000000;0.528020
9770.000000;0.526721
9769.000000;0.525412
9768.000000;0.524012
9767.000000;0.522464
9766.000000;0.520752
9765.000000;0.518912
9764.000000;0.517020
9763.000000;0.515154
9762.000000;0.513376
9761.000000;0.511722
9760.000000;0.510161
9759.000000;0.508565
9758.000000;0.506818
9757.000000;0.504956
9756.000000;0.503147
9755.000000;0.501474
9754.000000;0.499853
9753.000000;0.498212
9752.000000;0.496617
9751.000000;0.495105
9750.000000;0.493516
9749.000000;0.491675
9748.000000;0.489690
9747.000000;0.487846
9746.000000;0.486211
9745.000000;0.484553
9744.000000;0.482688
9743.000000;0.480726
9742.000000;0.478867
9741.000000;0.477144
9740.000000;0.475468
9739.000000;0.473796
9738.000000;0.472115
9737.000000;0.470381
9736.000000;0.468598
9735.000000;0.466872
9734.000000;0.465253
9733.000000;0.463605
9732.000000;0.461758
9731.000000;0.459722
9730.000000;0.457642
9729.000000;0.455633
9728.000000;0.453762
9727.000000;0.452067
9726.000000;0.450424
9725.000000;0.448512
9724.000000;0.446151
9723.000000;0.443634
9722.000000;0.441494
9721.000000;0.439913
9720.000000;0.438554
9719.000000;0.437020
9718.000000;0.435272
9717.000000;0.433527
9716.000000;0.431927
9715.000000;0.430435
9714.000000;0.428924
9713.000000;0.427238
9712.000000;0.425262
9711.000000;0.423033
9710.000000;0.420733
9709.000000;0.418496
9708.000000;0.416315
9707.000000;0.414172
9706.000000;0.412158
9705.000000;0.410356
9704.000000;0.408711
9703.000000;0.407119
9702.000000;0.405542
9701.000000;0.403913
9700.000000;0.402036
9699.000000;0.399782
9698.000000;0.397362
9697.000000;0.395218
9696.000000;0.393599
9695.000000;0.392348
9694.000000;0.391096
9693.000000;0.389573
9692.000000;0.387697
9691.000000;0.385541
9690.000000;0.383268
9689.000000;0.381023
9688.000000;0.378775
9687.000000;0.376373
9686.000000;0.373804
9685.000000;0.371340
9684.000000;0.369286
9683.000000;0.367648
9682.000000;0.366112
9681.000000;0.364383
9680.000000;0.362445
9679.000000;0.360483
9678.000000;0.358631
9677.000000;0.356827
9676.000000;0.354905
9675.000000;0.352782
9674.000000;0.350547
9673.000000;0.348366
9672.000000;0.346309
9671.000000;0.344298
9670.000000;0.342230
9669.000000;0.340117
9668.000000;0.338066
9667.000000;0.336134
9666.000000;0.334243
9665.000000;0.332239
9664.000000;0.330055
9663.000000;0.327803
9662.000000;0.325718
9661.000000;0.323941
9660.000000;0.322351
9659.000000;0.320615
9658.000000;0.318453
9657.000000;0.315841
9656.000000;0.312988
9655.000000;0.310186
9654.000000;0.307680
9653.000000;0.305573
9652.000000;0.303740
9651.000000;0.301910
9650.000000;0.299921
9649.000000;0.297883
9648.000000;0.295996
9647.000000;0.294251
9646.000000;0.292417
9645.000000;0.290330
9644.000000;0.288054
9643.000000;0.285745
9642.000000;0.283473
9641.000000;0.281221
9640.000000;0.278982
9639.000000;0.276776
9638.000000;0.274613
9637.000000;0.272490
9636.000000;0.270369
9635.000000;0.268168
9634.000000;0.265829
9633.000000;0.263427
9632.000000;0.261131
9631.000000;0.259028
9630.000000;0.257058
9629.000000;0.255137
9628.000000;0.253237
9627.000000;0.251300
9626.000000;0.249205
9625.000000;0.246929
9624.000000;0.244628
9623.000000;0.242436
9622.000000;0.240270
9621.000000;0.237963
9620.000000;0.235522
9619.000000;0.233094
9618.000000;0.230708
9617.000000;0.228232
9616.000000;0.225602
9615.000000;0.222939
9614.000000;0.220401
9613.000000;0.218030
9612.000000;0.215829
9611.000000;0.213851
9610.000000;0.212131
9609.000000;0.210578
9608.000000;0.208992
9607.000000;0.207166
9606.000000;0.204972
9605.000000;0.202423
9604.000000;0.199703
9603.000000;0.197057
9602.000000;0.194596
9601.000000;0.192225
9600.000000;0.189828
9599.000000;0.187439
9598.000000;0.185139
9597.000000;0.182871
9596.000000;0.180464
9595.000000;0.177871
9594.000000;0.175260
9593.000000;0.172843
9592.000000;0.170669
9591.000000;0.168630
9590.000000;0.166603
9589.000000;0.164532
9588.000000;0.162432
9587.000000;0.160357
9586.000000;0.158344
9585.000000;0.156325
9584.000000;0.154130
9583.000000;0.151652
9582.000000;0.149001
9581.000000;0.146414
9580.000000;0.144003
9579.000000;0.141682
9578.000000;0.139327
9577.000000;0.136928
9576.000000;0.134537
9575.000000;0.132181
9574.000000;0.129882
9573.000000;0.127672
9572.000000;0.125506
9571.000000;0.123266
9570.000000;0.120940
9569.000000;0.118694
9568.000000;0.116610
9567.000000;0.114459
9566.000000;0.111938
9565.000000;0.109122
9564.000000;0.106451
9563.000000;0.104219
9562.000000;0.102279
9561.000000;0.100292
9560.000000;0.098103
9559.000000;0.095758
9558.000000;0.093320
9557.000000;0.090850
9556.000000;0.088451
9555.000000;0.086193
9554.000000;0.084014
9553.000000;0.081819
9552.000000;0.079604
9551.000000;0.077404
9550.000000;0.075167
9549.000000;0.072817
9548.000000;0.070416
9547.000000;0.068143
9546.000000;0.066118
9545.000000;0.064296
9544.000000;0.062528
9543.000000;0.060658
9542.000000;0.058593
9541.000000;0.056327
9540.000000;0.053902
9539.000000;0.051336
9538.000000;0.048663
9537.000000;0.046043
9536.000000;0.043689
9535.000000;0.041637
9534.000000;0.039667
9533.000000;0.037570
9532.000000;0.035354
9531.000000;0.033128
9530.000000;0.030900
9529.000000;0.028673
9528.000000;0.026597
9527.000000;0.024809
9526.000000;0.023154
9525.000000;0.021293
9524.000000;0.019111
9523.000000;0.016823
9522.000000;0.014676
9521.000000;0.012693
9520.000000;0.010768
9519.000000;0.008838
9518.000000;0.006882
9517.000000;0.004873
9516.000000;0.002825
9515.000000;0.000845
9514.000000;-0.000947
9513.000000;-0.002516
9512.000000;-0.003942
9511.000000;-0.005399
9510.000000;-0.007066
9509.000000;-0.008973
9508.000000;-0.010931
9507.000000;-0.012722
9506.000000;-0.014350
9505.000000;-0.016008
9504.000000;-0.017804
9503.000000;-0.019647
9502.000000;-0.021399
9501.000000;-0.023028
9500.000000;-0.024577
9499.000000;-0.026123
9498.000000;-0.027793
9497.000000;-0.029680
9496.000000;-0.031671
9495.000000;-0.033489
9494.000000;-0.035002
9493.000000;-0.036382
9492.000000;-0.037865
9491.000000;-0.039435
9490.000000;-0.040865
9489.000000;-0.042022
9488.000000;-0.043006
9487.000000;-0.044012
9486.000000;-0.045170
9485.000000;-0.046498
9484.000000;-0.047940
9483.000000;-0.049388
9482.000000;-0.050726
9481.000000;-0.051857
9480.000000;-0.052744
9479.000000;-0.053450
9478.000000;-0.054167
9477.000000;-0.055106
9476.000000;-0.056310
9475.000000;-0.057595
9474.000000;-0.058720
9473.000000;-0.059599
9472.000000;-0.060317
9471.000000;-0.061013
9470.000000;-0.061812
9469.000000;-0.062822
9468.000000;-0.064066
9467.000000;-0.065398
9466.000000;-0.066556
9465.000000;-0.067360
9464.000000;-0.067833
9463.000000;-0.068147
9462.000000;-0.068478
9461.000000;-0.068938
9460.000000;-0.069575
9459.000000;-0.070339
9458.000000;-0.071066
9457.000000;-0.071561
9456.000000;-0.071795
9455.000000;-0.071970
9454.000000;-0.072341
9453.000000;-0.072965
9452.000000;-0.073680
9451.000000;-0.074318
9450.000000;-0.074819
9449.000000;-0.075142
9448.000000;-0.075204
9447.000000;-0.075025
9446.000000;-0.074841
9445.000000;-0.074898
9444.000000;-0.075169
9443.000000;-0.075410
9442.000000;-0.075482
9441.000000;-0.075481
9440.000000;-0.075524
9439.000000;-0.075568
9438.000000;-0.075522
9437.000000;-0.075419
9436.000000;-0.075365
9435.000000;-0.075365
9434.000000;-0.075315
9433.000000;-0.075139
9432.000000;-0.074863
9431.000000;-0.074554
9430.000000;-0.074236
9429.000000;-0.073864
9428.000000;-0.073394
9427.000000;-0.072863
9426.000000;-0.072408
9425.000000;-0.072145
9424.000000;-0.072034
9423.000000;-0.071916
9422.000000;-0.071677
9421.000000;-0.071316
9420.000000;-0.070841
9419.000000;-0.070218
9418.000000;-0.069474
9417.000000;-0.068752
9416.000000;-0.068173
9415.000000;-0.067705
9414.000000;-0.067264
9413.000000;-0.066852
9412.000000;-0.066498
9411.000000;-0.066092
9410.000000;-0.065453
9409.000000;-0.064574
9408.000000;-0.063654
9407.000000;-0.062848
9406.000000;-0.062070
9405.000000;-0.061139
9404.000000;-0.060038
9403.000000;-0.058953
9402.000000;-0.058052
9401.000000;-0.057316
9400.000000;-0.056588
9399.000000;-0.055764
9398.000000;-0.054892
9397.000000;-0.054101
9396.000000;-0.053417
9395.000000;-0.052704
9394.000000;-0.051816
9393.000000;-0.050807
9392.000000;-0.049895
9391.000000;-0.049183
9390.000000;-0.048500
9389.000000;-0.047592
9388.000000;-0.046429
9387.000000;-0.045221
9386.000000;-0.044131
9385.000000;-0.043116
9384.000000;-0.042068
9383.000000;-0.040990
9382.000000;-0.039935
9381.000000;-0.038856
9380.000000;-0.037652
9379.000000;-0.036346
9378.000000;-0.035085
9377.000000;-0.033948
9376.000000;-0.032866
9375.000000;-0.031751
9374.000000;-0.030611
9373.000000;-0.029487
9372.000000;-0.028370
9371.000000;-0.027255
9370.000000;-0.026198
9369.000000;-0.025231
9368.000000;-0.024269
9367.000000;-0.023182
9366.000000;-0.021950
9365.000000;-0.020680
9364.000000;-0.019474
9363.000000;-0.018319
9362.000000;-0.017120
9361.000000;-0.015804
9360.000000;-0.014405
9359.000000;-0.013070
9358.000000;-0.011926
9357.000000;-0.010936
9356.000000;-0.009930
9355.000000;-0.008804
9354.000000;-0.007624
9353.000000;-0.006497
9352.000000;-0.005409
9351.000000;-0.004286
9350.000000;-0.003147
9349.000000;-0.002086
9348.000000;-0.001143
9347.000000;-0.000251
9346.000000;0.000675
9345.000000;0.001706
9344.000000;0.002913
9343.000000;0.004338
9342.000000;0.005944
9341.000000;0.007630
9340.000000;0.009278
9339.000000;0.010750
9338.000000;0.011917
9337.000000;0.012802
9336.000000;0.013642
9335.000000;0.014721
9334.000000;0.016111
9333.000000;0.017651
9332.000000;0.019119
9331.000000;0.020366
9330.000000;0.021362
9329.000000;0.022221
9328.000000;0.023148
9327.000000;0.024254
9326.000000;0.025440
9325.000000;0.026562
9324.000000;0.027639
9323.000000;0.028775
9322.000000;0.029942
9321.000000;0.031032
9320.000000;0.032091
9319.000000;0.033295
9318.000000;0.034670
9317.000000;0.036027
9316.000000;0.037238
9315.000000;0.038373
9314.000000;0.039499
9313.000000;0.040523
9312.000000;0.041372
9311.000000;0.042184
9310.000000;0.043166
9309.000000;0.044343
9308.000000;0.045565
9307.000000;0.046696
9306.000000;0.047735
9305.000000;0.048800
9304.000000;0.050062
9303.000000;0.051594
9302.000000;0.053227
9301.000000;0.054636
9300.000000;0.055665
9299.000000;0.056501
9298.000000;0.057445
9297.000000;0.058609
9296.000000;0.059907
9295.000000;0.061240
9294.000000;0.062553
9293.000000;0.063781
9292.000000;0.064875
9291.000000;0.065872
9290.000000;0.066845
9289.000000;0.067803
9288.000000;0.068717
9287.000000;0.069594
9286.000000;0.070466
9285.000000;0.071349
9284.000000;0.072286
9283.000000;0.073371
9282.000000;0.074633
9281.000000;0.075953
9280.000000;0.077156
9279.000000;0.078175
9278.000000;0.079047
9277.000000;0.079827
9276.000000;0.080590
9275.000000;0.081477
9274.000000;0.082604
9273.000000;0.083929
9272.000000;0.085278
9271.000000;0.086520
9270.000000;0.087630
9269.000000;0.088617
9268.000000;0.089476
9267.000000;0.090230
9266.000000;0.090961
9265.000000;0.091782
9264.000000;0.092772
9263.000000;0.093947
9262.000000;0.095245
9261.000000;0.096563
9260.000000;0.097810
9259.000000;0.098911
9258.000000;0.099793
9257.000000;0.100452
9256.000000;0.101045
9255.000000;0.101813
9254.000000;0.102827
9253.000000;0.103910
9252.000000;0.104876
9251.000000;0.105761
9250.000000;0.106704
9249.000000;0.107686
9248.000000;0.108533
9247.000000;0.109147
9246.000000;0.109634
9245.000000;0.110193
9244.000000;0.110978
9243.000000;0.112043
9242.000000;0.113315
9241.000000;0.114578
9240.000000;0.115601
9239.000000;0.116326
9238.000000;0.116912
9237.000000;0.117563
9236.000000;0.118377
9235.000000;0.119345
9234.000000;0.120437
9233.000000;0.121618
9232.000000;0.122820
9231.000000;0.123912
9230.000000;0.124760
9229.000000;0.125330
9228.000000;0.125765
9227.000000;0.126314
9226.000000;0.127129
9225.000000;0.128139
9224.000000;0.129133
9223.000000;0.129943
9222.000000;0.130557
9221.000000;0.131115
9220.000000;0.131815
9219.000000;0.132775
9218.000000;0.133905
9217.000000;0.134961
9216.000000;0.135780
9215.000000;0.136411
9214.000000;0.137001
9213.000000;0.137617
9212.000000;0.138265
9211.000000;0.138990
9210.000000;0.139840
9209.000000;0.140737
9208.000000;0.141525
9207.000000;0.142164
9206.000000;0.142794
9205.000000;0.143556
9204.000000;0.144428
9203.000000;0.145277
9202.000000;0.146027
9201.000000;0.146725
9200.000000;0.147462
9199.000000;0.148268
9198.000000;0.149086
9197.000000;0.149839
9196.000000;0.150493
9195.000000;0.151065
9194.000000;0.151569
9193.000000;0.152034
9192.000000;0.152556
9191.000000;0.153255
9190.000000;0.154135
9189.000000;0.155038
9188.000000;0.155810
9187.000000;0.156454
9186.000000;0.157066
9185.000000;0.157701
9184.000000;0.158355
9183.000000;0.159040
9182.000000;0.159753
9181.000000;0.160439
9180.000000;0.161076
9179.000000;0.161765
9178.000000;0.162605
9177.000000;0.163482
9176.000000;0.164162
9175.000000;0.164596
9174.000000;0.165010
9173.000000;0.165607
9172.000000;0.166319
9171.000000;0.166930
9170.000000;0.167359
9169.000000;0.167728
9168.000000;0.168221
9167.000000;0.168938
9166.000000;0.169851
9165.000000;0.170814
9164.000000;0.171631
9163.000000;0.172219
9162.000000;0.172662
9161.000000;0.173089
9160.000000;0.173523
9159.000000;0.173931
9158.000000;0.174363
9157.000000;0.174931
9156.000000;0.175627
9155.000000;0.176299
9154.000000;0.176831
9153.000000;0.177283
9152.000000;0.177773
9151.000000;0.178302
9150.000000;0.178777
9149.000000;0.179188
9148.000000;0.179645
9147.000000;0.180223
9146.000000;0.180861
9145.000000;0.181449
9144.000000;0.181997
9143.000000;0.182621
9142.000000;0.183365
9141.000000;0.184102
9140.000000;0.184653
9139.000000;0.184981
9138.000000;0.185244
9137.000000;0.185624
9136.000000;0.186145
9135.000000;0.186672
9134.000000;0.187083
9133.000000;0.187399
9132.000000;0.187748
9131.000000;0.188237
9130.000000;0.188877
9129.000000;0.189598
9128.000000;0.190285
9127.000000;0.190830
9126.000000;0.191212
9125.000000;0.191543
9124.000000;0.191983
9123.000000;0.192577
9122.000000;0.193209
9121.000000;0.193734
9120.000000;0.194104
9119.000000;0.194355
9118.000000;0.194538
9117.000000;0.194727
9116.000000;0.195036
9115.000000;0.195532
9114.000000;0.196127
9113.000000;0.196648
9112.000000;0.197033
9111.000000;0.197397
9110.000000;0.197907
9109.000000;0.198611
9108.000000;0.199414
9107.000000;0.200156
9106.000000;0.200696
9105.000000;0.200975
9104.000000;0.201056
9103.000000;0.201087
9102.000000;0.201189
9101.000000;0.201394
9100.000000;0.201681
9099.000000;0.202055
9098.000000;0.202568
9097.000000;0.203247
9096.000000;0.204034
9095.000000;0.204787
9094.000000;0.205364
9093.000000;0.205720
9092.000000;0.205932
9091.000000;0.206131
9090.000000;0.206414
9089.000000;0.206790
9088.000000;0.207182
9087.000000;0.207468
9086.000000;0.207592
9085.000000;0.207656
9084.000000;0.207853
9083.000000;0.208274
9082.000000;0.208812
9081.000000;0.209308
9080.000000;0.209739
9079.000000;0.210199
9078.000000;0.210736
9077.000000;0.211298
9076.000000;0.211823
9075.000000;0.212288
9074.000000;0.212663
9073.000000;0.212908
9072.000000;0.213032
9071.000000;0.213094
9070.000000;0.213130
9069.000000;0.213150
9068.000000;0.213202
9067.000000;0.213369
9066.000000;0.213694
9065.000000;0.214155
9064.000000;0.214704
9063.000000;0.215272
9062.000000;0.215736
9061.000000;0.216012
