Criado como novo conjunto de dados;"0307_DANIEL.spp","2521.9 Secs"
cm-1;Abs
10000.000000;0.246613
9999.000000;0.245464
9998.000000;0.244274
9997.000000;0.243080
9996.000000;0.241965
9995.000000;0.240974
9994.000000;0.240043
9993.000000;0.239047
9992.000000;0.237911
9991.000000;0.236680
9990.000000;0.235463
9989.000000;0.234333
9988.000000;0.233293
9987.000000;0.232305
9986.000000;0.231322
9985.000000;0.230309
9984.000000;0.229250
9983.000000;0.228161
9982.000000;0.227061
9981.000000;0.225942
9980.000000;0.224781
9979.000000;0.223580
9978.000000;0.222380
9977.000000;0.221223
9976.000000;0.220135
9975.000000;0.219121
9974.000000;0.218164
9973.000000;0.217208
9972.000000;0.216164
9971.000000;0.214974
9970.000000;0.213666
9969.000000;0.212343
9968.000000;0.211102
9967.000000;0.209967
9966.000000;0.208903
9965.000000;0.207863
9964.000000;0.206834
9963.000000;0.205824
9962.000000;0.204827
9961.000000;0.203810
9960.000000;0.202725
9959.000000;0.201545
9958.000000;0.200287
9957.000000;0.198994
9956.000000;0.197693
9955.000000;0.196385
9954.000000;0.195098
9953.000000;0.193922
9952.000000;0.192931
9951.000000;0.192040
9950.000000;0.191025
9949.000000;0.189737
9948.000000;0.188289
9947.000000;0.186942
9946.000000;0.185833
9945.000000;0.184880
9944.000000;0.183933
9943.000000;0.182929
9942.000000;0.181864
9941.000000;0.180724
9940.000000;0.179500
9939.000000;0.178229
9938.000000;0.176963
9937.000000;0.175724
9936.000000;0.174526
9935.000000;0.173405
9934.000000;0.172357
9933.000000;0.171285
9932.000000;0.170062
9931.000000;0.168671
9930.000000;0.167221
9929.000000;0.165839
9928.000000;0.164573
9927.000000;0.163391
9926.000000;0.162252
9925.000000;0.161142
9924.000000;0.160073
9923.000000;0.159047
9922.000000;0.158030
9921.000000;0.156966
9920.000000;0.155822
9919.000000;0.154605
9918.000000;0.153334
9917.000000;0.152030
9916.000000;0.150729
9915.000000;0.149475
9914.000000;0.148273
9913.000000;0.147087
9912.000000;0.145881
9911.000000;0.144640
9910.000000;0.143335
9909.000000;0.141927
9908.000000;0.140452
9907.000000;0.139049
9906.000000;0.137831
9905.000000;0.136751
9904.000000;0.135656
9903.000000;0.134452
9902.000000;0.133151
9901.000000;0.131796
9900.000000;0.130409
9899.000000;0.129047
9898.000000;0.127816
9897.000000;0.126763
9896.000000;0.125779
9895.000000;0.124668
9894.000000;0.123317
9893.000000;0.121772
9892.000000;0.120158
9891.000000;0.118582
9890.000000;0.117111
9889.000000;0.115813
9888.000000;0.114737
9887.000000;0.113838
9886.000000;0.112928
9885.000000;0.111790
9884.000000;0.110343
9883.000000;0.108708
9882.000000;0.107102
9881.000000;0.105678
9880.000000;0.104458
9879.000000;0.103356
9878.000000;0.102248
9877.000000;0.101038
9876.000000;0.099724
9875.000000;0.098387
9874.000000;0.097116
9873.000000;0.095919
9872.000000;0.094729
9871.000000;0.093477
9870.000000;0.092148
9869.000000;0.090775
9868.000000;0.089425
9867.000000;0.088159
9866.000000;0.086997
9865.000000;0.085887
9864.000000;0.084730
9863.000000;0.083450
9862.000000;0.082028
9861.000000;0.080511
9860.000000;0.078989
9859.000000;0.077552
9858.000000;0.076223
9857.000000;0.074939
9856.000000;0.073615
9855.000000;0.072224
9854.000000;0.070810
9853.000000;0.069420
9852.000000;0.068054
9851.000000;0.066676
9850.000000;0.065242
9849.000000;0.063730
9848.000000;0.062185
9847.000000;0.060712
9846.000000;0.059392
9845.000000;0.058176
9844.000000;0.056897
9843.000000;0.055430
9842.000000;0.053834
9841.000000;0.052293
9840.000000;0.050918
9839.000000;0.049640
9838.000000;0.048315
9837.000000;0.046906
9836.000000;0.045523
9835.000000;0.044270
9834.000000;0.043087
9833.000000;0.041791
9832.000000;0.040270
9831.000000;0.038588
9830.000000;0.036899
9829.000000;0.035296
9828.000000;0.033769
9827.000000;0.032280
9826.000000;0.030817
9825.000000;0.029380
9824.000000;0.027952
9823.000000;0.026522
9822.000000;0.025100
9821.000000;0.023698
9820.000000;0.022303
9819.000000;0.020888
9818.000000;0.019445
9817.000000;0.017994
9816.000000;0.016575
9815.000000;0.015244
9814.000000;0.014033
9813.000000;0.012887
9812.000000;0.011650
9811.000000;0.010176
9810.000000;0.008486
9809.000000;0.006798
9808.000000;0.005332
9807.000000;0.004100
9806.000000;0.002896
9805.000000;0.001499
9804.000000;-0.000139
9803.000000;-0.001906
9802.000000;-0.003662
9801.000000;-0.005350
9800.000000;-0.006986
9799.000000;-0.008608
9798.000000;-0.010234
9797.000000;-0.011842
9796.000000;-0.013390
9795.000000;-0.014845
9794.000000;-0.016229
9793.000000;-0.017611
9792.000000;-0.019072
9791.000000;-0.020650
9790.000000;-0.022310
9789.000000;-0.023970
9788.000000;-0.025563
9787.000000;-0.027084
9786.000000;-0.028576
9785.000000;-0.030058
9784.000000;-0.031511
9783.000000;-0.032942
9782.000000;-0.034422
9781.000000;-0.036017
9780.000000;-0.037685
9779.000000;-0.039299
9778.000000;-0.040778
9777.000000;-0.042178
9776.000000;-0.043630
9775.000000;-0.045207
9774.000000;-0.046866
9773.000000;-0.048516
9772.000000;-0.050124
9771.000000;-0.051733
9770.000000;-0.053392
9769.000000;-0.055099
9768.000000;-0.056829
9767.000000;-0.058568
9766.000000;-0.060302
9765.000000;-0.061988
9764.000000;-0.063586
9763.000000;-0.065116
9762.000000;-0.066635
9761.000000;-0.068166
9760.000000;-0.069699
9759.000000;-0.071256
9758.000000;-0.072876
9757.000000;-0.074526
9756.000000;-0.076120
9755.000000;-0.077652
9754.000000;-0.079248
9753.000000;-0.080993
9752.000000;-0.082780
9751.000000;-0.084422
9750.000000;-0.085879
9749.000000;-0.087301
9748.000000;-0.088845
9747.000000;-0.090541
9746.000000;-0.092330
9745.000000;-0.094158
9744.000000;-0.095989
9743.000000;-0.097787
9742.000000;-0.099513
9741.000000;-0.101145
9740.000000;-0.102710
9739.000000;-0.104294
9738.000000;-0.105991
9737.000000;-0.107797
9736.000000;-0.109599
9735.000000;-0.111300
9734.000000;-0.112925
9733.000000;-0.114565
9732.000000;-0.116269
9731.000000;-0.118055
9730.000000;-0.119965
9729.000000;-0.121991
9728.000000;-0.123974
9727.000000;-0.125711
9726.000000;-0.127187
9725.000000;-0.128613
9724.000000;-0.130196
9723.000000;-0.131965
9722.000000;-0.133835
9721.000000;-0.135736
9720.000000;-0.137630
9719.000000;-0.139485
9718.000000;-0.141302
9717.000000;-0.143125
9716.000000;-0.144975
9715.000000;-0.146791
9714.000000;-0.148501
9713.000000;-0.150104
9712.000000;-0.151676
9711.000000;-0.153322
9710.000000;-0.155138
9709.000000;-0.157158
9708.000000;-0.159297
9707.000000;-0.161371
9706.000000;-0.163244
9705.000000;-0.164939
9704.000000;-0.166585
9703.000000;-0.168291
9702.000000;-0.170077
9701.000000;-0.171893
9700.000000;-0.173686
9699.000000;-0.175442
9698.000000;-0.177206
9697.000000;-0.179035
9696.000000;-0.180943
9695.000000;-0.182894
9694.000000;-0.184852
9693.000000;-0.186788
9692.000000;-0.188660
9691.000000;-0.190457
9690.000000;-0.192252
9689.000000;-0.194137
9688.000000;-0.196086
9687.000000;-0.197981
9686.000000;-0.199785
9685.000000;-0.201617
9684.000000;-0.203596
9683.000000;-0.205692
9682.000000;-0.207782
9681.000000;-0.209792
9680.000000;-0.211704
9679.000000;-0.213496
9678.000000;-0.215175
9677.000000;-0.216832
9676.000000;-0.218595
9675.000000;-0.220519
9674.000000;-0.222573
9673.000000;-0.224707
9672.000000;-0.226869
9671.000000;-0.228984
9670.000000;-0.230993
9669.000000;-0.232922
9668.000000;-0.234858
9667.000000;-0.236848
9666.000000;-0.238862
9665.000000;-0.240844
9664.000000;-0.242777
9663.000000;-0.244698
9662.000000;-0.246669
9661.000000;-0.248740
9660.000000;-0.250886
9659.000000;-0.253019
9658.000000;-0.255068
9657.000000;-0.257057
9656.000000;-0.259060
9655.000000;-0.261122
9654.000000;-0.263222
9653.000000;-0.265316
9652.000000;-0.267347
9651.000000;-0.269275
9650.000000;-0.271123
9649.000000;-0.273002
9648.000000;-0.275020
9647.000000;-0.277180
9646.000000;-0.279406
9645.000000;-0.281632
9644.000000;-0.283829
9643.000000;-0.285961
9642.000000;-0.287995
9641.000000;-0.289957
9640.000000;-0.291917
9639.000000;-0.293912
9638.000000;-0.295918
9637.000000;-0.297920
9636.000000;-0.299948
9635.000000;-0.302035
9634.000000;-0.304173
9633.000000;-0.306341
9632.000000;-0.308539
9631.000000;-0.310767
9630.000000;-0.312993
9629.000000;-0.315167
9628.000000;-0.317270
9627.000000;-0.319339
9626.000000;-0.321431
9625.000000;-0.323578
9624.000000;-0.325773
9623.000000;-0.327984
9622.000000;-0.330191
9621.000000;-0.332373
9620.000000;-0.334495
9619.000000;-0.336522
9618.000000;-0.338476
9617.000000;-0.340452
9616.000000;-0.342546
9615.000000;-0.344773
9614.000000;-0.347077
9613.000000;-0.349406
9612.000000;-0.351751
9611.000000;-0.354125
9610.000000;-0.356525
9609.000000;-0.358901
9608.000000;-0.361172
9607.000000;-0.363269
9606.000000;-0.365207
9605.000000;-0.367096
9604.000000;-0.369071
9603.000000;-0.371191
9602.000000;-0.373421
9601.000000;-0.375679
9600.000000;-0.377889
9599.000000;-0.380034
9598.000000;-0.382169
9597.000000;-0.384382
9596.000000;-0.386696
9595.000000;-0.389023
9594.000000;-0.391249
9593.000000;-0.393353
9592.000000;-0.395405
9591.000000;-0.397476
9590.000000;-0.399596
9589.000000;-0.401785
9588.000000;-0.404056
9587.000000;-0.406390
9586.000000;-0.408735
9585.000000;-0.411077
9584.000000;-0.413446
9583.000000;-0.415851
9582.000000;-0.418247
9581.000000;-0.420586
9580.000000;-0.422862
9579.000000;-0.425090
9578.000000;-0.427290
9577.000000;-0.429518
9576.000000;-0.431851
9575.000000;-0.434285
9574.000000;-0.436693
9573.000000;-0.438947
9572.000000;-0.441078
9571.000000;-0.443234
9570.000000;-0.445493
9569.000000;-0.447778
9568.000000;-0.449979
9567.000000;-0.452091
9566.000000;-0.454188
9565.000000;-0.456320
9564.000000;-0.458497
9563.000000;-0.460727
9562.000000;-0.463026
9561.000000;-0.465366
9560.000000;-0.467677
9559.000000;-0.469906
9558.000000;-0.472059
9557.000000;-0.474185
9556.000000;-0.476338
9555.000000;-0.478542
9554.000000;-0.480776
9553.000000;-0.482981
9552.000000;-0.485120
9551.000000;-0.487242
9550.000000;-0.489443
9549.000000;-0.491754
9548.000000;-0.494082
9547.000000;-0.496301
9546.000000;-0.498370
9545.000000;-0.500350
9544.000000;-0.502316
9543.000000;-0.504301
9542.000000;-0.506326
9541.000000;-0.508431
9540.000000;-0.510636
9539.000000;-0.512911
9538.000000;-0.515186
9537.000000;-0.517419
9536.000000;-0.519616
9535.000000;-0.521787
9534.000000;-0.523898
9533.000000;-0.525890
9532.000000;-0.527778
9531.000000;-0.529675
9530.000000;-0.531684
9529.000000;-0.533765
9528.000000;-0.535766
9527.000000;-0.537609
9526.000000;-0.539390
9525.000000;-0.541258
9524.000000;-0.543249
9523.000000;-0.545295
9522.000000;-0.547336
9521.000000;-0.549363
9520.000000;-0.551372
9519.000000;-0.553350
9518.000000;-0.555328
9517.000000;-0.557344
9516.000000;-0.559346
9515.000000;-0.561186
9514.000000;-0.562783
9513.000000;-0.564222
9512.000000;-0.565678
9511.000000;-0.567269
9510.000000;-0.569024
9509.000000;-0.570924
9508.000000;-0.572904
9507.000000;-0.574837
9506.000000;-0.576593
9505.000000;-0.578156
9504.000000;-0.579639
9503.000000;-0.581175
9502.000000;-0.582801
9501.000000;-0.584458
9500.000000;-0.586091
9499.000000;-0.587720
9498.000000;-0.589405
9497.000000;-0.591116
9496.000000;-0.592702
9495.000000;-0.594036
9494.000000;-0.595207
9493.000000;-0.596459
9492.000000;-0.597924
9491.000000;-0.599469
9490.000000;-0.600890
9489.000000;-0.602162
9488.000000;-0.603403
9487.000000;-0.604643
9486.000000;-0.605766
9485.000000;-0.606704
9484.000000;-0.607582
9483.000000;-0.608588
9482.000000;-0.609773
9481.000000;-0.611020
9480.000000;-0.612163
9479.000000;-0.613105
9478.000000;-0.613875
9477.000000;-0.614623
9476.000000;-0.615526
9475.000000;-0.616642
9474.000000;-0.617862
9473.000000;-0.619012
9472.000000;-0.619999
9471.000000;-0.620838
9470.000000;-0.621596
9469.000000;-0.622363
9468.000000;-0.623222
9467.000000;-0.624186
9466.000000;-0.625152
9465.000000;-0.625956
9464.000000;-0.626500
9463.000000;-0.626819
9462.000000;-0.627041
9461.000000;-0.627315
9460.000000;-0.627734
9459.000000;-0.628277
9458.000000;-0.628836
9457.000000;-0.629324
9456.000000;-0.629759
9455.000000;-0.630213
9454.000000;-0.630700
9453.000000;-0.631132
9452.000000;-0.631408
9451.000000;-0.631524
9450.000000;-0.631601
9449.000000;-0.631789
9448.000000;-0.632128
9447.000000;-0.632471
9446.000000;-0.632606
9445.000000;-0.632464
9444.000000;-0.632203
9443.000000;-0.632045
9442.000000;-0.632063
9441.000000;-0.632153
9440.000000;-0.632182
9439.000000;-0.632104
9438.000000;-0.631961
9437.000000;-0.631810
9436.000000;-0.631663
9435.000000;-0.631449
9434.000000;-0.631077
9433.000000;-0.630570
9432.000000;-0.630121
9431.000000;-0.629906
9430.000000;-0.629874
9429.000000;-0.629782
9428.000000;-0.629469
9427.000000;-0.629007
9426.000000;-0.628549
9425.000000;-0.628123
9424.000000;-0.627639
9423.000000;-0.627044
9422.000000;-0.626387
9421.000000;-0.625742
9420.000000;-0.625133
9419.000000;-0.624532
9418.000000;-0.623902
9417.000000;-0.623227
9416.000000;-0.622547
9415.000000;-0.621934
9414.000000;-0.621427
9413.000000;-0.620977
9412.000000;-0.620483
9411.000000;-0.619875
9410.000000;-0.619154
9409.000000;-0.618362
9408.000000;-0.617550
9407.000000;-0.616741
9406.000000;-0.615916
9405.000000;-0.615030
9404.000000;-0.614074
9403.000000;-0.613112
9402.000000;-0.612204
9401.000000;-0.611319
9400.000000;-0.610374
9399.000000;-0.609365
9398.000000;-0.608406
9397.000000;-0.607601
9396.000000;-0.606899
9395.000000;-0.606128
9394.000000;-0.605180
9393.000000;-0.604094
9392.000000;-0.602986
9391.000000;-0.601918
9390.000000;-0.600882
9389.000000;-0.599871
9388.000000;-0.598891
9387.000000;-0.597920
9386.000000;-0.596888
9385.000000;-0.595734
9384.000000;-0.594479
9383.000000;-0.593191
9382.000000;-0.591919
9381.000000;-0.590670
9380.000000;-0.589467
9379.000000;-0.588354
9378.000000;-0.587332
9377.000000;-0.586302
9376.000000;-0.585145
9375.000000;-0.583847
9374.000000;-0.582514
9373.000000;-0.581232
9372.000000;-0.579971
9371.000000;-0.578642
9370.000000;-0.577246
9369.000000;-0.575905
9368.000000;-0.574733
9367.000000;-0.573716
9366.000000;-0.572730
9365.000000;-0.571657
9364.000000;-0.570461
9363.000000;-0.569162
9362.000000;-0.567795
9361.000000;-0.566413
9360.000000;-0.565089
9359.000000;-0.563870
9358.000000;-0.562738
9357.000000;-0.561620
9356.000000;-0.560461
9355.000000;-0.559247
9354.000000;-0.557989
9353.000000;-0.556701
9352.000000;-0.555403
9351.000000;-0.554121
9350.000000;-0.552873
9349.000000;-0.551668
9348.000000;-0.550533
9347.000000;-0.549478
9346.000000;-0.548433
9345.000000;-0.547254
9344.000000;-0.545854
9343.000000;-0.544302
9342.000000;-0.542767
9341.000000;-0.541361
9340.000000;-0.540084
9339.000000;-0.538901
9338.000000;-0.537789
9337.000000;-0.536713
9336.000000;-0.535599
9335.000000;-0.534391
9334.000000;-0.533100
9333.000000;-0.531774
9332.000000;-0.530451
9331.000000;-0.529171
9330.000000;-0.527985
9329.000000;-0.526896
9328.000000;-0.525815
9327.000000;-0.524632
9326.000000;-0.523322
9325.000000;-0.521948
9324.000000;-0.520580
9323.000000;-0.519244
9322.000000;-0.517953
9321.000000;-0.516724
9320.000000;-0.515549
9319.000000;-0.514385
9318.000000;-0.513185
9317.000000;-0.511932
9316.000000;-0.510641
9315.000000;-0.509355
9314.000000;-0.508127
9313.000000;-0.506989
9312.000000;-0.505919
9311.000000;-0.504872
9310.000000;-0.503802
9309.000000;-0.502650
9308.000000;-0.501343
9307.000000;-0.499875
9306.000000;-0.498366
9305.000000;-0.496966
9304.000000;-0.495697
9303.000000;-0.494476
9302.000000;-0.493275
9301.000000;-0.492167
9300.000000;-0.491184
9299.000000;-0.490224
9298.000000;-0.489156
9297.000000;-0.487955
9296.000000;-0.486676
9295.000000;-0.485368
9294.000000;-0.484072
9293.000000;-0.482851
9292.000000;-0.481731
9291.000000;-0.480645
9290.000000;-0.479506
9289.000000;-0.478309
9288.000000;-0.477104
9287.000000;-0.475909
9286.000000;-0.474707
9285.000000;-0.473525
9284.000000;-0.472400
9283.000000;-0.471306
9282.000000;-0.470186
9281.000000;-0.469068
9280.000000;-0.468043
9279.000000;-0.467119
9278.000000;-0.466183
9277.000000;-0.465141
9276.000000;-0.464018
9275.000000;-0.462871
9274.000000;-0.461698
9273.000000;-0.460483
9272.000000;-0.459289
9271.000000;-0.458201
9270.000000;-0.457210
9269.000000;-0.456229
9268.000000;-0.455208
9267.000000;-0.454168
9266.000000;-0.453134
9265.000000;-0.452091
9264.000000;-0.451039
9263.000000;-0.450003
9262.000000;-0.448970
9261.000000;-0.447872
9260.000000;-0.446683
9259.000000;-0.445497
9258.000000;-0.444449
9257.000000;-0.443567
9256.000000;-0.442738
9255.000000;-0.441826
9254.000000;-0.440802
9253.000000;-0.439726
9252.000000;-0.438646
9251.000000;-0.437556
9250.000000;-0.436451
9249.000000;-0.435386
9248.000000;-0.434450
9247.000000;-0.433673
9246.000000;-0.432973
9245.000000;-0.432214
9244.000000;-0.431319
9243.000000;-0.430318
9242.000000;-0.429290
9241.000000;-0.428270
9240.000000;-0.427246
9239.000000;-0.426207
9238.000000;-0.425180
9237.000000;-0.424196
9236.000000;-0.423250
9235.000000;-0.422325
9234.000000;-0.421427
9233.000000;-0.420571
9232.000000;-0.419728
9231.000000;-0.418841
9230.000000;-0.417879
9229.000000;-0.416868
9228.000000;-0.415861
9227.000000;-0.414907
9226.000000;-0.414037
9225.000000;-0.413256
9224.000000;-0.412515
9223.000000;-0.411739
9222.000000;-0.410893
9221.000000;-0.410012
9220.000000;-0.409157
9219.000000;-0.408330
9218.000000;-0.407469
9217.000000;-0.406522
9216.000000;-0.405513
9215.000000;-0.404529
9214.000000;-0.403642
9213.000000;-0.402849
9212.000000;-0.402088
9211.000000;-0.401309
9210.000000;-0.400511
9209.000000;-0.399715
9208.000000;-0.398914
9207.000000;-0.398088
9206.000000;-0.397238
9205.000000;-0.396399
9204.000000;-0.395596
9203.000000;-0.394816
9202.000000;-0.394027
9201.000000;-0.393200
9200.000000;-0.392329
9199.000000;-0.391447
9198.000000;-0.390610
9197.000000;-0.389851
9196.000000;-0.389148
9195.000000;-0.388440
9194.000000;-0.387690
9193.000000;-0.386909
9192.000000;-0.386120
9191.000000;-0.385337
9190.000000;-0.384570
9189.000000;-0.383824
9188.000000;-0.383083
9187.000000;-0.382316
9186.000000;-0.381519
9185.000000;-0.380723
9184.000000;-0.379969
9183.000000;-0.379284
9182.000000;-0.378661
9181.000000;-0.378049
9180.000000;-0.377366
9179.000000;-0.376566
9178.000000;-0.375701
9177.000000;-0.374894
9176.000000;-0.374216
9175.000000;-0.373626
9174.000000;-0.373021
9173.000000;-0.372333
9172.000000;-0.371566
9171.000000;-0.370785
9170.000000;-0.370082
9169.000000;-0.369519
9168.000000;-0.369070
9167.000000;-0.368635
9166.000000;-0.368113
9165.000000;-0.367455
9164.000000;-0.366660
9163.000000;-0.365765
9162.000000;-0.364860
9161.000000;-0.364061
9160.000000;-0.363431
9159.000000;-0.362919
9158.000000;-0.362404
9157.000000;-0.361800
9156.000000;-0.361108
9155.000000;-0.360395
9154.000000;-0.359744
9153.000000;-0.359196
9152.000000;-0.358713
9151.000000;-0.358206
9150.000000;-0.357610
9149.000000;-0.356932
9148.000000;-0.356228
9147.000000;-0.355558
9146.000000;-0.354951
9145.000000;-0.354385
9144.000000;-0.353799
9143.000000;-0.353153
9142.000000;-0.352482
9141.000000;-0.351859
9140.000000;-0.351301
9139.000000;-0.350756
9138.000000;-0.350181
9137.000000;-0.349592
9136.000000;-0.349013
9135.000000;-0.348434
9134.000000;-0.347845
9133.000000;-0.347276
9132.000000;-0.346762
9131.000000;-0.346293
9130.000000;-0.345820
9129.000000;-0.345297
9128.000000;-0.344698
9127.000000;-0.344026
9126.000000;-0.343338
9125.000000;-0.342740
9124.000000;-0.342297
9123.000000;-0.341959
9122.000000;-0.341609
9121.000000;-0.341166
9120.000000;-0.340629
9119.000000;-0.340035
9118.000000;-0.339423
9117.000000;-0.338821
9116.000000;-0.338243
9115.000000;-0.337689
9114.000000;-0.337169
9113.000000;-0.336701
9112.000000;-0.336282
9111.000000;-0.335873
9110.000000;-0.335424
9109.000000;-0.334916
9108.000000;-0.334366
9107.000000;-0.333811
9106.000000;-0.333298
9105.000000;-0.332854
9104.000000;-0.332452
9103.000000;-0.332040
9102.000000;-0.331610
9101.000000;-0.331205
9100.000000;-0.330817
9099.000000;-0.330360
9098.000000;-0.329774
9097.000000;-0.329131
9096.000000;-0.328569
9095.000000;-0.328143
9094.000000;-0.327780
9093.000000;-0.327380
9092.000000;-0.326901
9091.000000;-0.326365
9090.000000;-0.325831
9089.000000;-0.325353
9088.000000;-0.324948
9087.000000;-0.324574
