Criado como novo conjunto de dados;"0307_DANIEL.spp","76145.7 Secs"
cm-1;Abs
10000.000000;0.547185
9999.000000;0.546796
9998.000000;0.546028
9997.000000;0.544856
9996.000000;0.543455
9995.000000;0.541990
9994.000000;0.540648
9993.000000;0.539541
9992.000000;0.538740
9991.000000;0.538228
9990.000000;0.537908
9989.000000;0.537614
9988.000000;0.537198
9987.000000;0.536634
9986.000000;0.535998
9985.000000;0.535330
9984.000000;0.534546
9983.000000;0.533561
9982.000000;0.532505
9981.000000;0.531688
9980.000000;0.531266
9979.000000;0.531017
9978.000000;0.530534
9977.000000;0.529646
9976.000000;0.528556
9975.000000;0.527585
9974.000000;0.526839
9973.000000;0.526151
9972.000000;0.525286
9971.000000;0.524161
9970.000000;0.522908
9969.000000;0.521780
9968.000000;0.520963
9967.000000;0.520447
9966.000000;0.520056
9965.000000;0.519589
9964.000000;0.518924
9963.000000;0.518032
9962.000000;0.516958
9961.000000;0.515818
9960.000000;0.514768
9959.000000;0.513916
9958.000000;0.513252
9957.000000;0.512667
9956.000000;0.512029
9955.000000;0.511252
9954.000000;0.510347
9953.000000;0.509423
9952.000000;0.508569
9951.000000;0.507735
9950.000000;0.506801
9949.000000;0.505769
9948.000000;0.504793
9947.000000;0.503968
9946.000000;0.503154
9945.000000;0.502143
9944.000000;0.500956
9943.000000;0.499853
9942.000000;0.499057
9941.000000;0.498548
9940.000000;0.498141
9939.000000;0.497651
9938.000000;0.496970
9937.000000;0.496082
9936.000000;0.495065
9935.000000;0.494038
9934.000000;0.493048
9933.000000;0.492066
9932.000000;0.491113
9931.000000;0.490295
9930.000000;0.489640
9929.000000;0.488983
9928.000000;0.488139
9927.000000;0.487168
9926.000000;0.486325
9925.000000;0.485712
9924.000000;0.485086
9923.000000;0.484097
9922.000000;0.482683
9921.000000;0.481149
9920.000000;0.479854
9919.000000;0.478899
9918.000000;0.478135
9917.000000;0.477410
9916.000000;0.476730
9915.000000;0.476140
9914.000000;0.475549
9913.000000;0.474754
9912.000000;0.473693
9911.000000;0.472552
9910.000000;0.471567
9909.000000;0.470743
9908.000000;0.469879
9907.000000;0.468852
9906.000000;0.467766
9905.000000;0.466775
9904.000000;0.465860
9903.000000;0.464864
9902.000000;0.463714
9901.000000;0.462516
9900.000000;0.461441
9899.000000;0.460586
9898.000000;0.459916
9897.000000;0.459283
9896.000000;0.458533
9895.000000;0.457653
9894.000000;0.456796
9893.000000;0.456077
9892.000000;0.455356
9891.000000;0.454369
9890.000000;0.453086
9889.000000;0.451796
9888.000000;0.450749
9887.000000;0.449857
9886.000000;0.448878
9885.000000;0.447768
9884.000000;0.446690
9883.000000;0.445714
9882.000000;0.444738
9881.000000;0.443702
9880.000000;0.442698
9879.000000;0.441792
9878.000000;0.440904
9877.000000;0.439931
9876.000000;0.438863
9875.000000;0.437724
9874.000000;0.436519
9873.000000;0.435344
9872.000000;0.434357
9871.000000;0.433520
9870.000000;0.432527
9869.000000;0.431183
9868.000000;0.429752
9867.000000;0.428691
9866.000000;0.428105
9865.000000;0.427668
9864.000000;0.427064
9863.000000;0.426255
9862.000000;0.425317
9861.000000;0.424255
9860.000000;0.423095
9859.000000;0.421947
9858.000000;0.420848
9857.000000;0.419685
9856.000000;0.418384
9855.000000;0.417045
9854.000000;0.415772
9853.000000;0.414533
9852.000000;0.413298
9851.000000;0.412164
9850.000000;0.411183
9849.000000;0.410198
9848.000000;0.409072
9847.000000;0.407950
9846.000000;0.407065
9845.000000;0.406336
9844.000000;0.405430
9843.000000;0.404229
9842.000000;0.402997
9841.000000;0.402008
9840.000000;0.401206
9839.000000;0.400348
9838.000000;0.399313
9837.000000;0.398151
9836.000000;0.396954
9835.000000;0.395777
9834.000000;0.394629
9833.000000;0.393451
9832.000000;0.392193
9831.000000;0.390946
9830.000000;0.389885
9829.000000;0.389019
9828.000000;0.388106
9827.000000;0.386925
9826.000000;0.385517
9825.000000;0.384073
9824.000000;0.382693
9823.000000;0.381364
9822.000000;0.380100
9821.000000;0.378941
9820.000000;0.377869
9819.000000;0.376830
9818.000000;0.375804
9817.000000;0.374756
9816.000000;0.373613
9815.000000;0.372396
9814.000000;0.371289
9813.000000;0.370387
9812.000000;0.369449
9811.000000;0.368116
9810.000000;0.366391
9809.000000;0.364688
9808.000000;0.363362
9807.000000;0.362384
9806.000000;0.361545
9805.000000;0.360761
9804.000000;0.360016
9803.000000;0.359185
9802.000000;0.358122
9801.000000;0.356888
9800.000000;0.355734
9799.000000;0.354820
9798.000000;0.354033
9797.000000;0.353098
9796.000000;0.351823
9795.000000;0.350256
9794.000000;0.348650
9793.000000;0.347248
9792.000000;0.346052
9791.000000;0.344833
9790.000000;0.343399
9789.000000;0.341807
9788.000000;0.340289
9787.000000;0.339013
9786.000000;0.337959
9785.000000;0.336955
9784.000000;0.335773
9783.000000;0.334272
9782.000000;0.332542
9781.000000;0.330867
9780.000000;0.329467
9779.000000;0.328306
9778.000000;0.327204
9777.000000;0.326061
9776.000000;0.324900
9775.000000;0.323716
9774.000000;0.322434
9773.000000;0.321023
9772.000000;0.319540
9771.000000;0.318057
9770.000000;0.316611
9769.000000;0.315223
9768.000000;0.313915
9767.000000;0.312670
9766.000000;0.311447
9765.000000;0.310236
9764.000000;0.309059
9763.000000;0.307902
9762.000000;0.306701
9761.000000;0.305401
9760.000000;0.304008
9759.000000;0.302570
9758.000000;0.301140
9757.000000;0.299734
9756.000000;0.298323
9755.000000;0.296893
9754.000000;0.295535
9753.000000;0.294382
9752.000000;0.293376
9751.000000;0.292191
9750.000000;0.290516
9749.000000;0.288431
9748.000000;0.286385
9747.000000;0.284785
9746.000000;0.283690
9745.000000;0.282872
9744.000000;0.282045
9743.000000;0.280987
9742.000000;0.279589
9741.000000;0.277876
9740.000000;0.276008
9739.000000;0.274217
9738.000000;0.272727
9737.000000;0.271629
9736.000000;0.270776
9735.000000;0.269843
9734.000000;0.268609
9733.000000;0.267165
9732.000000;0.265756
9731.000000;0.264467
9730.000000;0.263203
9729.000000;0.261933
9728.000000;0.260717
9727.000000;0.259468
9726.000000;0.257925
9725.000000;0.256008
9724.000000;0.254022
9723.000000;0.252347
9722.000000;0.251001
9721.000000;0.249649
9720.000000;0.247995
9719.000000;0.246026
9718.000000;0.243949
9717.000000;0.242012
9716.000000;0.240396
9715.000000;0.239146
9714.000000;0.238125
9713.000000;0.237071
9712.000000;0.235717
9711.000000;0.233917
9710.000000;0.231762
9709.000000;0.229575
9708.000000;0.227717
9707.000000;0.226287
9706.000000;0.225088
9705.000000;0.223893
9704.000000;0.222672
9703.000000;0.221502
9702.000000;0.220348
9701.000000;0.219066
9700.000000;0.217538
9699.000000;0.215750
9698.000000;0.213792
9697.000000;0.211852
9696.000000;0.210124
9695.000000;0.208595
9694.000000;0.207015
9693.000000;0.205196
9692.000000;0.203252
9691.000000;0.201426
9690.000000;0.199748
9689.000000;0.198063
9688.000000;0.196343
9687.000000;0.194757
9686.000000;0.193407
9685.000000;0.192148
9684.000000;0.190764
9683.000000;0.189184
9682.000000;0.187478
9681.000000;0.185758
9680.000000;0.184139
9679.000000;0.182687
9678.000000;0.181334
9677.000000;0.179887
9676.000000;0.178204
9675.000000;0.176320
9674.000000;0.174395
9673.000000;0.172589
9672.000000;0.171000
9671.000000;0.169607
9670.000000;0.168247
9669.000000;0.166727
9668.000000;0.165042
9667.000000;0.163385
9666.000000;0.161872
9665.000000;0.160322
9664.000000;0.158439
9663.000000;0.156161
9662.000000;0.153752
9661.000000;0.151550
9660.000000;0.149717
9659.000000;0.148210
9658.000000;0.146861
9657.000000;0.145425
9656.000000;0.143651
9655.000000;0.141464
9654.000000;0.139074
9653.000000;0.136830
9652.000000;0.134934
9651.000000;0.133324
9650.000000;0.131836
9649.000000;0.130406
9648.000000;0.129035
9647.000000;0.127629
9646.000000;0.125999
9645.000000;0.124084
9644.000000;0.122060
9643.000000;0.120170
9642.000000;0.118469
9641.000000;0.116814
9640.000000;0.115076
9639.000000;0.113271
9638.000000;0.111488
9637.000000;0.109704
9636.000000;0.107748
9635.000000;0.105462
9634.000000;0.102930
9633.000000;0.100486
9632.000000;0.098455
9631.000000;0.096881
9630.000000;0.095548
9629.000000;0.094207
9628.000000;0.092696
9627.000000;0.090886
9626.000000;0.088713
9625.000000;0.086348
9624.000000;0.084150
9623.000000;0.082299
9622.000000;0.080578
9621.000000;0.078677
9620.000000;0.076638
9619.000000;0.074789
9618.000000;0.073263
9617.000000;0.071800
9616.000000;0.070053
9615.000000;0.067945
9614.000000;0.065672
9613.000000;0.063497
9612.000000;0.061608
9611.000000;0.060029
9610.000000;0.058556
9609.000000;0.056878
9608.000000;0.054868
9607.000000;0.052742
9606.000000;0.050843
9605.000000;0.049276
9604.000000;0.047811
9603.000000;0.046095
9602.000000;0.043948
9601.000000;0.041485
9600.000000;0.038982
9599.000000;0.036624
9598.000000;0.034391
9597.000000;0.032236
9596.000000;0.030274
9595.000000;0.028653
9594.000000;0.027224
9593.000000;0.025542
9592.000000;0.023312
9591.000000;0.020729
9590.000000;0.018246
9589.000000;0.016099
9588.000000;0.014169
9587.000000;0.012244
9586.000000;0.010237
9585.000000;0.008167
9584.000000;0.006100
9583.000000;0.004129
9582.000000;0.002289
9581.000000;0.000458
9580.000000;-0.001550
9579.000000;-0.003730
9578.000000;-0.005861
9577.000000;-0.007809
9576.000000;-0.009730
9575.000000;-0.011822
9574.000000;-0.013975
9573.000000;-0.015880
9572.000000;-0.017485
9571.000000;-0.019124
9570.000000;-0.021090
9569.000000;-0.023246
9568.000000;-0.025227
9567.000000;-0.026926
9566.000000;-0.028589
9565.000000;-0.030420
9564.000000;-0.032319
9563.000000;-0.034108
9562.000000;-0.035839
9561.000000;-0.037721
9560.000000;-0.039818
9559.000000;-0.042008
9558.000000;-0.044192
9557.000000;-0.046386
9556.000000;-0.048568
9555.000000;-0.050606
9554.000000;-0.052424
9553.000000;-0.054148
9552.000000;-0.055960
9551.000000;-0.057884
9550.000000;-0.059813
9549.000000;-0.061749
9548.000000;-0.063845
9547.000000;-0.066171
9546.000000;-0.068530
9545.000000;-0.070593
9544.000000;-0.072222
9543.000000;-0.073586
9542.000000;-0.074992
9541.000000;-0.076635
9540.000000;-0.078538
9539.000000;-0.080645
9538.000000;-0.082879
9537.000000;-0.085137
9536.000000;-0.087299
9535.000000;-0.089301
9534.000000;-0.091164
9533.000000;-0.092927
9532.000000;-0.094571
9531.000000;-0.096101
9530.000000;-0.097641
9529.000000;-0.099373
9528.000000;-0.101301
9527.000000;-0.103155
9526.000000;-0.104649
9525.000000;-0.105858
9524.000000;-0.107251
9523.000000;-0.109257
9522.000000;-0.111806
9521.000000;-0.114376
9520.000000;-0.116518
9519.000000;-0.118212
9518.000000;-0.119709
9517.000000;-0.121152
9516.000000;-0.122503
9515.000000;-0.123779
9514.000000;-0.125139
9513.000000;-0.126672
9512.000000;-0.128248
9511.000000;-0.129712
9510.000000;-0.131115
9509.000000;-0.132602
9508.000000;-0.134128
9507.000000;-0.135462
9506.000000;-0.136523
9505.000000;-0.137573
9504.000000;-0.139001
9503.000000;-0.140900
9502.000000;-0.142926
9501.000000;-0.144584
9500.000000;-0.145655
9499.000000;-0.146398
9498.000000;-0.147316
9497.000000;-0.148701
9496.000000;-0.150387
9495.000000;-0.151989
9494.000000;-0.153301
9493.000000;-0.154395
9492.000000;-0.155356
9491.000000;-0.156113
9490.000000;-0.156638
9489.000000;-0.157173
9488.000000;-0.158079
9487.000000;-0.159425
9486.000000;-0.160903
9485.000000;-0.162208
9484.000000;-0.163361
9483.000000;-0.164534
9482.000000;-0.165651
9481.000000;-0.166375
9480.000000;-0.166523
9479.000000;-0.166349
9478.000000;-0.166317
9477.000000;-0.166698
9476.000000;-0.167481
9475.000000;-0.168589
9474.000000;-0.169972
9473.000000;-0.171475
9472.000000;-0.172785
9471.000000;-0.173645
9470.000000;-0.174116
9469.000000;-0.174561
9468.000000;-0.175351
9467.000000;-0.176558
9466.000000;-0.177863
9465.000000;-0.178785
9464.000000;-0.179062
9463.000000;-0.178873
9462.000000;-0.178638
9461.000000;-0.178629
9460.000000;-0.178836
9459.000000;-0.179189
9458.000000;-0.179680
9457.000000;-0.180206
9456.000000;-0.180465
9455.000000;-0.180235
9454.000000;-0.179694
9453.000000;-0.179276
9452.000000;-0.179199
9451.000000;-0.179305
9450.000000;-0.179356
9449.000000;-0.179303
9448.000000;-0.179200
9447.000000;-0.179017
9446.000000;-0.178706
9445.000000;-0.178366
9444.000000;-0.178209
9443.000000;-0.178354
9442.000000;-0.178697
9441.000000;-0.178976
9440.000000;-0.178945
9439.000000;-0.178540
9438.000000;-0.177952
9437.000000;-0.177503
9436.000000;-0.177355
9435.000000;-0.177349
9434.000000;-0.177173
9433.000000;-0.176671
9432.000000;-0.175938
9431.000000;-0.175148
9430.000000;-0.174371
9429.000000;-0.173590
9428.000000;-0.172813
9427.000000;-0.172092
9426.000000;-0.171451
9425.000000;-0.170834
9424.000000;-0.170164
9423.000000;-0.169436
9422.000000;-0.168717
9421.000000;-0.168043
9420.000000;-0.167351
9419.000000;-0.166559
9418.000000;-0.165706
9417.000000;-0.164929
9416.000000;-0.164275
9415.000000;-0.163599
9414.000000;-0.162710
9413.000000;-0.161578
9412.000000;-0.160345
9411.000000;-0.159135
9410.000000;-0.157971
9409.000000;-0.156865
9408.000000;-0.155907
9407.000000;-0.155153
9406.000000;-0.154475
9405.000000;-0.153634
9404.000000;-0.152561
9403.000000;-0.151464
9402.000000;-0.150581
9401.000000;-0.149842
9400.000000;-0.148922
9399.000000;-0.147634
9398.000000;-0.146184
9397.000000;-0.144936
9396.000000;-0.144020
9395.000000;-0.143278
9394.000000;-0.142524
9393.000000;-0.141670
9392.000000;-0.140623
9391.000000;-0.139279
9390.000000;-0.137728
9389.000000;-0.136290
9388.000000;-0.135161
9387.000000;-0.134119
9386.000000;-0.132761
9385.000000;-0.130992
9384.000000;-0.129082
9383.000000;-0.127290
9382.000000;-0.125635
9381.000000;-0.124094
9380.000000;-0.122797
9379.000000;-0.121860
9378.000000;-0.121123
9377.000000;-0.120247
9376.000000;-0.119046
9375.000000;-0.117622
9374.000000;-0.116182
9373.000000;-0.114819
9372.000000;-0.113483
9371.000000;-0.112078
9370.000000;-0.110549
9369.000000;-0.108921
9368.000000;-0.107280
9367.000000;-0.105690
9366.000000;-0.104122
9365.000000;-0.102501
9364.000000;-0.100806
9363.000000;-0.099120
9362.000000;-0.097564
9361.000000;-0.096225
9360.000000;-0.095113
9359.000000;-0.094134
9358.000000;-0.093114
9357.000000;-0.091885
9356.000000;-0.090415
9355.000000;-0.088825
9354.000000;-0.087264
9353.000000;-0.085795
9352.000000;-0.084388
9351.000000;-0.083010
9350.000000;-0.081698
9349.000000;-0.080523
9348.000000;-0.079484
9347.000000;-0.078416
9346.000000;-0.077068
9345.000000;-0.075343
9344.000000;-0.073441
9343.000000;-0.071697
9342.000000;-0.070250
9341.000000;-0.068949
9340.000000;-0.067575
9339.000000;-0.066081
9338.000000;-0.064577
9337.000000;-0.063167
9336.000000;-0.061875
9335.000000;-0.060655
9334.000000;-0.059397
9333.000000;-0.057963
9332.000000;-0.056294
9331.000000;-0.054491
9330.000000;-0.052723
9329.000000;-0.051106
9328.000000;-0.049686
9327.000000;-0.048486
9326.000000;-0.047442
9325.000000;-0.046345
9324.000000;-0.044990
9323.000000;-0.043401
9322.000000;-0.041808
9321.000000;-0.040344
9320.000000;-0.038895
9319.000000;-0.037287
9318.000000;-0.035538
9317.000000;-0.033833
9316.000000;-0.032314
9315.000000;-0.030969
9314.000000;-0.029711
9313.000000;-0.028478
9312.000000;-0.027256
9311.000000;-0.026045
9310.000000;-0.024831
9309.000000;-0.023588
9308.000000;-0.022312
9307.000000;-0.021058
9306.000000;-0.019861
9305.000000;-0.018644
9304.000000;-0.017262
9303.000000;-0.015671
9302.000000;-0.014010
9301.000000;-0.012483
9300.000000;-0.011184
9299.000000;-0.010057
9298.000000;-0.008958
9297.000000;-0.007719
9296.000000;-0.006230
9295.000000;-0.004561
9294.000000;-0.002965
9293.000000;-0.001683
9292.000000;-0.000716
9291.000000;0.000178
9290.000000;0.001268
9289.000000;0.002628
9288.000000;0.004113
9287.000000;0.005493
9286.000000;0.006662
9285.000000;0.007730
9284.000000;0.008932
9283.000000;0.010391
9282.000000;0.011992
9281.000000;0.013480
9280.000000;0.014677
9279.000000;0.015627
9278.000000;0.016580
9277.000000;0.017807
9276.000000;0.019370
9275.000000;0.021062
9274.000000;0.022615
9273.000000;0.023963
9272.000000;0.025218
9271.000000;0.026423
9270.000000;0.027501
9269.000000;0.028481
9268.000000;0.029583
9267.000000;0.030940
9266.000000;0.032375
9265.000000;0.033597
9264.000000;0.034557
9263.000000;0.035489
9262.000000;0.036628
9261.000000;0.038008
9260.000000;0.039494
9259.000000;0.040884
9258.000000;0.042056
9257.000000;0.043111
9256.000000;0.044312
9255.000000;0.045749
9254.000000;0.047158
9253.000000;0.048219
9252.000000;0.048974
9251.000000;0.049745
9250.000000;0.050672
9249.000000;0.051583
9248.000000;0.052344
9247.000000;0.053123
9246.000000;0.054186
9245.000000;0.055588
9244.000000;0.057143
9243.000000;0.058609
9242.000000;0.059828
9241.000000;0.060827
9240.000000;0.061846
9239.000000;0.063132
9238.000000;0.064624
9237.000000;0.065968
9236.000000;0.066944
9235.000000;0.067713
9234.000000;0.068546
9233.000000;0.069454
9232.000000;0.070279
9231.000000;0.071045
9230.000000;0.071989
9229.000000;0.073252
9228.000000;0.074692
9227.000000;0.076025
9226.000000;0.077052
9225.000000;0.077760
9224.000000;0.078345
9223.000000;0.079119
9222.000000;0.080269
9221.000000;0.081675
9220.000000;0.083050
9219.000000;0.084256
9218.000000;0.085373
9217.000000;0.086465
9216.000000;0.087478
9215.000000;0.088401
9214.000000;0.089369
9213.000000;0.090475
9212.000000;0.091595
9211.000000;0.092554
9210.000000;0.093378
9209.000000;0.094259
9208.000000;0.095275
9207.000000;0.096300
9206.000000;0.097207
9205.000000;0.098032
9204.000000;0.098903
9203.000000;0.099879
9202.000000;0.100903
9201.000000;0.101874
9200.000000;0.102740
9199.000000;0.103545
9198.000000;0.104420
9197.000000;0.105435
9196.000000;0.106464
9195.000000;0.107271
9194.000000;0.107791
9193.000000;0.108256
9192.000000;0.108972
9191.000000;0.110019
9190.000000;0.111220
9189.000000;0.112343
9188.000000;0.113257
9187.000000;0.113922
9186.000000;0.114374
9185.000000;0.114734
9184.000000;0.115175
9183.000000;0.115809
9182.000000;0.116656
9181.000000;0.117708
9180.000000;0.118951
9179.000000;0.120333
9178.000000;0.121754
9177.000000;0.123101
9176.000000;0.124227
9175.000000;0.124945
9174.000000;0.125179
9173.000000;0.125174
9172.000000;0.125420
9171.000000;0.126276
9170.000000;0.127649
9169.000000;0.129091
9168.000000;0.130149
9167.000000;0.130666
9166.000000;0.130847
9165.000000;0.131118
9164.000000;0.131814
9163.000000;0.132898
9162.000000;0.134012
9161.000000;0.134858
9160.000000;0.135468
9159.000000;0.136056
9158.000000;0.136722
9157.000000;0.137425
9156.000000;0.138149
9155.000000;0.138928
9154.000000;0.139727
9153.000000;0.140459
9152.000000;0.141157
9151.000000;0.142005
9150.000000;0.143139
9149.000000;0.144483
9148.000000;0.145811
9147.000000;0.146909
9146.000000;0.147669
9145.000000;0.148120
9144.000000;0.148422
9143.000000;0.148778
9142.000000;0.149317
9141.000000;0.150035
9140.000000;0.150853
9139.000000;0.151671
9138.000000;0.152396
9137.000000;0.153002
9136.000000;0.153568
9135.000000;0.154220
9134.000000;0.154992
9133.000000;0.155784
9132.000000;0.156451
9131.000000;0.156931
9130.000000;0.157292
9129.000000;0.157669
9128.000000;0.158157
9127.000000;0.158727
9126.000000;0.159284
9125.000000;0.159836
9124.000000;0.160559
9123.000000;0.161605
9122.000000;0.162851
9121.000000;0.163941
9120.000000;0.164588
9119.000000;0.164819
9118.000000;0.164901
9117.000000;0.165119
9116.000000;0.165620
9115.000000;0.166411
9114.000000;0.167421
9113.000000;0.168541
9112.000000;0.169651
9111.000000;0.170632
9110.000000;0.171413
9109.000000;0.172017
9108.000000;0.172540
9107.000000;0.173072
9106.000000;0.173657
9105.000000;0.174336
9104.000000;0.175139
9103.000000;0.175979
9102.000000;0.176645
9101.000000;0.176995
9100.000000;0.177144
9099.000000;0.177368
9098.000000;0.177830
9097.000000;0.178485
9096.000000;0.179210
9095.000000;0.179909
9094.000000;0.180494
9093.000000;0.180880
9092.000000;0.181081
9091.000000;0.181222
9090.000000;0.181410
9089.000000;0.181649
9088.000000;0.181938
9087.000000;0.182380
9086.000000;0.183105
9085.000000;0.184109
9084.000000;0.185237
9083.000000;0.186297
9082.000000;0.187129
9081.000000;0.187600
9080.000000;0.187659
9079.000000;0.187459
9078.000000;0.187351
9077.000000;0.187655
9076.000000;0.188410
9075.000000;0.189401
9074.000000;0.190396
9073.000000;0.191287
9072.000000;0.192012
9071.000000;0.192496
9070.000000;0.192772
9069.000000;0.193094
9068.000000;0.193733
9067.000000;0.194645
