Criado como novo conjunto de dados;"0307_DANIEL.spp","11702.2 Secs"
cm-1;Abs
10000.000000;0.767220
9999.000000;0.765897
9998.000000;0.764514
9997.000000;0.763387
9996.000000;0.762530
9995.000000;0.761558
9994.000000;0.760169
9993.000000;0.758559
9992.000000;0.757202
9991.000000;0.756300
9990.000000;0.755558
9989.000000;0.754510
9988.000000;0.752995
9987.000000;0.751336
9986.000000;0.750021
9985.000000;0.749179
9984.000000;0.748423
9983.000000;0.747303
9982.000000;0.745876
9981.000000;0.744619
9980.000000;0.743828
9979.000000;0.743298
9978.000000;0.742638
9977.000000;0.741679
9976.000000;0.740477
9975.000000;0.739112
9974.000000;0.737635
9973.000000;0.736098
9972.000000;0.734532
9971.000000;0.732960
9970.000000;0.731511
9969.000000;0.730356
9968.000000;0.729443
9967.000000;0.728451
9966.000000;0.727144
9965.000000;0.725665
9964.000000;0.724334
9963.000000;0.723259
9962.000000;0.722304
9961.000000;0.721356
9960.000000;0.720407
9959.000000;0.719428
9958.000000;0.718341
9957.000000;0.717147
9956.000000;0.715956
9955.000000;0.714848
9954.000000;0.713799
9953.000000;0.712742
9952.000000;0.711598
9951.000000;0.710277
9950.000000;0.708769
9949.000000;0.707245
9948.000000;0.705956
9947.000000;0.704967
9946.000000;0.704070
9945.000000;0.702999
9944.000000;0.701696
9943.000000;0.700314
9942.000000;0.699016
9941.000000;0.697837
9940.000000;0.696744
9939.000000;0.695749
9938.000000;0.694885
9937.000000;0.694081
9936.000000;0.693150
9935.000000;0.691933
9934.000000;0.690451
9933.000000;0.688866
9932.000000;0.687306
9931.000000;0.685770
9930.000000;0.684206
9929.000000;0.682636
9928.000000;0.681182
9927.000000;0.679989
9926.000000;0.679085
9925.000000;0.678293
9924.000000;0.677310
9923.000000;0.675929
9922.000000;0.674199
9921.000000;0.672348
9920.000000;0.670622
9919.000000;0.669229
9918.000000;0.668299
9917.000000;0.667718
9916.000000;0.667060
9915.000000;0.665901
9914.000000;0.664279
9913.000000;0.662696
9912.000000;0.661582
9911.000000;0.660872
9910.000000;0.660154
9909.000000;0.659096
9908.000000;0.657634
9907.000000;0.655886
9906.000000;0.654052
9905.000000;0.652353
9904.000000;0.650907
9903.000000;0.649636
9902.000000;0.648388
9901.000000;0.647147
9900.000000;0.646032
9899.000000;0.645087
9898.000000;0.644131
9897.000000;0.642894
9896.000000;0.641281
9895.000000;0.639455
9894.000000;0.637671
9893.000000;0.636068
9892.000000;0.634654
9891.000000;0.633435
9890.000000;0.632448
9889.000000;0.631635
9888.000000;0.630787
9887.000000;0.629704
9886.000000;0.628362
9885.000000;0.626841
9884.000000;0.625187
9883.000000;0.623480
9882.000000;0.621955
9881.000000;0.620841
9880.000000;0.620032
9879.000000;0.619117
9878.000000;0.617812
9877.000000;0.616219
9876.000000;0.614602
9875.000000;0.613066
9874.000000;0.611560
9873.000000;0.610049
9872.000000;0.608520
9871.000000;0.606938
9870.000000;0.605375
9869.000000;0.604051
9868.000000;0.603066
9867.000000;0.602112
9866.000000;0.600723
9865.000000;0.598828
9864.000000;0.596885
9863.000000;0.595343
9862.000000;0.594182
9861.000000;0.593069
9860.000000;0.591844
9859.000000;0.590617
9858.000000;0.589438
9857.000000;0.588116
9856.000000;0.586479
9855.000000;0.584664
9854.000000;0.582977
9853.000000;0.581502
9852.000000;0.580020
9851.000000;0.578336
9850.000000;0.576566
9849.000000;0.575019
9848.000000;0.573845
9847.000000;0.572901
9846.000000;0.571920
9845.000000;0.570728
9844.000000;0.569309
9843.000000;0.567741
9842.000000;0.566122
9841.000000;0.564529
9840.000000;0.563011
9839.000000;0.561576
9838.000000;0.560148
9837.000000;0.558571
9836.000000;0.556742
9835.000000;0.554794
9834.000000;0.553080
9833.000000;0.551856
9832.000000;0.551024
9831.000000;0.550231
9830.000000;0.549176
9829.000000;0.547755
9828.000000;0.546002
9827.000000;0.544069
9826.000000;0.542230
9825.000000;0.540714
9824.000000;0.539462
9823.000000;0.538163
9822.000000;0.536602
9821.000000;0.534896
9820.000000;0.533323
9819.000000;0.532004
9818.000000;0.530806
9817.000000;0.529465
9816.000000;0.527803
9815.000000;0.525892
9814.000000;0.524064
9813.000000;0.522650
9812.000000;0.521636
9811.000000;0.520623
9810.000000;0.519217
9809.000000;0.517417
9808.000000;0.515534
9807.000000;0.513819
9806.000000;0.512270
9805.000000;0.510766
9804.000000;0.509249
9803.000000;0.507726
9802.000000;0.506190
9801.000000;0.504625
9800.000000;0.503053
9799.000000;0.501534
9798.000000;0.500097
9797.000000;0.498695
9796.000000;0.497245
9795.000000;0.495716
9794.000000;0.494141
9793.000000;0.492554
9792.000000;0.490910
9791.000000;0.489126
9790.000000;0.487204
9789.000000;0.485291
9788.000000;0.483581
9787.000000;0.482137
9786.000000;0.480824
9785.000000;0.479431
9784.000000;0.477871
9783.000000;0.476242
9782.000000;0.474664
9781.000000;0.473110
9780.000000;0.471475
9779.000000;0.469774
9778.000000;0.468164
9777.000000;0.466724
9776.000000;0.465311
9775.000000;0.463723
9774.000000;0.461940
9773.000000;0.460130
9772.000000;0.458445
9771.000000;0.456911
9770.000000;0.455456
9769.000000;0.453974
9768.000000;0.452370
9767.000000;0.450618
9766.000000;0.448783
9765.000000;0.446938
9764.000000;0.445105
9763.000000;0.443307
9762.000000;0.441622
9761.000000;0.440078
9760.000000;0.438546
9759.000000;0.436831
9758.000000;0.434893
9757.000000;0.432891
9756.000000;0.431005
9755.000000;0.429316
9754.000000;0.427832
9753.000000;0.426530
9752.000000;0.425322
9751.000000;0.424033
9750.000000;0.422474
9749.000000;0.420562
9748.000000;0.418406
9747.000000;0.416288
9746.000000;0.414465
9745.000000;0.412910
9744.000000;0.411308
9743.000000;0.409408
9742.000000;0.407330
9741.000000;0.405405
9740.000000;0.403770
9739.000000;0.402276
9738.000000;0.400762
9737.000000;0.399237
9736.000000;0.397747
9735.000000;0.396224
9734.000000;0.394544
9733.000000;0.392651
9732.000000;0.390554
9731.000000;0.388317
9730.000000;0.386090
9729.000000;0.384049
9728.000000;0.382238
9727.000000;0.380533
9726.000000;0.378808
9725.000000;0.377050
9724.000000;0.375274
9723.000000;0.373457
9722.000000;0.371618
9721.000000;0.369883
9720.000000;0.368319
9719.000000;0.366783
9718.000000;0.365025
9717.000000;0.362952
9716.000000;0.360708
9715.000000;0.358511
9714.000000;0.356494
9713.000000;0.354680
9712.000000;0.353030
9711.000000;0.351441
9710.000000;0.349759
9709.000000;0.347873
9708.000000;0.345835
9707.000000;0.343875
9706.000000;0.342201
9705.000000;0.340764
9704.000000;0.339264
9703.000000;0.337447
9702.000000;0.335357
9701.000000;0.333238
9700.000000;0.331239
9699.000000;0.329338
9698.000000;0.327514
9697.000000;0.325813
9696.000000;0.324202
9695.000000;0.322494
9694.000000;0.320511
9693.000000;0.318258
9692.000000;0.315877
9691.000000;0.313488
9690.000000;0.311155
9689.000000;0.308955
9688.000000;0.306969
9687.000000;0.305193
9686.000000;0.303490
9685.000000;0.301678
9684.000000;0.299687
9683.000000;0.297639
9682.000000;0.295734
9681.000000;0.294008
9680.000000;0.292244
9679.000000;0.290200
9678.000000;0.287905
9677.000000;0.285640
9676.000000;0.283622
9675.000000;0.281800
9674.000000;0.280005
9673.000000;0.278179
9672.000000;0.276387
9671.000000;0.274646
9670.000000;0.272834
9669.000000;0.270773
9668.000000;0.268390
9667.000000;0.265807
9666.000000;0.263286
9665.000000;0.261039
9664.000000;0.259086
9663.000000;0.257263
9662.000000;0.255359
9661.000000;0.253236
9660.000000;0.250901
9659.000000;0.248543
9658.000000;0.246435
9657.000000;0.244684
9656.000000;0.243064
9655.000000;0.241213
9654.000000;0.239031
9653.000000;0.236765
9652.000000;0.234664
9651.000000;0.232688
9650.000000;0.230630
9649.000000;0.228428
9648.000000;0.226223
9647.000000;0.224140
9646.000000;0.222121
9645.000000;0.220007
9644.000000;0.217724
9643.000000;0.215339
9642.000000;0.212968
9641.000000;0.210691
9640.000000;0.208559
9639.000000;0.206631
9638.000000;0.204897
9637.000000;0.203172
9636.000000;0.201202
9635.000000;0.198923
9634.000000;0.196560
9633.000000;0.194344
9632.000000;0.192233
9631.000000;0.190010
9630.000000;0.187615
9629.000000;0.185219
9628.000000;0.182961
9627.000000;0.180778
9626.000000;0.178546
9625.000000;0.176265
9624.000000;0.174047
9623.000000;0.171984
9622.000000;0.170081
9621.000000;0.168256
9620.000000;0.166369
9619.000000;0.164327
9618.000000;0.162171
9617.000000;0.160006
9616.000000;0.157837
9615.000000;0.155572
9614.000000;0.153178
9613.000000;0.150727
9612.000000;0.148271
9611.000000;0.145774
9610.000000;0.143224
9609.000000;0.140720
9608.000000;0.138369
9607.000000;0.136181
9606.000000;0.134121
9605.000000;0.132156
9604.000000;0.130198
9603.000000;0.128075
9602.000000;0.125681
9601.000000;0.123117
9600.000000;0.120602
9599.000000;0.118276
9598.000000;0.116128
9597.000000;0.114066
9596.000000;0.112002
9595.000000;0.109872
9594.000000;0.107662
9593.000000;0.105406
9592.000000;0.103135
9591.000000;0.100846
9590.000000;0.098534
9589.000000;0.096241
9588.000000;0.094019
9587.000000;0.091853
9586.000000;0.089647
9585.000000;0.087290
9584.000000;0.084759
9583.000000;0.082165
9582.000000;0.079678
9581.000000;0.077369
9580.000000;0.075160
9579.000000;0.072947
9578.000000;0.070748
9577.000000;0.068616
9576.000000;0.066485
9575.000000;0.064205
9574.000000;0.061742
9573.000000;0.059222
9572.000000;0.056762
9571.000000;0.054374
9570.000000;0.052050
9569.000000;0.049808
9568.000000;0.047617
9567.000000;0.045379
9566.000000;0.043074
9565.000000;0.040796
9564.000000;0.038607
9563.000000;0.036425
9562.000000;0.034141
9561.000000;0.031766
9560.000000;0.029383
9559.000000;0.027042
9558.000000;0.024764
9557.000000;0.022590
9556.000000;0.020520
9555.000000;0.018462
9554.000000;0.016340
9553.000000;0.014187
9552.000000;0.012069
9551.000000;0.009934
9550.000000;0.007643
9549.000000;0.005119
9548.000000;0.002422
9547.000000;-0.000300
9546.000000;-0.002875
9545.000000;-0.005153
9544.000000;-0.007101
9543.000000;-0.008855
9542.000000;-0.010637
9541.000000;-0.012617
9540.000000;-0.014852
9539.000000;-0.017307
9538.000000;-0.019855
9537.000000;-0.022310
9536.000000;-0.024524
9535.000000;-0.026482
9534.000000;-0.028274
9533.000000;-0.030014
9532.000000;-0.031810
9531.000000;-0.033752
9530.000000;-0.035846
9529.000000;-0.037960
9528.000000;-0.039922
9527.000000;-0.041715
9526.000000;-0.043538
9525.000000;-0.045644
9524.000000;-0.048095
9523.000000;-0.050667
9522.000000;-0.053022
9521.000000;-0.054981
9520.000000;-0.056660
9519.000000;-0.058328
9518.000000;-0.060149
9517.000000;-0.062079
9516.000000;-0.063975
9515.000000;-0.065743
9514.000000;-0.067408
9513.000000;-0.069091
9512.000000;-0.070924
9511.000000;-0.072925
9510.000000;-0.074977
9509.000000;-0.076963
9508.000000;-0.078875
9507.000000;-0.080722
9506.000000;-0.082389
9505.000000;-0.083769
9504.000000;-0.085009
9503.000000;-0.086451
9502.000000;-0.088251
9501.000000;-0.090204
9500.000000;-0.092044
9499.000000;-0.093779
9498.000000;-0.095580
9497.000000;-0.097459
9496.000000;-0.099236
9495.000000;-0.100789
9494.000000;-0.102181
9493.000000;-0.103518
9492.000000;-0.104825
9491.000000;-0.106113
9490.000000;-0.107451
9489.000000;-0.108881
9488.000000;-0.110317
9487.000000;-0.111600
9486.000000;-0.112666
9485.000000;-0.113613
9484.000000;-0.114596
9483.000000;-0.115674
9482.000000;-0.116790
9481.000000;-0.117886
9480.000000;-0.118999
9479.000000;-0.120193
9478.000000;-0.121440
9477.000000;-0.122642
9476.000000;-0.123777
9475.000000;-0.124933
9474.000000;-0.126174
9473.000000;-0.127432
9472.000000;-0.128548
9471.000000;-0.129413
9470.000000;-0.130041
9469.000000;-0.130563
9468.000000;-0.131178
9467.000000;-0.132019
9466.000000;-0.132999
9465.000000;-0.133841
9464.000000;-0.134336
9463.000000;-0.134578
9462.000000;-0.134880
9461.000000;-0.135441
9460.000000;-0.136150
9459.000000;-0.136754
9458.000000;-0.137165
9457.000000;-0.137560
9456.000000;-0.138162
9455.000000;-0.138976
9454.000000;-0.139764
9453.000000;-0.140284
9452.000000;-0.140501
9451.000000;-0.140584
9450.000000;-0.140725
9449.000000;-0.140990
9448.000000;-0.141290
9447.000000;-0.141451
9446.000000;-0.141338
9445.000000;-0.140968
9444.000000;-0.140523
9443.000000;-0.140237
9442.000000;-0.140246
9441.000000;-0.140521
9440.000000;-0.140888
9439.000000;-0.141136
9438.000000;-0.141196
9437.000000;-0.141223
9436.000000;-0.141406
9435.000000;-0.141694
9434.000000;-0.141783
9433.000000;-0.141464
9432.000000;-0.140869
9431.000000;-0.140293
9430.000000;-0.139868
9429.000000;-0.139523
9428.000000;-0.139189
9427.000000;-0.138878
9426.000000;-0.138583
9425.000000;-0.138247
9424.000000;-0.137850
9423.000000;-0.137416
9422.000000;-0.136941
9421.000000;-0.136397
9420.000000;-0.135819
9419.000000;-0.135275
9418.000000;-0.134774
9417.000000;-0.134278
9416.000000;-0.133791
9415.000000;-0.133329
9414.000000;-0.132831
9413.000000;-0.132223
9412.000000;-0.131555
9411.000000;-0.130940
9410.000000;-0.130359
9409.000000;-0.129670
9408.000000;-0.128828
9407.000000;-0.127953
9406.000000;-0.127126
9405.000000;-0.126269
9404.000000;-0.125323
9403.000000;-0.124396
9402.000000;-0.123623
9401.000000;-0.122959
9400.000000;-0.122227
9399.000000;-0.121332
9398.000000;-0.120334
9397.000000;-0.119343
9396.000000;-0.118426
9395.000000;-0.117605
9394.000000;-0.116871
9393.000000;-0.116181
9392.000000;-0.115460
9391.000000;-0.114617
9390.000000;-0.113604
9389.000000;-0.112473
9388.000000;-0.111353
9387.000000;-0.110314
9386.000000;-0.109278
9385.000000;-0.108135
9384.000000;-0.106917
9383.000000;-0.105787
9382.000000;-0.104828
9381.000000;-0.103951
9380.000000;-0.103003
9379.000000;-0.101922
9378.000000;-0.100741
9377.000000;-0.099515
9376.000000;-0.098281
9375.000000;-0.097056
9374.000000;-0.095855
9373.000000;-0.094720
9372.000000;-0.093684
9371.000000;-0.092702
9370.000000;-0.091642
9369.000000;-0.090437
9368.000000;-0.089167
9367.000000;-0.087937
9366.000000;-0.086743
9365.000000;-0.085567
9364.000000;-0.084489
9363.000000;-0.083559
9362.000000;-0.082595
9361.000000;-0.081339
9360.000000;-0.079807
9359.000000;-0.078313
9358.000000;-0.077084
9357.000000;-0.076024
9356.000000;-0.074929
9355.000000;-0.073730
9354.000000;-0.072459
9353.000000;-0.071122
9352.000000;-0.069748
9351.000000;-0.068444
9350.000000;-0.067280
9349.000000;-0.066204
9348.000000;-0.065149
9347.000000;-0.064115
9346.000000;-0.063062
9345.000000;-0.061841
9344.000000;-0.060365
9343.000000;-0.058782
9342.000000;-0.057318
9341.000000;-0.056022
9340.000000;-0.054776
9339.000000;-0.053525
9338.000000;-0.052350
9337.000000;-0.051309
9336.000000;-0.050333
9335.000000;-0.049299
9334.000000;-0.048144
9333.000000;-0.046893
9332.000000;-0.045630
9331.000000;-0.044447
9330.000000;-0.043379
9329.000000;-0.042400
9328.000000;-0.041476
9327.000000;-0.040579
9326.000000;-0.039619
9325.000000;-0.038445
9324.000000;-0.036991
9323.000000;-0.035385
9322.000000;-0.033826
9321.000000;-0.032392
9320.000000;-0.031063
9319.000000;-0.029860
9318.000000;-0.028861
9317.000000;-0.028046
9316.000000;-0.027237
9315.000000;-0.026261
9314.000000;-0.025111
9313.000000;-0.023913
9312.000000;-0.022763
9311.000000;-0.021610
9310.000000;-0.020318
9309.000000;-0.018843
9308.000000;-0.017316
9307.000000;-0.015950
9306.000000;-0.014831
9305.000000;-0.013842
9304.000000;-0.012798
9303.000000;-0.011608
9302.000000;-0.010307
9301.000000;-0.008990
9300.000000;-0.007761
9299.000000;-0.006691
9298.000000;-0.005742
9297.000000;-0.004774
9296.000000;-0.003680
9295.000000;-0.002506
9294.000000;-0.001374
9293.000000;-0.000320
9292.000000;0.000723
9291.000000;0.001802
9290.000000;0.002874
9289.000000;0.003881
9288.000000;0.004822
9287.000000;0.005735
9286.000000;0.006668
9285.000000;0.007704
9284.000000;0.008949
9283.000000;0.010407
9282.000000;0.011897
9281.000000;0.013170
9280.000000;0.014157
9279.000000;0.015046
9278.000000;0.016090
9277.000000;0.017339
9276.000000;0.018604
9275.000000;0.019667
9274.000000;0.020482
9273.000000;0.021181
9272.000000;0.021935
9271.000000;0.022836
9270.000000;0.023874
9269.000000;0.024976
9268.000000;0.026071
9267.000000;0.027124
9266.000000;0.028126
9265.000000;0.029050
9264.000000;0.029899
9263.000000;0.030777
9262.000000;0.031829
9261.000000;0.033047
9260.000000;0.034205
9259.000000;0.035097
9258.000000;0.035799
9257.000000;0.036590
9256.000000;0.037626
9255.000000;0.038794
9254.000000;0.039905
9253.000000;0.040901
9252.000000;0.041841
9251.000000;0.042775
9250.000000;0.043703
9249.000000;0.044607
9248.000000;0.045460
9247.000000;0.046259
9246.000000;0.047066
9245.000000;0.047974
9244.000000;0.048972
9243.000000;0.049917
9242.000000;0.050701
9241.000000;0.051408
9240.000000;0.052206
9239.000000;0.053138
9238.000000;0.054080
9237.000000;0.054932
9236.000000;0.055754
9235.000000;0.056671
9234.000000;0.057710
9233.000000;0.058771
9232.000000;0.059749
9231.000000;0.060628
9230.000000;0.061461
9229.000000;0.062297
9228.000000;0.063172
9227.000000;0.064122
9226.000000;0.065143
9225.000000;0.066137
9224.000000;0.066974
9223.000000;0.067639
9222.000000;0.068275
9221.000000;0.069018
9220.000000;0.069845
9219.000000;0.070636
9218.000000;0.071345
9217.000000;0.072037
9216.000000;0.072761
9215.000000;0.073494
9214.000000;0.074206
9213.000000;0.074922
9212.000000;0.075687
9211.000000;0.076528
9210.000000;0.077447
9209.000000;0.078429
9208.000000;0.079413
9207.000000;0.080328
9206.000000;0.081164
9205.000000;0.081973
9204.000000;0.082782
9203.000000;0.083545
9202.000000;0.084204
9201.000000;0.084778
9200.000000;0.085360
9199.000000;0.086046
9198.000000;0.086853
9197.000000;0.087697
9196.000000;0.088467
9195.000000;0.089144
9194.000000;0.089811
9193.000000;0.090516
9192.000000;0.091183
9191.000000;0.091731
9190.000000;0.092226
9189.000000;0.092816
9188.000000;0.093545
9187.000000;0.094322
9186.000000;0.095093
9185.000000;0.095907
9184.000000;0.096800
9183.000000;0.097697
9182.000000;0.098496
9181.000000;0.099168
9180.000000;0.099734
9179.000000;0.100211
9178.000000;0.100640
9177.000000;0.101107
9176.000000;0.101666
9175.000000;0.102294
9174.000000;0.102958
9173.000000;0.103665
9172.000000;0.104426
9171.000000;0.105208
9170.000000;0.105977
9169.000000;0.106734
9168.000000;0.107463
9167.000000;0.108092
9166.000000;0.108566
9165.000000;0.108933
9164.000000;0.109314
9163.000000;0.109803
9162.000000;0.110404
9161.000000;0.111041
9160.000000;0.111618
9159.000000;0.112116
9158.000000;0.112642
9157.000000;0.113307
9156.000000;0.114063
9155.000000;0.114739
9154.000000;0.115275
9153.000000;0.115822
9152.000000;0.116516
9151.000000;0.117271
9150.000000;0.117890
9149.000000;0.118334
9148.000000;0.118764
9147.000000;0.119324
9146.000000;0.119989
9145.000000;0.120645
9144.000000;0.121228
9143.000000;0.121761
9142.000000;0.122309
9141.000000;0.122909
9140.000000;0.123529
9139.000000;0.124092
9138.000000;0.124587
9137.000000;0.125110
9136.000000;0.125748
9135.000000;0.126430
9134.000000;0.126986
9133.000000;0.127348
9132.000000;0.127632
9131.000000;0.127988
9130.000000;0.128446
9129.000000;0.128924
9128.000000;0.129351
9127.000000;0.129743
9126.000000;0.130163
9125.000000;0.130659
9124.000000;0.131242
9123.000000;0.131880
9122.000000;0.132504
9121.000000;0.133011
9120.000000;0.133306
9119.000000;0.133397
9118.000000;0.133441
9117.000000;0.133659
9116.000000;0.134152
9115.000000;0.134839
9114.000000;0.135560
9113.000000;0.136215
9112.000000;0.136767
9111.000000;0.137179
9110.000000;0.137445
9109.000000;0.137669
9108.000000;0.138031
9107.000000;0.138632
9106.000000;0.139384
9105.000000;0.140085
9104.000000;0.140597
9103.000000;0.140940
9102.000000;0.141235
9101.000000;0.141573
9100.000000;0.141952
9099.000000;0.142326
9098.000000;0.142701
9097.000000;0.143137
9096.000000;0.143654
9095.000000;0.144180
9094.000000;0.144630
9093.000000;0.145013
9092.000000;0.145409
9091.000000;0.145863
9090.000000;0.146345
9089.000000;0.146792
9088.000000;0.147182
9087.000000;0.147538
9086.000000;0.147892
9085.000000;0.148261
9084.000000;0.148624
9083.000000;0.148956
9082.000000;0.149275
9081.000000;0.149642
9080.000000;0.150074
9079.000000;0.150481
9078.000000;0.150754
9077.000000;0.150920
9076.000000;0.151151
9075.000000;0.151590
9074.000000;0.152177
9073.000000;0.152700
9072.000000;0.152985
9071.000000;0.153046
9070.000000;0.153052
9069.000000;0.153180
9068.000000;0.153499
9067.000000;0.153939
9066.000000;0.154369
9065.000000;0.154693
