Criado como novo conjunto de dados;"0307_DANIEL.spp","17462.9 Secs"
cm-1;Abs
10000.000000;0.883893
9999.000000;0.882437
9998.000000;0.880857
9997.000000;0.879242
9996.000000;0.877685
9995.000000;0.876366
9994.000000;0.875420
9993.000000;0.874727
9992.000000;0.874026
9991.000000;0.873242
9990.000000;0.872525
9989.000000;0.871877
9988.000000;0.870941
9987.000000;0.869349
9986.000000;0.867182
9985.000000;0.864911
9984.000000;0.862941
9983.000000;0.861327
9982.000000;0.859916
9981.000000;0.858600
9980.000000;0.857408
9979.000000;0.856468
9978.000000;0.855868
9977.000000;0.855496
9976.000000;0.855003
9975.000000;0.854050
9974.000000;0.852622
9973.000000;0.851047
9972.000000;0.849677
9971.000000;0.848594
9970.000000;0.847634
9969.000000;0.846625
9968.000000;0.845562
9967.000000;0.844558
9966.000000;0.843627
9965.000000;0.842535
9964.000000;0.840951
9963.000000;0.838829
9962.000000;0.836603
9961.000000;0.834899
9960.000000;0.834016
9959.000000;0.833722
9958.000000;0.833476
9957.000000;0.832810
9956.000000;0.831554
9955.000000;0.829848
9954.000000;0.828006
9953.000000;0.826292
9952.000000;0.824784
9951.000000;0.823421
9950.000000;0.822171
9949.000000;0.821080
9948.000000;0.820167
9947.000000;0.819331
9946.000000;0.818385
9945.000000;0.817183
9944.000000;0.815748
9943.000000;0.814287
9942.000000;0.813020
9941.000000;0.811966
9940.000000;0.810938
9939.000000;0.809800
9938.000000;0.808619
9937.000000;0.807485
9936.000000;0.806308
9935.000000;0.804942
9934.000000;0.803442
9933.000000;0.802018
9932.000000;0.800735
9931.000000;0.799447
9930.000000;0.798065
9929.000000;0.796692
9928.000000;0.795431
9927.000000;0.794196
9926.000000;0.792843
9925.000000;0.791401
9924.000000;0.790043
9923.000000;0.788876
9922.000000;0.787850
9921.000000;0.786854
9920.000000;0.785793
9919.000000;0.784581
9918.000000;0.783148
9917.000000;0.781524
9916.000000;0.779905
9915.000000;0.778563
9914.000000;0.777629
9913.000000;0.776931
9912.000000;0.776096
9911.000000;0.774881
9910.000000;0.773392
9909.000000;0.771920
9908.000000;0.770585
9907.000000;0.769244
9906.000000;0.767741
9905.000000;0.766141
9904.000000;0.764648
9903.000000;0.763376
9902.000000;0.762236
9901.000000;0.761026
9900.000000;0.759578
9899.000000;0.757859
9898.000000;0.756002
9897.000000;0.754252
9896.000000;0.752814
9895.000000;0.751713
9894.000000;0.750779
9893.000000;0.749755
9892.000000;0.748485
9891.000000;0.747026
9890.000000;0.745581
9889.000000;0.744294
9888.000000;0.743136
9887.000000;0.741999
9886.000000;0.740850
9885.000000;0.739737
9884.000000;0.738664
9883.000000;0.737526
9882.000000;0.736190
9881.000000;0.734617
9880.000000;0.732926
9879.000000;0.731330
9878.000000;0.729968
9877.000000;0.728760
9876.000000;0.727473
9875.000000;0.725957
9874.000000;0.724277
9873.000000;0.722590
9872.000000;0.720982
9871.000000;0.719484
9870.000000;0.718116
9869.000000;0.716830
9868.000000;0.715476
9867.000000;0.713978
9866.000000;0.712453
9865.000000;0.711037
9864.000000;0.709674
9863.000000;0.708231
9862.000000;0.706782
9861.000000;0.705537
9860.000000;0.704520
9859.000000;0.703502
9858.000000;0.702280
9857.000000;0.700831
9856.000000;0.699137
9855.000000;0.697105
9854.000000;0.694813
9853.000000;0.692656
9852.000000;0.691070
9851.000000;0.690160
9850.000000;0.689686
9849.000000;0.689299
9848.000000;0.688691
9847.000000;0.687616
9846.000000;0.685991
9845.000000;0.683992
9844.000000;0.681953
9843.000000;0.680109
9842.000000;0.678465
9841.000000;0.676912
9840.000000;0.675405
9839.000000;0.674023
9838.000000;0.672850
9837.000000;0.671807
9836.000000;0.670643
9835.000000;0.669161
9834.000000;0.667444
9833.000000;0.665764
9832.000000;0.664270
9831.000000;0.662859
9830.000000;0.661374
9829.000000;0.659781
9828.000000;0.658109
9827.000000;0.656337
9826.000000;0.654491
9825.000000;0.652768
9824.000000;0.651404
9823.000000;0.650401
9822.000000;0.649477
9821.000000;0.648311
9820.000000;0.646809
9819.000000;0.645108
9818.000000;0.643386
9817.000000;0.641688
9816.000000;0.639981
9815.000000;0.638323
9814.000000;0.636887
9813.000000;0.635726
9812.000000;0.634573
9811.000000;0.633017
9810.000000;0.630923
9809.000000;0.628575
9808.000000;0.626382
9807.000000;0.624549
9806.000000;0.623061
9805.000000;0.621833
9804.000000;0.620728
9803.000000;0.619559
9802.000000;0.618196
9801.000000;0.616667
9800.000000;0.615060
9799.000000;0.613401
9798.000000;0.611688
9797.000000;0.609996
9796.000000;0.608416
9795.000000;0.606930
9794.000000;0.605445
9793.000000;0.603933
9792.000000;0.602432
9791.000000;0.600920
9790.000000;0.599281
9789.000000;0.597450
9788.000000;0.595525
9787.000000;0.593722
9786.000000;0.592225
9785.000000;0.591043
9784.000000;0.589945
9783.000000;0.588594
9782.000000;0.586823
9781.000000;0.584806
9780.000000;0.582869
9779.000000;0.581143
9778.000000;0.579469
9777.000000;0.577633
9776.000000;0.575631
9775.000000;0.573660
9774.000000;0.571917
9773.000000;0.570432
9772.000000;0.569072
9771.000000;0.567671
9770.000000;0.566156
9769.000000;0.564563
9768.000000;0.562947
9767.000000;0.561304
9766.000000;0.559587
9765.000000;0.557777
9764.000000;0.555910
9763.000000;0.554051
9762.000000;0.552245
9761.000000;0.550488
9760.000000;0.548726
9759.000000;0.546913
9758.000000;0.545079
9757.000000;0.543322
9756.000000;0.541706
9755.000000;0.540208
9754.000000;0.538758
9753.000000;0.537292
9752.000000;0.535734
9751.000000;0.533987
9750.000000;0.532004
9749.000000;0.529853
9748.000000;0.527692
9747.000000;0.525675
9746.000000;0.523884
9745.000000;0.522280
9744.000000;0.520719
9743.000000;0.519059
9742.000000;0.517307
9741.000000;0.515608
9740.000000;0.514051
9739.000000;0.512547
9738.000000;0.510924
9737.000000;0.509097
9736.000000;0.507107
9735.000000;0.505063
9734.000000;0.503092
9733.000000;0.501274
9732.000000;0.499533
9731.000000;0.497650
9730.000000;0.495476
9729.000000;0.493123
9728.000000;0.490864
9727.000000;0.488871
9726.000000;0.487127
9725.000000;0.485547
9724.000000;0.484049
9723.000000;0.482516
9722.000000;0.480816
9721.000000;0.478971
9720.000000;0.477199
9719.000000;0.475711
9718.000000;0.474472
9717.000000;0.473227
9716.000000;0.471736
9715.000000;0.469950
9714.000000;0.467959
9713.000000;0.465858
9712.000000;0.463719
9711.000000;0.461645
9710.000000;0.459750
9709.000000;0.458034
9708.000000;0.456325
9707.000000;0.454397
9706.000000;0.452181
9705.000000;0.449826
9704.000000;0.447548
9703.000000;0.445442
9702.000000;0.443444
9701.000000;0.441438
9700.000000;0.439385
9699.000000;0.437368
9698.000000;0.435504
9697.000000;0.433792
9696.000000;0.432070
9695.000000;0.430171
9694.000000;0.428126
9693.000000;0.426119
9692.000000;0.424241
9691.000000;0.422352
9690.000000;0.420254
9689.000000;0.417945
9688.000000;0.415667
9687.000000;0.413715
9686.000000;0.412212
9685.000000;0.410992
9684.000000;0.409663
9683.000000;0.407865
9682.000000;0.405541
9681.000000;0.402949
9680.000000;0.400404
9679.000000;0.398062
9678.000000;0.395950
9677.000000;0.394065
9676.000000;0.392353
9675.000000;0.390664
9674.000000;0.388855
9673.000000;0.386904
9672.000000;0.384860
9671.000000;0.382731
9670.000000;0.380506
9669.000000;0.378231
9668.000000;0.375958
9667.000000;0.373655
9666.000000;0.371280
9665.000000;0.368930
9664.000000;0.366768
9663.000000;0.364816
9662.000000;0.362914
9661.000000;0.360934
9660.000000;0.358932
9659.000000;0.357035
9658.000000;0.355243
9657.000000;0.353400
9656.000000;0.351344
9655.000000;0.349063
9654.000000;0.346741
9653.000000;0.344608
9652.000000;0.342712
9651.000000;0.340845
9650.000000;0.338765
9649.000000;0.336466
9648.000000;0.334164
9647.000000;0.332014
9646.000000;0.329964
9645.000000;0.327902
9644.000000;0.325849
9643.000000;0.323904
9642.000000;0.322065
9641.000000;0.320187
9640.000000;0.318110
9639.000000;0.315798
9638.000000;0.313354
9637.000000;0.310910
9636.000000;0.308517
9635.000000;0.306149
9634.000000;0.303820
9633.000000;0.301639
9632.000000;0.299667
9631.000000;0.297790
9630.000000;0.295829
9629.000000;0.293746
9628.000000;0.291632
9627.000000;0.289474
9626.000000;0.287122
9625.000000;0.284543
9624.000000;0.281973
9623.000000;0.279669
9622.000000;0.277609
9621.000000;0.275588
9620.000000;0.273534
9619.000000;0.271550
9618.000000;0.269634
9617.000000;0.267565
9616.000000;0.265162
9615.000000;0.262536
9614.000000;0.259971
9613.000000;0.257591
9612.000000;0.255250
9611.000000;0.252748
9610.000000;0.250062
9609.000000;0.247371
9608.000000;0.244906
9607.000000;0.242780
9606.000000;0.240923
9605.000000;0.239136
9604.000000;0.237221
9603.000000;0.235090
9602.000000;0.232762
9601.000000;0.230300
9600.000000;0.227813
9599.000000;0.225456
9598.000000;0.223337
9597.000000;0.221367
9596.000000;0.219284
9595.000000;0.216907
9594.000000;0.214335
9593.000000;0.211828
9592.000000;0.209506
9591.000000;0.207241
9590.000000;0.204824
9589.000000;0.202172
9588.000000;0.199376
9587.000000;0.196618
9586.000000;0.194087
9585.000000;0.191871
9584.000000;0.189887
9583.000000;0.187938
9582.000000;0.185871
9581.000000;0.183688
9580.000000;0.181484
9579.000000;0.179348
9578.000000;0.177299
9577.000000;0.175250
9576.000000;0.173004
9575.000000;0.170399
9574.000000;0.167535
9573.000000;0.164766
9572.000000;0.162373
9571.000000;0.160305
9570.000000;0.158294
9569.000000;0.156129
9568.000000;0.153727
9567.000000;0.151084
9566.000000;0.148339
9565.000000;0.145842
9564.000000;0.143894
9563.000000;0.142350
9562.000000;0.140657
9561.000000;0.138389
9560.000000;0.135641
9559.000000;0.132833
9558.000000;0.130257
9557.000000;0.127938
9556.000000;0.125801
9555.000000;0.123780
9554.000000;0.121781
9553.000000;0.119691
9552.000000;0.117479
9551.000000;0.115222
9550.000000;0.113007
9549.000000;0.110830
9548.000000;0.108602
9547.000000;0.106229
9546.000000;0.103721
9545.000000;0.101233
9544.000000;0.098961
9543.000000;0.096935
9542.000000;0.094963
9541.000000;0.092820
9540.000000;0.090486
9539.000000;0.088099
9538.000000;0.085738
9537.000000;0.083349
9536.000000;0.080912
9535.000000;0.078540
9534.000000;0.076357
9533.000000;0.074333
9532.000000;0.072335
9531.000000;0.070285
9530.000000;0.068213
9529.000000;0.066162
9528.000000;0.064129
9527.000000;0.062103
9526.000000;0.060097
9525.000000;0.058110
9524.000000;0.056086
9523.000000;0.053980
9522.000000;0.051842
9521.000000;0.049810
9520.000000;0.047988
9519.000000;0.046320
9518.000000;0.044605
9517.000000;0.042675
9516.000000;0.040565
9515.000000;0.038503
9514.000000;0.036692
9513.000000;0.035100
9512.000000;0.033500
9511.000000;0.031708
9510.000000;0.029753
9509.000000;0.027792
9508.000000;0.025921
9507.000000;0.024123
9506.000000;0.022359
9505.000000;0.020615
9504.000000;0.018856
9503.000000;0.017001
9502.000000;0.015040
9501.000000;0.013102
9500.000000;0.011350
9499.000000;0.009792
9498.000000;0.008270
9497.000000;0.006652
9496.000000;0.004978
9495.000000;0.003371
9494.000000;0.001858
9493.000000;0.000341
9492.000000;-0.001244
9491.000000;-0.002795
9490.000000;-0.004120
9489.000000;-0.005128
9488.000000;-0.005927
9487.000000;-0.006735
9486.000000;-0.007733
9485.000000;-0.008982
9484.000000;-0.010447
9483.000000;-0.012026
9482.000000;-0.013572
9481.000000;-0.014921
9480.000000;-0.015956
9479.000000;-0.016689
9478.000000;-0.017293
9477.000000;-0.018046
9476.000000;-0.019164
9475.000000;-0.020646
9474.000000;-0.022261
9473.000000;-0.023720
9472.000000;-0.024869
9471.000000;-0.025734
9470.000000;-0.026430
9469.000000;-0.027059
9468.000000;-0.027693
9467.000000;-0.028360
9466.000000;-0.029055
9465.000000;-0.029755
9464.000000;-0.030445
9463.000000;-0.031107
9462.000000;-0.031690
9461.000000;-0.032167
9460.000000;-0.032595
9459.000000;-0.033074
9458.000000;-0.033613
9457.000000;-0.034132
9456.000000;-0.034618
9455.000000;-0.035196
9454.000000;-0.035941
9453.000000;-0.036670
9452.000000;-0.037062
9451.000000;-0.037024
9450.000000;-0.036844
9449.000000;-0.036910
9448.000000;-0.037326
9447.000000;-0.037861
9446.000000;-0.038237
9445.000000;-0.038376
9444.000000;-0.038380
9443.000000;-0.038372
9442.000000;-0.038418
9441.000000;-0.038527
9440.000000;-0.038650
9439.000000;-0.038683
9438.000000;-0.038565
9437.000000;-0.038377
9436.000000;-0.038263
9435.000000;-0.038235
9434.000000;-0.038137
9433.000000;-0.037859
9432.000000;-0.037527
9431.000000;-0.037361
9430.000000;-0.037384
9429.000000;-0.037383
9428.000000;-0.037179
9427.000000;-0.036814
9426.000000;-0.036441
9425.000000;-0.036089
9424.000000;-0.035660
9423.000000;-0.035082
9422.000000;-0.034385
9421.000000;-0.033645
9420.000000;-0.032937
9419.000000;-0.032356
9418.000000;-0.031965
9417.000000;-0.031690
9416.000000;-0.031314
9415.000000;-0.030675
9414.000000;-0.029841
9413.000000;-0.029048
9412.000000;-0.028466
9411.000000;-0.028074
9410.000000;-0.027754
9409.000000;-0.027431
9408.000000;-0.027074
9407.000000;-0.026611
9406.000000;-0.025913
9405.000000;-0.024889
9404.000000;-0.023587
9403.000000;-0.022211
9402.000000;-0.021000
9401.000000;-0.020046
9400.000000;-0.019245
9399.000000;-0.018440
9398.000000;-0.017624
9397.000000;-0.016930
9396.000000;-0.016409
9395.000000;-0.015906
9394.000000;-0.015228
9393.000000;-0.014353
9392.000000;-0.013391
9391.000000;-0.012387
9390.000000;-0.011311
9389.000000;-0.010216
9388.000000;-0.009214
9387.000000;-0.008265
9386.000000;-0.007138
9385.000000;-0.005718
9384.000000;-0.004242
9383.000000;-0.003063
9382.000000;-0.002240
9381.000000;-0.001492
9380.000000;-0.000560
9379.000000;0.000535
9378.000000;0.001611
9377.000000;0.002577
9376.000000;0.003499
9375.000000;0.004468
9374.000000;0.005508
9373.000000;0.006603
9372.000000;0.007754
9371.000000;0.008976
9370.000000;0.010223
9369.000000;0.011343
9368.000000;0.012207
9367.000000;0.012902
9366.000000;0.013733
9365.000000;0.014943
9364.000000;0.016453
9363.000000;0.017969
9362.000000;0.019313
9361.000000;0.020560
9360.000000;0.021836
9359.000000;0.023140
9358.000000;0.024435
9357.000000;0.025767
9356.000000;0.027177
9355.000000;0.028553
9354.000000;0.029711
9353.000000;0.030623
9352.000000;0.031446
9351.000000;0.032333
9350.000000;0.033305
9349.000000;0.034335
9348.000000;0.035444
9347.000000;0.036633
9346.000000;0.037829
9345.000000;0.038963
9344.000000;0.040083
9343.000000;0.041300
9342.000000;0.042641
9341.000000;0.044026
9340.000000;0.045382
9339.000000;0.046701
9338.000000;0.047988
9337.000000;0.049227
9336.000000;0.050424
9335.000000;0.051644
9334.000000;0.052942
9333.000000;0.054278
9332.000000;0.055551
9331.000000;0.056697
9330.000000;0.057748
9329.000000;0.058798
9328.000000;0.059929
9327.000000;0.061148
9326.000000;0.062381
9325.000000;0.063551
9324.000000;0.064675
9323.000000;0.065855
9322.000000;0.067149
9321.000000;0.068476
9320.000000;0.069683
9319.000000;0.070696
9318.000000;0.071572
9317.000000;0.072441
9316.000000;0.073410
9315.000000;0.074497
9314.000000;0.075624
9313.000000;0.076708
9312.000000;0.077770
9311.000000;0.078919
9310.000000;0.080196
9309.000000;0.081493
9308.000000;0.082675
9307.000000;0.083748
9306.000000;0.084822
9305.000000;0.085967
9304.000000;0.087179
9303.000000;0.088462
9302.000000;0.089799
9301.000000;0.091085
9300.000000;0.092188
9299.000000;0.093141
9298.000000;0.094149
9297.000000;0.095358
9296.000000;0.096683
9295.000000;0.097942
9294.000000;0.099049
9293.000000;0.100036
9292.000000;0.100940
9291.000000;0.101766
9290.000000;0.102535
9289.000000;0.103308
9288.000000;0.104166
9287.000000;0.105188
9286.000000;0.106399
9285.000000;0.107693
9284.000000;0.108873
9283.000000;0.109842
9282.000000;0.110714
9281.000000;0.111673
9280.000000;0.112789
9279.000000;0.114008
9278.000000;0.115273
9277.000000;0.116541
9276.000000;0.117705
9275.000000;0.118636
9274.000000;0.119342
9273.000000;0.120014
9272.000000;0.120861
9271.000000;0.121925
9270.000000;0.123075
9269.000000;0.124150
9268.000000;0.125108
9267.000000;0.126022
9266.000000;0.126964
9265.000000;0.127895
9264.000000;0.128722
9263.000000;0.129468
9262.000000;0.130347
9261.000000;0.131574
9260.000000;0.133111
9259.000000;0.134640
9258.000000;0.135844
9257.000000;0.136682
9256.000000;0.137389
9255.000000;0.138217
9254.000000;0.139219
9253.000000;0.140286
9252.000000;0.141336
9251.000000;0.142401
9250.000000;0.143487
9249.000000;0.144457
9248.000000;0.145155
9247.000000;0.145643
9246.000000;0.146187
9245.000000;0.146981
9244.000000;0.147978
9243.000000;0.149016
9242.000000;0.150026
9241.000000;0.151022
9240.000000;0.151990
9239.000000;0.152900
9238.000000;0.153784
9237.000000;0.154690
9236.000000;0.155573
9235.000000;0.156325
9234.000000;0.156924
9233.000000;0.157454
9232.000000;0.157995
9231.000000;0.158580
9230.000000;0.159268
9229.000000;0.160138
9228.000000;0.161183
9227.000000;0.162267
9226.000000;0.163239
9225.000000;0.164076
9224.000000;0.164882
9223.000000;0.165791
9222.000000;0.166855
9221.000000;0.167979
9220.000000;0.168971
9219.000000;0.169708
9218.000000;0.170255
9217.000000;0.170772
9216.000000;0.171320
9215.000000;0.171844
9214.000000;0.172330
9213.000000;0.172868
9212.000000;0.173540
9211.000000;0.174323
9210.000000;0.175163
9209.000000;0.176061
9208.000000;0.177020
9207.000000;0.177978
9206.000000;0.178878
9205.000000;0.179751
9204.000000;0.180671
9203.000000;0.181637
9202.000000;0.182558
9201.000000;0.183337
9200.000000;0.183940
9199.000000;0.184422
9198.000000;0.184921
9197.000000;0.185577
9196.000000;0.186411
9195.000000;0.187293
9194.000000;0.188071
9193.000000;0.188689
9192.000000;0.189158
9191.000000;0.189493
9190.000000;0.189765
9189.000000;0.190165
9188.000000;0.190854
9187.000000;0.191763
9186.000000;0.192648
9185.000000;0.193364
9184.000000;0.193994
9183.000000;0.194689
9182.000000;0.195484
9181.000000;0.196334
9180.000000;0.197218
9179.000000;0.198117
9178.000000;0.198954
9177.000000;0.199665
9176.000000;0.200279
9175.000000;0.200852
9174.000000;0.201363
9173.000000;0.201777
9172.000000;0.202185
9171.000000;0.202757
9170.000000;0.203511
9169.000000;0.204265
9168.000000;0.204861
9167.000000;0.205342
9166.000000;0.205855
9165.000000;0.206463
9164.000000;0.207141
9163.000000;0.207870
9162.000000;0.208617
9161.000000;0.209271
9160.000000;0.209721
9159.000000;0.210029
9158.000000;0.210392
9157.000000;0.210906
9156.000000;0.211470
9155.000000;0.211952
9154.000000;0.212382
9153.000000;0.212884
9152.000000;0.213499
9151.000000;0.214149
9150.000000;0.214737
9149.000000;0.215208
9148.000000;0.215540
9147.000000;0.215791
9146.000000;0.216154
9145.000000;0.216843
9144.000000;0.217860
9143.000000;0.218905
9142.000000;0.219607
9141.000000;0.219865
9140.000000;0.219922
9139.000000;0.220132
9138.000000;0.220661
9137.000000;0.221403
9136.000000;0.222130
9135.000000;0.222688
9134.000000;0.223075
9133.000000;0.223392
9132.000000;0.223756
9131.000000;0.224237
9130.000000;0.224824
9129.000000;0.225419
9128.000000;0.225903
9127.000000;0.226234
9126.000000;0.226503
9125.000000;0.226867
9124.000000;0.227419
9123.000000;0.228113
9122.000000;0.228818
9121.000000;0.229422
9120.000000;0.229889
9119.000000;0.230227
9118.000000;0.230459
9117.000000;0.230656
9116.000000;0.230957
9115.000000;0.231496
9114.000000;0.232252
9113.000000;0.233014
9112.000000;0.233555
9111.000000;0.233847
9110.000000;0.234092
9109.000000;0.234505
9108.000000;0.235119
9107.000000;0.235795
9106.000000;0.236370
9105.000000;0.236771
9104.000000;0.237025
9103.000000;0.237208
9102.000000;0.237394
9101.000000;0.237621
9100.000000;0.237886
9099.000000;0.238178
9098.000000;0.238512
9097.000000;0.238905
9096.000000;0.239333
9095.000000;0.239750
9094.000000;0.240148
9093.000000;0.240599
9092.000000;0.241192
9091.000000;0.241914
9090.000000;0.242607
9089.000000;0.243067
9088.000000;0.243233
9087.000000;0.243246
9086.000000;0.243304
9085.000000;0.243485
9084.000000;0.243745
9083.000000;0.244066
9082.000000;0.244505
9081.000000;0.245056
9080.000000;0.245554
9079.000000;0.245821
9078.000000;0.245905
9077.000000;0.246067
9076.000000;0.246497
9075.000000;0.247094
9074.000000;0.247594
9073.000000;0.247888
9072.000000;0.248138
9071.000000;0.248574
9070.000000;0.249221
9069.000000;0.249875
9068.000000;0.250294
9067.000000;0.250403
9066.000000;0.250307
9065.000000;0.250190
9064.000000;0.250211
9063.000000;0.250425
9062.000000;0.250765
9061.000000;0.251115
9060.000000;0.251430
9059.000000;0.251760
9058.000000;0.252145
