Criado como novo conjunto de dados;"0307_DANIEL.spp","73805.9 Secs"
cm-1;Abs
10000.000000;0.563485
9999.000000;0.562972
9998.000000;0.562321
9997.000000;0.561549
9996.000000;0.560752
9995.000000;0.559993
9994.000000;0.559259
9993.000000;0.558498
9992.000000;0.557658
9991.000000;0.556710
9990.000000;0.555688
9989.000000;0.554713
9988.000000;0.553927
9987.000000;0.553378
9986.000000;0.552996
9985.000000;0.552658
9984.000000;0.552245
9983.000000;0.551658
9982.000000;0.550850
9981.000000;0.549848
9980.000000;0.548711
9979.000000;0.547499
9978.000000;0.546343
9977.000000;0.545473
9976.000000;0.545010
9975.000000;0.544713
9974.000000;0.544106
9973.000000;0.542985
9972.000000;0.541692
9971.000000;0.540733
9970.000000;0.540244
9969.000000;0.539955
9968.000000;0.539618
9967.000000;0.539208
9966.000000;0.538720
9965.000000;0.537994
9964.000000;0.536922
9963.000000;0.535670
9962.000000;0.534528
9961.000000;0.533597
9960.000000;0.532750
9959.000000;0.531870
9958.000000;0.530982
9957.000000;0.530151
9956.000000;0.529358
9955.000000;0.528550
9954.000000;0.527724
9953.000000;0.526926
9952.000000;0.526199
9951.000000;0.525535
9950.000000;0.524851
9949.000000;0.523989
9948.000000;0.522839
9947.000000;0.521491
9946.000000;0.520219
9945.000000;0.519241
9944.000000;0.518498
9943.000000;0.517742
9942.000000;0.516817
9941.000000;0.515803
9940.000000;0.514899
9939.000000;0.514225
9938.000000;0.513756
9937.000000;0.513368
9936.000000;0.512885
9935.000000;0.512127
9934.000000;0.510997
9933.000000;0.509563
9932.000000;0.508056
9931.000000;0.506762
9930.000000;0.505861
9929.000000;0.505307
9928.000000;0.504860
9927.000000;0.504287
9926.000000;0.503552
9925.000000;0.502758
9924.000000;0.501901
9923.000000;0.500796
9922.000000;0.499346
9921.000000;0.497791
9920.000000;0.496533
9919.000000;0.495717
9918.000000;0.495093
9917.000000;0.494336
9916.000000;0.493382
9915.000000;0.492416
9914.000000;0.491609
9913.000000;0.490956
9912.000000;0.490299
9911.000000;0.489425
9910.000000;0.488198
9909.000000;0.486715
9908.000000;0.485300
9907.000000;0.484251
9906.000000;0.483545
9905.000000;0.482888
9904.000000;0.482044
9903.000000;0.481059
9902.000000;0.480130
9901.000000;0.479330
9900.000000;0.478554
9899.000000;0.477691
9898.000000;0.476766
9897.000000;0.475871
9896.000000;0.475001
9895.000000;0.474025
9894.000000;0.472844
9893.000000;0.471531
9892.000000;0.470271
9891.000000;0.469181
9890.000000;0.468242
9889.000000;0.467406
9888.000000;0.466683
9887.000000;0.466062
9886.000000;0.465396
9885.000000;0.464509
9884.000000;0.463423
9883.000000;0.462387
9882.000000;0.461599
9881.000000;0.460947
9880.000000;0.460144
9879.000000;0.459101
9878.000000;0.458037
9877.000000;0.457175
9876.000000;0.456422
9875.000000;0.455474
9874.000000;0.454196
9873.000000;0.452764
9872.000000;0.451418
9871.000000;0.450179
9870.000000;0.448893
9869.000000;0.447468
9868.000000;0.445984
9867.000000;0.444608
9866.000000;0.443493
9865.000000;0.442706
9864.000000;0.442166
9863.000000;0.441622
9862.000000;0.440805
9861.000000;0.439645
9860.000000;0.438323
9859.000000;0.437104
9858.000000;0.436137
9857.000000;0.435408
9856.000000;0.434787
9855.000000;0.434105
9854.000000;0.433246
9853.000000;0.432225
9852.000000;0.431171
9851.000000;0.430184
9850.000000;0.429225
9849.000000;0.428154
9848.000000;0.426875
9847.000000;0.425440
9846.000000;0.423997
9845.000000;0.422652
9844.000000;0.421389
9843.000000;0.420137
9842.000000;0.418895
9841.000000;0.417739
9840.000000;0.416696
9839.000000;0.415683
9838.000000;0.414623
9837.000000;0.413545
9836.000000;0.412478
9835.000000;0.411337
9834.000000;0.410037
9833.000000;0.408696
9832.000000;0.407556
9831.000000;0.406685
9830.000000;0.405902
9829.000000;0.405027
9828.000000;0.404053
9827.000000;0.402999
9826.000000;0.401748
9825.000000;0.400201
9824.000000;0.398521
9823.000000;0.397053
9822.000000;0.395997
9821.000000;0.395240
9820.000000;0.394508
9819.000000;0.393586
9818.000000;0.392407
9817.000000;0.391016
9816.000000;0.389518
9815.000000;0.388031
9814.000000;0.386656
9813.000000;0.385451
9812.000000;0.384388
9811.000000;0.383339
9810.000000;0.382146
9809.000000;0.380776
9808.000000;0.379369
9807.000000;0.378108
9806.000000;0.377057
9805.000000;0.376130
9804.000000;0.375177
9803.000000;0.374055
9802.000000;0.372698
9801.000000;0.371188
9800.000000;0.369744
9799.000000;0.368551
9798.000000;0.367614
9797.000000;0.366773
9796.000000;0.365860
9795.000000;0.364808
9794.000000;0.363616
9793.000000;0.362285
9792.000000;0.360792
9791.000000;0.359137
9790.000000;0.357442
9789.000000;0.355942
9788.000000;0.354799
9787.000000;0.353901
9786.000000;0.352939
9785.000000;0.351731
9784.000000;0.350370
9783.000000;0.349008
9782.000000;0.347594
9781.000000;0.345985
9780.000000;0.344239
9779.000000;0.342671
9778.000000;0.341564
9777.000000;0.340912
9776.000000;0.340413
9775.000000;0.339682
9774.000000;0.338495
9773.000000;0.336925
9772.000000;0.335246
9771.000000;0.333679
9770.000000;0.332245
9769.000000;0.330885
9768.000000;0.329587
9767.000000;0.328314
9766.000000;0.326930
9765.000000;0.325376
9764.000000;0.323877
9763.000000;0.322746
9762.000000;0.321968
9761.000000;0.321155
9760.000000;0.319978
9759.000000;0.318452
9758.000000;0.316731
9757.000000;0.314856
9756.000000;0.312886
9755.000000;0.311099
9754.000000;0.309759
9753.000000;0.308751
9752.000000;0.307673
9751.000000;0.306358
9750.000000;0.305087
9749.000000;0.304177
9748.000000;0.303541
9747.000000;0.302785
9746.000000;0.301628
9745.000000;0.300058
9744.000000;0.298148
9743.000000;0.295944
9742.000000;0.293616
9741.000000;0.291536
9740.000000;0.290042
9739.000000;0.289123
9738.000000;0.288380
9737.000000;0.287334
9736.000000;0.285782
9735.000000;0.283909
9734.000000;0.282077
9733.000000;0.280486
9732.000000;0.279000
9731.000000;0.277339
9730.000000;0.275433
9729.000000;0.273525
9728.000000;0.271895
9727.000000;0.270544
9726.000000;0.269244
9725.000000;0.267837
9724.000000;0.266376
9723.000000;0.264989
9722.000000;0.263706
9721.000000;0.262438
9720.000000;0.261063
9719.000000;0.259525
9718.000000;0.257886
9717.000000;0.256289
9716.000000;0.254817
9715.000000;0.253394
9714.000000;0.251889
9713.000000;0.250290
9712.000000;0.248723
9711.000000;0.247291
9710.000000;0.245998
9709.000000;0.244784
9708.000000;0.243560
9707.000000;0.242184
9706.000000;0.240543
9705.000000;0.238701
9704.000000;0.236883
9703.000000;0.235254
9702.000000;0.233800
9701.000000;0.232441
9700.000000;0.231150
9699.000000;0.229900
9698.000000;0.228604
9697.000000;0.227176
9696.000000;0.225608
9695.000000;0.223893
9694.000000;0.221952
9693.000000;0.219746
9692.000000;0.217434
9691.000000;0.215302
9690.000000;0.213545
9689.000000;0.212147
9688.000000;0.210952
9687.000000;0.209760
9686.000000;0.208373
9685.000000;0.206641
9684.000000;0.204575
9683.000000;0.202419
9682.000000;0.200549
9681.000000;0.199219
9680.000000;0.198319
9679.000000;0.197415
9678.000000;0.196106
9677.000000;0.194350
9676.000000;0.192402
9675.000000;0.190474
9674.000000;0.188585
9673.000000;0.186720
9672.000000;0.184965
9671.000000;0.183366
9670.000000;0.181801
9669.000000;0.180082
9668.000000;0.178146
9667.000000;0.176060
9666.000000;0.173907
9665.000000;0.171760
9664.000000;0.169700
9663.000000;0.167773
9662.000000;0.165946
9661.000000;0.164179
9660.000000;0.162502
9659.000000;0.160958
9658.000000;0.159497
9657.000000;0.158009
9656.000000;0.156438
9655.000000;0.154812
9654.000000;0.153206
9653.000000;0.151688
9652.000000;0.150248
9651.000000;0.148739
9650.000000;0.146983
9649.000000;0.145024
9648.000000;0.143180
9647.000000;0.141712
9646.000000;0.140478
9645.000000;0.139036
9644.000000;0.137088
9643.000000;0.134739
9642.000000;0.132312
9641.000000;0.130037
9640.000000;0.127942
9639.000000;0.125950
9638.000000;0.124025
9637.000000;0.122198
9636.000000;0.120479
9635.000000;0.118773
9634.000000;0.116921
9633.000000;0.114853
9632.000000;0.112669
9631.000000;0.110556
9630.000000;0.108664
9629.000000;0.107032
9628.000000;0.105545
9627.000000;0.103946
9626.000000;0.102021
9625.000000;0.099823
9624.000000;0.097624
9623.000000;0.095617
9622.000000;0.093750
9621.000000;0.091914
9620.000000;0.090154
9619.000000;0.088563
9618.000000;0.087080
9617.000000;0.085527
9616.000000;0.083788
9615.000000;0.081853
9614.000000;0.079739
9613.000000;0.077490
9612.000000;0.075226
9611.000000;0.073088
9610.000000;0.071133
9609.000000;0.069317
9608.000000;0.067526
9607.000000;0.065594
9606.000000;0.063415
9605.000000;0.061108
9604.000000;0.058972
9603.000000;0.057162
9602.000000;0.055490
9601.000000;0.053650
9600.000000;0.051561
9599.000000;0.049376
9598.000000;0.047261
9597.000000;0.045293
9596.000000;0.043474
9595.000000;0.041706
9594.000000;0.039820
9593.000000;0.037775
9592.000000;0.035766
9591.000000;0.033960
9590.000000;0.032210
9589.000000;0.030232
9588.000000;0.028020
9587.000000;0.025882
9586.000000;0.024043
9585.000000;0.022405
9584.000000;0.020704
9583.000000;0.018754
9582.000000;0.016509
9581.000000;0.014058
9580.000000;0.011601
9579.000000;0.009311
9578.000000;0.007187
9577.000000;0.005100
9576.000000;0.002987
9575.000000;0.000900
9574.000000;-0.001116
9573.000000;-0.003076
9572.000000;-0.004986
9571.000000;-0.006842
9570.000000;-0.008694
9569.000000;-0.010618
9568.000000;-0.012626
9567.000000;-0.014708
9566.000000;-0.016897
9565.000000;-0.019171
9564.000000;-0.021339
9563.000000;-0.023221
9562.000000;-0.024913
9561.000000;-0.026698
9560.000000;-0.028682
9559.000000;-0.030690
9558.000000;-0.032554
9557.000000;-0.034332
9556.000000;-0.036170
9555.000000;-0.038121
9554.000000;-0.040159
9553.000000;-0.042256
9552.000000;-0.044353
9551.000000;-0.046375
9550.000000;-0.048327
9549.000000;-0.050303
9548.000000;-0.052348
9547.000000;-0.054402
9546.000000;-0.056424
9545.000000;-0.058461
9544.000000;-0.060540
9543.000000;-0.062587
9542.000000;-0.064513
9541.000000;-0.066335
9540.000000;-0.068188
9539.000000;-0.070234
9538.000000;-0.072532
9537.000000;-0.074898
9536.000000;-0.076948
9535.000000;-0.078439
9534.000000;-0.079575
9533.000000;-0.080852
9532.000000;-0.082561
9531.000000;-0.084547
9530.000000;-0.086460
9529.000000;-0.088107
9528.000000;-0.089546
9527.000000;-0.091006
9526.000000;-0.092747
9525.000000;-0.094854
9524.000000;-0.097102
9523.000000;-0.099136
9522.000000;-0.100821
9521.000000;-0.102331
9520.000000;-0.103886
9519.000000;-0.105556
9518.000000;-0.107330
9517.000000;-0.109186
9516.000000;-0.111014
9515.000000;-0.112642
9514.000000;-0.114036
9513.000000;-0.115336
9512.000000;-0.116617
9511.000000;-0.117798
9510.000000;-0.118907
9509.000000;-0.120256
9508.000000;-0.122131
9507.000000;-0.124395
9506.000000;-0.126561
9505.000000;-0.128263
9504.000000;-0.129499
9503.000000;-0.130469
9502.000000;-0.131352
9501.000000;-0.132289
9500.000000;-0.133463
9499.000000;-0.135045
9498.000000;-0.136995
9497.000000;-0.138985
9496.000000;-0.140634
9495.000000;-0.141891
9494.000000;-0.143099
9493.000000;-0.144552
9492.000000;-0.146069
9491.000000;-0.147187
9490.000000;-0.147749
9489.000000;-0.148074
9488.000000;-0.148513
9487.000000;-0.149094
9486.000000;-0.149724
9485.000000;-0.150516
9484.000000;-0.151676
9483.000000;-0.153164
9482.000000;-0.154682
9481.000000;-0.155967
9480.000000;-0.156959
9479.000000;-0.157723
9478.000000;-0.158327
9477.000000;-0.158824
9476.000000;-0.159277
9475.000000;-0.159795
9474.000000;-0.160532
9473.000000;-0.161561
9472.000000;-0.162716
9471.000000;-0.163676
9470.000000;-0.164278
9469.000000;-0.164673
9468.000000;-0.165115
9467.000000;-0.165719
9466.000000;-0.166462
9465.000000;-0.167296
9464.000000;-0.168118
9463.000000;-0.168747
9462.000000;-0.169072
9461.000000;-0.169158
9460.000000;-0.169140
9459.000000;-0.169096
9458.000000;-0.169094
9457.000000;-0.169234
9456.000000;-0.169519
9455.000000;-0.169808
9454.000000;-0.170020
9453.000000;-0.170249
9452.000000;-0.170527
9451.000000;-0.170639
9450.000000;-0.170383
9449.000000;-0.169908
9448.000000;-0.169570
9447.000000;-0.169511
9446.000000;-0.169599
9445.000000;-0.169725
9444.000000;-0.169876
9443.000000;-0.169939
9442.000000;-0.169733
9441.000000;-0.169278
9440.000000;-0.168816
9439.000000;-0.168483
9438.000000;-0.168179
9437.000000;-0.167824
9436.000000;-0.167519
9435.000000;-0.167311
9434.000000;-0.167014
9433.000000;-0.166463
9432.000000;-0.165796
9431.000000;-0.165295
9430.000000;-0.164999
9429.000000;-0.164648
9428.000000;-0.163975
9427.000000;-0.162941
9426.000000;-0.161724
9425.000000;-0.160575
9424.000000;-0.159703
9423.000000;-0.159152
9422.000000;-0.158766
9421.000000;-0.158298
9420.000000;-0.157583
9419.000000;-0.156629
9418.000000;-0.155580
9417.000000;-0.154643
9416.000000;-0.153997
9415.000000;-0.153688
9414.000000;-0.153578
9413.000000;-0.153429
9412.000000;-0.153070
9411.000000;-0.152485
9410.000000;-0.151783
9409.000000;-0.151060
9408.000000;-0.150269
9407.000000;-0.149233
9406.000000;-0.147800
9405.000000;-0.146020
9404.000000;-0.144166
9403.000000;-0.142571
9402.000000;-0.141418
9401.000000;-0.140635
9400.000000;-0.139953
9399.000000;-0.139111
9398.000000;-0.138046
9397.000000;-0.136885
9396.000000;-0.135730
9395.000000;-0.134535
9394.000000;-0.133233
9393.000000;-0.131885
9392.000000;-0.130603
9391.000000;-0.129374
9390.000000;-0.128122
9389.000000;-0.126904
9388.000000;-0.125877
9387.000000;-0.125019
9386.000000;-0.124038
9385.000000;-0.122682
9384.000000;-0.121024
9383.000000;-0.119377
9382.000000;-0.117969
9381.000000;-0.116790
9380.000000;-0.115708
9379.000000;-0.114617
9378.000000;-0.113473
9377.000000;-0.112265
9376.000000;-0.110985
9375.000000;-0.109620
9374.000000;-0.108172
9373.000000;-0.106663
9372.000000;-0.105102
9371.000000;-0.103465
9370.000000;-0.101789
9369.000000;-0.100254
9368.000000;-0.099033
9367.000000;-0.098036
9366.000000;-0.096925
9365.000000;-0.095493
9364.000000;-0.093923
9363.000000;-0.092529
9362.000000;-0.091330
9361.000000;-0.090056
9360.000000;-0.088550
9359.000000;-0.086954
9358.000000;-0.085453
9357.000000;-0.084010
9356.000000;-0.082490
9355.000000;-0.080919
9354.000000;-0.079434
9353.000000;-0.078038
9352.000000;-0.076576
9351.000000;-0.074972
9350.000000;-0.073340
9349.000000;-0.071820
9348.000000;-0.070421
9347.000000;-0.069074
9346.000000;-0.067748
9345.000000;-0.066410
9344.000000;-0.064971
9343.000000;-0.063389
9342.000000;-0.061769
9341.000000;-0.060265
9340.000000;-0.058886
9339.000000;-0.057513
9338.000000;-0.056096
9337.000000;-0.054720
9336.000000;-0.053423
9335.000000;-0.052088
9334.000000;-0.050574
9333.000000;-0.048918
9332.000000;-0.047338
9331.000000;-0.046060
9330.000000;-0.045160
9329.000000;-0.044522
9328.000000;-0.043900
9327.000000;-0.043049
9326.000000;-0.041841
9325.000000;-0.040308
9324.000000;-0.038580
9323.000000;-0.036809
9322.000000;-0.035105
9321.000000;-0.033490
9320.000000;-0.031910
9319.000000;-0.030351
9318.000000;-0.028891
9317.000000;-0.027579
9316.000000;-0.026295
9315.000000;-0.024880
9314.000000;-0.023385
9313.000000;-0.022069
9312.000000;-0.021034
9311.000000;-0.020020
9310.000000;-0.018662
9309.000000;-0.016920
9308.000000;-0.015112
9307.000000;-0.013552
9306.000000;-0.012254
9305.000000;-0.011022
9304.000000;-0.009733
9303.000000;-0.008470
9302.000000;-0.007372
9301.000000;-0.006405
9300.000000;-0.005321
9299.000000;-0.003877
9298.000000;-0.002062
9297.000000;-0.000095
9296.000000;0.001756
9295.000000;0.003299
9294.000000;0.004454
9293.000000;0.005320
9292.000000;0.006183
9291.000000;0.007307
9290.000000;0.008676
9289.000000;0.010046
9288.000000;0.011270
9287.000000;0.012447
9286.000000;0.013717
9285.000000;0.015087
9284.000000;0.016509
9283.000000;0.017978
9282.000000;0.019421
9281.000000;0.020684
9280.000000;0.021744
9279.000000;0.022828
9278.000000;0.024125
9277.000000;0.025508
9276.000000;0.026693
9275.000000;0.027607
9274.000000;0.028412
9273.000000;0.029268
9272.000000;0.030253
9271.000000;0.031483
9270.000000;0.033056
9269.000000;0.034854
9268.000000;0.036565
9267.000000;0.037951
9266.000000;0.038980
9265.000000;0.039733
9264.000000;0.040363
9263.000000;0.041145
9262.000000;0.042359
9261.000000;0.044035
9260.000000;0.045897
9259.000000;0.047597
9258.000000;0.048915
9257.000000;0.049820
9256.000000;0.050528
9255.000000;0.051481
9254.000000;0.053000
9253.000000;0.054842
9252.000000;0.056331
9251.000000;0.057091
9250.000000;0.057487
9249.000000;0.058154
9248.000000;0.059272
9247.000000;0.060521
9246.000000;0.061631
9245.000000;0.062697
9244.000000;0.063937
9243.000000;0.065356
9242.000000;0.066771
9241.000000;0.068018
9240.000000;0.069035
9239.000000;0.069817
9238.000000;0.070432
9237.000000;0.071081
9236.000000;0.072020
9235.000000;0.073350
9234.000000;0.074882
9233.000000;0.076277
9232.000000;0.077347
9231.000000;0.078183
9230.000000;0.078984
9229.000000;0.079818
9228.000000;0.080618
9227.000000;0.081368
9226.000000;0.082178
9225.000000;0.083159
9224.000000;0.084305
9223.000000;0.085523
9222.000000;0.086712
9221.000000;0.087785
9220.000000;0.088720
9219.000000;0.089634
9218.000000;0.090726
9217.000000;0.092076
9216.000000;0.093516
9215.000000;0.094749
9214.000000;0.095575
9213.000000;0.096003
9212.000000;0.096232
9211.000000;0.096571
9210.000000;0.097272
9209.000000;0.098356
9208.000000;0.099602
9207.000000;0.100777
9206.000000;0.101832
9205.000000;0.102850
9204.000000;0.103885
9203.000000;0.104960
9202.000000;0.106127
9201.000000;0.107418
9200.000000;0.108725
9199.000000;0.109839
9198.000000;0.110627
9197.000000;0.111136
9196.000000;0.111537
9195.000000;0.112021
9194.000000;0.112724
9193.000000;0.113651
9192.000000;0.114672
9191.000000;0.115627
9190.000000;0.116443
9189.000000;0.117105
9188.000000;0.117601
9187.000000;0.117993
9186.000000;0.118511
9185.000000;0.119375
9184.000000;0.120492
9183.000000;0.121493
9182.000000;0.122184
9181.000000;0.122844
9180.000000;0.123911
9179.000000;0.125422
9178.000000;0.126914
9177.000000;0.127919
9176.000000;0.128436
9175.000000;0.128874
9174.000000;0.129617
9173.000000;0.130719
9172.000000;0.131958
9171.000000;0.133082
9170.000000;0.133978
9169.000000;0.134673
9168.000000;0.135241
9167.000000;0.135740
9166.000000;0.136203
9165.000000;0.136677
9164.000000;0.137243
9163.000000;0.137966
9162.000000;0.138817
9161.000000;0.139666
9160.000000;0.140397
9159.000000;0.141031
9158.000000;0.141688
9157.000000;0.142431
9156.000000;0.143191
9155.000000;0.143889
9154.000000;0.144562
9153.000000;0.145296
9152.000000;0.146080
9151.000000;0.146825
9150.000000;0.147520
9149.000000;0.148256
9148.000000;0.149057
9147.000000;0.149832
9146.000000;0.150533
9145.000000;0.151271
9144.000000;0.152169
9143.000000;0.153190
9142.000000;0.154204
9141.000000;0.155147
9140.000000;0.155999
9139.000000;0.156692
9138.000000;0.157174
9137.000000;0.157577
9136.000000;0.158116
9135.000000;0.158820
9134.000000;0.159472
9133.000000;0.159896
9132.000000;0.160169
9131.000000;0.160488
9130.000000;0.160962
9129.000000;0.161600
9128.000000;0.162417
9127.000000;0.163393
9126.000000;0.164396
9125.000000;0.165248
9124.000000;0.165881
9123.000000;0.166355
9122.000000;0.166761
9121.000000;0.167175
9120.000000;0.167687
9119.000000;0.168357
9118.000000;0.169139
9117.000000;0.169910
9116.000000;0.170616
9115.000000;0.171307
9114.000000;0.172000
9113.000000;0.172595
9112.000000;0.172997
9111.000000;0.173260
9110.000000;0.173567
9109.000000;0.174053
9108.000000;0.174702
9107.000000;0.175417
9106.000000;0.176152
9105.000000;0.176932
9104.000000;0.177777
9103.000000;0.178630
9102.000000;0.179379
9101.000000;0.179940
9100.000000;0.180315
9099.000000;0.180570
9098.000000;0.180783
9097.000000;0.180991
9096.000000;0.181208
9095.000000;0.181483
9094.000000;0.181935
9093.000000;0.182666
9092.000000;0.183614
9091.000000;0.184545
9090.000000;0.185253
9089.000000;0.185761
9088.000000;0.186266
9087.000000;0.186900
9086.000000;0.187609
9085.000000;0.188239
9084.000000;0.188671
9083.000000;0.188895
9082.000000;0.189053
9081.000000;0.189387
9080.000000;0.190059
9079.000000;0.190979
9078.000000;0.191872
9077.000000;0.192532
9076.000000;0.192947
9075.000000;0.193172
9074.000000;0.193239
9073.000000;0.193255
9072.000000;0.193433
9071.000000;0.193913
9070.000000;0.194605
9069.000000;0.195309
9068.000000;0.195962
9067.000000;0.196658
9066.000000;0.197478
