Criado como novo conjunto de dados;"0307_DANIEL.spp","34203.8 Secs"
cm-1;Abs
10000.000000;1.135179
9999.000000;1.135053
9998.000000;1.134926
9997.000000;1.134799
9996.000000;1.134673
9995.000000;1.134546
9994.000000;1.134421
9993.000000;1.134291
9992.000000;1.134170
9991.000000;1.134033
9990.000000;1.133934
9989.000000;1.133582
9988.000000;1.132348
9987.000000;1.130156
9986.000000;1.127628
9985.000000;1.125584
9984.000000;1.124394
9983.000000;1.123802
9982.000000;1.123330
9981.000000;1.122683
9980.000000;1.121799
9979.000000;1.120748
9978.000000;1.119679
9977.000000;1.118693
9976.000000;1.117664
9975.000000;1.116364
9974.000000;1.114852
9973.000000;1.113545
9972.000000;1.112804
9971.000000;1.112567
9970.000000;1.112429
9969.000000;1.111913
9968.000000;1.110670
9967.000000;1.108687
9966.000000;1.106405
9965.000000;1.104400
9964.000000;1.102851
9963.000000;1.101501
9962.000000;1.100160
9961.000000;1.098934
9960.000000;1.097895
9959.000000;1.096905
9958.000000;1.095986
9957.000000;1.095488
9956.000000;1.095555
9955.000000;1.095615
9954.000000;1.094753
9953.000000;1.092589
9952.000000;1.089585
9951.000000;1.086592
9950.000000;1.084241
9949.000000;1.082661
9948.000000;1.081525
9947.000000;1.080410
9946.000000;1.079221
9945.000000;1.078197
9944.000000;1.077472
9943.000000;1.076830
9942.000000;1.076013
9941.000000;1.075043
9940.000000;1.074069
9939.000000;1.073092
9938.000000;1.072014
9937.000000;1.070822
9936.000000;1.069523
9935.000000;1.068085
9934.000000;1.066633
9933.000000;1.065490
9932.000000;1.064761
9931.000000;1.064029
9930.000000;1.062781
9929.000000;1.061081
9928.000000;1.059483
9927.000000;1.058263
9926.000000;1.057049
9925.000000;1.055335
9924.000000;1.053160
9923.000000;1.051080
9922.000000;1.049535
9921.000000;1.048438
9920.000000;1.047410
9919.000000;1.046287
9918.000000;1.045230
9917.000000;1.044363
9916.000000;1.043510
9915.000000;1.042428
9914.000000;1.041150
9913.000000;1.039869
9912.000000;1.038564
9911.000000;1.037013
9910.000000;1.035187
9909.000000;1.033397
9908.000000;1.031940
9907.000000;1.030772
9906.000000;1.029572
9905.000000;1.028005
9904.000000;1.025913
9903.000000;1.023475
9902.000000;1.021211
9901.000000;1.019630
9900.000000;1.018742
9899.000000;1.018045
9898.000000;1.017055
9897.000000;1.015700
9896.000000;1.014173
9895.000000;1.012616
9894.000000;1.011073
9893.000000;1.009621
9892.000000;1.008384
9891.000000;1.007490
9890.000000;1.007000
9889.000000;1.006778
9888.000000;1.006405
9887.000000;1.005406
9886.000000;1.003645
9885.000000;1.001421
9884.000000;0.999209
9883.000000;0.997401
9882.000000;0.996136
9881.000000;0.995144
9880.000000;0.993876
9879.000000;0.992104
9878.000000;0.990352
9877.000000;0.989370
9876.000000;0.989114
9875.000000;0.988625
9874.000000;0.987084
9873.000000;0.984676
9872.000000;0.982233
9871.000000;0.980351
9870.000000;0.979096
9869.000000;0.978263
9868.000000;0.977582
9867.000000;0.976764
9866.000000;0.975619
9865.000000;0.974158
9864.000000;0.972519
9863.000000;0.970843
9862.000000;0.969268
9861.000000;0.967861
9860.000000;0.966483
9859.000000;0.964904
9858.000000;0.963130
9857.000000;0.961443
9856.000000;0.960013
9855.000000;0.958661
9854.000000;0.957162
9853.000000;0.955574
9852.000000;0.954104
9851.000000;0.952794
9850.000000;0.951518
9849.000000;0.950205
9848.000000;0.948876
9847.000000;0.947514
9846.000000;0.946015
9845.000000;0.944293
9844.000000;0.942428
9843.000000;0.940730
9842.000000;0.939547
9841.000000;0.938875
9840.000000;0.938208
9839.000000;0.936984
9838.000000;0.935146
9837.000000;0.933087
9836.000000;0.931109
9835.000000;0.929215
9834.000000;0.927387
9833.000000;0.925730
9832.000000;0.924265
9831.000000;0.922866
9830.000000;0.921502
9829.000000;0.920245
9828.000000;0.918956
9827.000000;0.917289
9826.000000;0.915147
9825.000000;0.912886
9824.000000;0.910860
9823.000000;0.909042
9822.000000;0.907264
9821.000000;0.905593
9820.000000;0.904239
9819.000000;0.903243
9818.000000;0.902461
9817.000000;0.901727
9816.000000;0.900898
9815.000000;0.899847
9814.000000;0.898534
9813.000000;0.896992
9812.000000;0.895177
9811.000000;0.893002
9810.000000;0.890574
9809.000000;0.888222
9808.000000;0.886192
9807.000000;0.884497
9806.000000;0.883094
9805.000000;0.881953
9804.000000;0.880866
9803.000000;0.879476
9802.000000;0.877667
9801.000000;0.875722
9800.000000;0.873963
9799.000000;0.872445
9798.000000;0.871111
9797.000000;0.869959
9796.000000;0.868856
9795.000000;0.867444
9794.000000;0.865515
9793.000000;0.863357
9792.000000;0.861486
9791.000000;0.860107
9790.000000;0.858952
9789.000000;0.857591
9788.000000;0.855808
9787.000000;0.853757
9786.000000;0.851815
9785.000000;0.850181
9784.000000;0.848635
9783.000000;0.846845
9782.000000;0.844897
9781.000000;0.843188
9780.000000;0.841777
9779.000000;0.840199
9778.000000;0.838108
9777.000000;0.835781
9776.000000;0.833732
9775.000000;0.832077
9774.000000;0.830550
9773.000000;0.828968
9772.000000;0.827431
9771.000000;0.826104
9770.000000;0.825006
9769.000000;0.823930
9768.000000;0.822483
9767.000000;0.820356
9766.000000;0.817663
9765.000000;0.814888
9764.000000;0.812458
9763.000000;0.810486
9762.000000;0.808945
9761.000000;0.807785
9760.000000;0.806786
9759.000000;0.805606
9758.000000;0.804147
9757.000000;0.802641
9756.000000;0.801227
9755.000000;0.799705
9754.000000;0.797907
9753.000000;0.796035
9752.000000;0.794352
9751.000000;0.792762
9750.000000;0.790969
9749.000000;0.788939
9748.000000;0.786940
9747.000000;0.785197
9746.000000;0.783670
9745.000000;0.782079
9744.000000;0.780053
9743.000000;0.777442
9742.000000;0.774587
9741.000000;0.772081
9740.000000;0.770129
9739.000000;0.768400
9738.000000;0.766618
9737.000000;0.764985
9736.000000;0.763751
9735.000000;0.762660
9734.000000;0.761169
9733.000000;0.759071
9732.000000;0.756609
9731.000000;0.754147
9730.000000;0.751989
9729.000000;0.750361
9728.000000;0.749246
9727.000000;0.748286
9726.000000;0.747106
9725.000000;0.745656
9724.000000;0.744058
9723.000000;0.742283
9722.000000;0.740203
9721.000000;0.737834
9720.000000;0.735278
9719.000000;0.732609
9718.000000;0.730068
9717.000000;0.728162
9716.000000;0.727189
9715.000000;0.726737
9714.000000;0.725996
9713.000000;0.724532
9712.000000;0.722502
9711.000000;0.720203
9710.000000;0.717806
9709.000000;0.715500
9708.000000;0.713472
9707.000000;0.711632
9706.000000;0.709652
9705.000000;0.707403
9704.000000;0.705124
9703.000000;0.703050
9702.000000;0.701121
9701.000000;0.699165
9700.000000;0.697189
9699.000000;0.695352
9698.000000;0.693717
9697.000000;0.692137
9696.000000;0.690359
9695.000000;0.688229
9694.000000;0.685859
9693.000000;0.683582
9692.000000;0.681672
9691.000000;0.680114
9690.000000;0.678667
9689.000000;0.677108
9688.000000;0.675350
9687.000000;0.673395
9686.000000;0.671286
9685.000000;0.669045
9684.000000;0.666593
9683.000000;0.663814
9682.000000;0.660832
9681.000000;0.658108
9680.000000;0.656113
9679.000000;0.654889
9678.000000;0.654006
9677.000000;0.652869
9676.000000;0.651046
9675.000000;0.648479
9674.000000;0.645534
9673.000000;0.642763
9672.000000;0.640455
9671.000000;0.638444
9670.000000;0.636434
9669.000000;0.634389
9668.000000;0.632485
9667.000000;0.630818
9666.000000;0.629344
9665.000000;0.627971
9664.000000;0.626520
9663.000000;0.624681
9662.000000;0.622296
9661.000000;0.619633
9660.000000;0.617136
9659.000000;0.614914
9658.000000;0.612719
9657.000000;0.610404
9656.000000;0.608173
9655.000000;0.606271
9654.000000;0.604639
9653.000000;0.602996
9652.000000;0.601122
9651.000000;0.598969
9650.000000;0.596601
9649.000000;0.594130
9648.000000;0.591635
9647.000000;0.589081
9646.000000;0.586380
9645.000000;0.583604
9644.000000;0.581054
9643.000000;0.579010
9642.000000;0.577420
9641.000000;0.575904
9640.000000;0.574140
9639.000000;0.572186
9638.000000;0.570346
9637.000000;0.568701
9636.000000;0.566912
9635.000000;0.564602
9634.000000;0.561829
9633.000000;0.559039
9632.000000;0.556573
9631.000000;0.554414
9630.000000;0.552408
9629.000000;0.550467
9628.000000;0.548468
9627.000000;0.546186
9626.000000;0.543562
9625.000000;0.540898
9624.000000;0.538584
9623.000000;0.536647
9622.000000;0.534714
9621.000000;0.532412
9620.000000;0.529711
9619.000000;0.526938
9618.000000;0.524527
9617.000000;0.522691
9616.000000;0.521206
9615.000000;0.519535
9614.000000;0.517293
9613.000000;0.514584
9612.000000;0.511815
9611.000000;0.509236
9610.000000;0.506758
9609.000000;0.504174
9608.000000;0.501447
9607.000000;0.498781
9606.000000;0.496473
9605.000000;0.494647
9604.000000;0.493084
9603.000000;0.491357
9602.000000;0.489198
9601.000000;0.486713
9600.000000;0.484208
9599.000000;0.481861
9598.000000;0.479608
9597.000000;0.477285
9596.000000;0.474812
9595.000000;0.472283
9594.000000;0.469911
9593.000000;0.467834
9592.000000;0.465934
9591.000000;0.463914
9590.000000;0.461570
9589.000000;0.458913
9588.000000;0.456076
9587.000000;0.453248
9586.000000;0.450675
9585.000000;0.448536
9584.000000;0.446703
9583.000000;0.444797
9582.000000;0.442565
9581.000000;0.440074
9580.000000;0.437488
9579.000000;0.434862
9578.000000;0.432276
9577.000000;0.429944
9576.000000;0.427959
9575.000000;0.426051
9574.000000;0.423857
9573.000000;0.421352
9572.000000;0.418818
9571.000000;0.416410
9570.000000;0.413992
9569.000000;0.411407
9568.000000;0.408716
9567.000000;0.406120
9566.000000;0.403748
9565.000000;0.401567
9564.000000;0.399397
9563.000000;0.397021
9562.000000;0.394398
9561.000000;0.391760
9560.000000;0.389425
9559.000000;0.387498
9558.000000;0.385791
9557.000000;0.384016
9556.000000;0.381966
9555.000000;0.379553
9554.000000;0.376815
9553.000000;0.373937
9552.000000;0.371161
9551.000000;0.368633
9550.000000;0.366364
9549.000000;0.364316
9548.000000;0.362470
9547.000000;0.360740
9546.000000;0.358905
9545.000000;0.356708
9544.000000;0.354091
9543.000000;0.351301
9542.000000;0.348696
9541.000000;0.346430
9540.000000;0.344349
9539.000000;0.342204
9538.000000;0.339879
9537.000000;0.337407
9536.000000;0.334876
9535.000000;0.332425
9534.000000;0.330232
9533.000000;0.328327
9532.000000;0.326499
9531.000000;0.324554
9530.000000;0.322622
9529.000000;0.321007
9528.000000;0.319746
9527.000000;0.318519
9526.000000;0.317003
9525.000000;0.315088
9524.000000;0.312719
9523.000000;0.309846
9522.000000;0.306695
9521.000000;0.303831
9520.000000;0.301693
9519.000000;0.300169
9518.000000;0.298793
9517.000000;0.297270
9516.000000;0.295593
9515.000000;0.293773
9514.000000;0.291738
9513.000000;0.289550
9512.000000;0.287499
9511.000000;0.285780
9510.000000;0.284144
9509.000000;0.282067
9508.000000;0.279370
9507.000000;0.276595
9506.000000;0.274577
9505.000000;0.273579
9504.000000;0.272984
9503.000000;0.271940
9502.000000;0.270200
9501.000000;0.268166
9500.000000;0.266238
9499.000000;0.264427
9498.000000;0.262589
9497.000000;0.260750
9496.000000;0.259070
9495.000000;0.257664
9494.000000;0.256511
9493.000000;0.255420
9492.000000;0.254059
9491.000000;0.252263
9490.000000;0.250318
9489.000000;0.248693
9488.000000;0.247449
9487.000000;0.246177
9486.000000;0.244636
9485.000000;0.243128
9484.000000;0.242041
9483.000000;0.241274
9482.000000;0.240376
9481.000000;0.239112
9480.000000;0.237609
9479.000000;0.236065
9478.000000;0.234581
9477.000000;0.233257
9476.000000;0.232190
9475.000000;0.231342
9474.000000;0.230584
9473.000000;0.229888
9472.000000;0.229366
9471.000000;0.229080
9470.000000;0.228872
9469.000000;0.228436
9468.000000;0.227537
9467.000000;0.226228
9466.000000;0.224859
9465.000000;0.223828
9464.000000;0.223246
9463.000000;0.222870
9462.000000;0.222331
9461.000000;0.221407
9460.000000;0.220146
9459.000000;0.218866
9458.000000;0.218002
9457.000000;0.217713
9456.000000;0.217655
9455.000000;0.217335
9454.000000;0.216709
9453.000000;0.216180
9452.000000;0.215937
9451.000000;0.215658
9450.000000;0.215034
9449.000000;0.214283
9448.000000;0.213887
9447.000000;0.214008
9446.000000;0.214453
9445.000000;0.215028
9444.000000;0.215642
9443.000000;0.216105
9442.000000;0.216153
9441.000000;0.215715
9440.000000;0.214988
9439.000000;0.214251
9438.000000;0.213720
9437.000000;0.213547
9436.000000;0.213767
9435.000000;0.214266
9434.000000;0.214901
9433.000000;0.215613
9432.000000;0.216297
9431.000000;0.216696
9430.000000;0.216620
9429.000000;0.216246
9428.000000;0.215988
9427.000000;0.216082
9426.000000;0.216446
9425.000000;0.216941
9424.000000;0.217526
9423.000000;0.218139
9422.000000;0.218613
9421.000000;0.218848
9420.000000;0.218958
9419.000000;0.219204
9418.000000;0.219801
9417.000000;0.220805
9416.000000;0.222065
9415.000000;0.223246
9414.000000;0.223987
9413.000000;0.224139
9412.000000;0.223877
9411.000000;0.223601
9410.000000;0.223724
9409.000000;0.224454
9408.000000;0.225634
9407.000000;0.226792
9406.000000;0.227515
9405.000000;0.227822
9404.000000;0.228171
9403.000000;0.229026
9402.000000;0.230448
9401.000000;0.232054
9400.000000;0.233342
9399.000000;0.234072
9398.000000;0.234395
9397.000000;0.234680
9396.000000;0.235198
9395.000000;0.235951
9394.000000;0.236746
9393.000000;0.237408
9392.000000;0.237939
9391.000000;0.238507
9390.000000;0.239275
9389.000000;0.240214
9388.000000;0.241112
9387.000000;0.241822
9386.000000;0.242461
9385.000000;0.243269
9384.000000;0.244302
9383.000000;0.245389
9382.000000;0.246421
9381.000000;0.247543
9380.000000;0.248977
9379.000000;0.250725
9378.000000;0.252539
9377.000000;0.254130
9376.000000;0.255378
9375.000000;0.256381
9374.000000;0.257373
9373.000000;0.258543
9372.000000;0.259869
9371.000000;0.261159
9370.000000;0.262279
9369.000000;0.263290
9368.000000;0.264359
9367.000000;0.265595
9366.000000;0.266984
9365.000000;0.268401
9364.000000;0.269672
9363.000000;0.270710
9362.000000;0.271621
9361.000000;0.272608
9360.000000;0.273729
9359.000000;0.274861
9358.000000;0.275922
9357.000000;0.276985
9356.000000;0.278116
9355.000000;0.279237
9354.000000;0.280267
9353.000000;0.281291
9352.000000;0.282441
9351.000000;0.283697
9350.000000;0.284906
9349.000000;0.285994
9348.000000;0.287014
9347.000000;0.288038
9346.000000;0.289103
9345.000000;0.290238
9344.000000;0.291462
9343.000000;0.292738
9342.000000;0.294015
9341.000000;0.295277
9340.000000;0.296532
9339.000000;0.297755
9338.000000;0.298954
9337.000000;0.300221
9336.000000;0.301653
9335.000000;0.303197
9334.000000;0.304662
9333.000000;0.305894
9332.000000;0.306907
9331.000000;0.307826
9330.000000;0.308756
9329.000000;0.309695
9328.000000;0.310579
9327.000000;0.311412
9326.000000;0.312335
9325.000000;0.313532
9324.000000;0.315021
9323.000000;0.316582
9322.000000;0.317906
9321.000000;0.318830
9320.000000;0.319410
9319.000000;0.319859
9318.000000;0.320453
9317.000000;0.321421
9316.000000;0.322819
9315.000000;0.324500
9314.000000;0.326216
9313.000000;0.327771
9312.000000;0.329079
9311.000000;0.330130
9310.000000;0.330957
9309.000000;0.331627
9308.000000;0.332244
9307.000000;0.332956
9306.000000;0.333939
9305.000000;0.335292
9304.000000;0.336930
9303.000000;0.338600
9302.000000;0.340049
9301.000000;0.341160
9300.000000;0.341944
9299.000000;0.342505
9298.000000;0.343044
9297.000000;0.343814
9296.000000;0.344942
9295.000000;0.346308
9294.000000;0.347646
9293.000000;0.348803
9292.000000;0.349861
9291.000000;0.351015
9290.000000;0.352332
9289.000000;0.353657
9288.000000;0.354742
9287.000000;0.355483
9286.000000;0.356029
9285.000000;0.356660
9284.000000;0.357576
9283.000000;0.358788
9282.000000;0.360144
9281.000000;0.361429
9280.000000;0.362496
9279.000000;0.363397
9278.000000;0.364356
9277.000000;0.365539
9276.000000;0.366873
9275.000000;0.368143
9274.000000;0.369222
9273.000000;0.370127
9272.000000;0.370908
9271.000000;0.371616
9270.000000;0.372378
9269.000000;0.373347
9268.000000;0.374528
9267.000000;0.375745
9266.000000;0.376849
9265.000000;0.377859
9264.000000;0.378864
9263.000000;0.379887
9262.000000;0.380901
9261.000000;0.381880
9260.000000;0.382762
9259.000000;0.383437
9258.000000;0.383896
9257.000000;0.384334
9256.000000;0.385015
9255.000000;0.386029
9254.000000;0.387250
9253.000000;0.388503
9252.000000;0.389707
9251.000000;0.390847
9250.000000;0.391873
9249.000000;0.392691
9248.000000;0.393287
9247.000000;0.393834
9246.000000;0.394613
9245.000000;0.395755
9244.000000;0.397075
9243.000000;0.398240
9242.000000;0.399136
9241.000000;0.399980
9240.000000;0.401026
9239.000000;0.402228
9238.000000;0.403266
9237.000000;0.403892
9236.000000;0.404199
9235.000000;0.404525
9234.000000;0.405140
9233.000000;0.406071
9232.000000;0.407179
9231.000000;0.408320
9230.000000;0.409383
9229.000000;0.410256
9228.000000;0.410914
9227.000000;0.411538
9226.000000;0.412396
9225.000000;0.413515
9224.000000;0.414567
9223.000000;0.415234
9222.000000;0.415588
9221.000000;0.415990
9220.000000;0.416665
9219.000000;0.417537
9218.000000;0.418429
9217.000000;0.419243
9216.000000;0.419936
9215.000000;0.420531
9214.000000;0.421214
9213.000000;0.422218
9212.000000;0.423497
9211.000000;0.424634
9210.000000;0.425217
9209.000000;0.425277
9208.000000;0.425259
9207.000000;0.425601
9206.000000;0.426419
9205.000000;0.427528
9204.000000;0.428650
9203.000000;0.429597
9202.000000;0.430337
9201.000000;0.430930
9200.000000;0.431440
9199.000000;0.431919
9198.000000;0.432442
9197.000000;0.433100
9196.000000;0.433925
9195.000000;0.434867
9194.000000;0.435837
9193.000000;0.436721
9192.000000;0.437391
9191.000000;0.437791
9190.000000;0.438032
9189.000000;0.438322
9188.000000;0.438777
9187.000000;0.439373
9186.000000;0.440085
9185.000000;0.440951
9184.000000;0.441935
9183.000000;0.442859
9182.000000;0.443589
9181.000000;0.444218
9180.000000;0.444933
9179.000000;0.445740
9178.000000;0.446436
9177.000000;0.446884
9176.000000;0.447200
9175.000000;0.447612
9174.000000;0.448193
9173.000000;0.448826
9172.000000;0.449404
9171.000000;0.449986
9170.000000;0.450715
9169.000000;0.451626
9168.000000;0.452599
9167.000000;0.453457
9166.000000;0.454071
9165.000000;0.454382
9164.000000;0.454440
9163.000000;0.454462
9162.000000;0.454721
9161.000000;0.455290
9160.000000;0.455962
9159.000000;0.456518
9158.000000;0.457015
9157.000000;0.457674
9156.000000;0.458511
9155.000000;0.459249
9154.000000;0.459632
9153.000000;0.459744
9152.000000;0.459928
9151.000000;0.460455
9150.000000;0.461304
9149.000000;0.462216
9148.000000;0.462933
9147.000000;0.463405
9146.000000;0.463807
9145.000000;0.464336
9144.000000;0.465001
9143.000000;0.465611
9142.000000;0.465977
9141.000000;0.466092
9140.000000;0.466141
9139.000000;0.466354
9138.000000;0.466827
9137.000000;0.467457
9136.000000;0.468059
9135.000000;0.468576
9134.000000;0.469137
9133.000000;0.469849
9132.000000;0.470614
9131.000000;0.471229
9130.000000;0.471658
9129.000000;0.472093
9128.000000;0.472725
9127.000000;0.473504
9126.000000;0.474168
9125.000000;0.474492
9124.000000;0.474518
9123.000000;0.474525
9122.000000;0.474749
9121.000000;0.475153
9120.000000;0.475533
9119.000000;0.475838
9118.000000;0.476242
9117.000000;0.476835
9116.000000;0.477413
9115.000000;0.477719
9114.000000;0.477821
9113.000000;0.478044
9112.000000;0.478577
9111.000000;0.479299
9110.000000;0.480005
9109.000000;0.480616
9108.000000;0.481148
9107.000000;0.481614
9106.000000;0.482047
9105.000000;0.482521
9104.000000;0.483066
9103.000000;0.483586
9102.000000;0.483946
9101.000000;0.484116
9100.000000;0.484218
9099.000000;0.484433
9098.000000;0.484834
9097.000000;0.485280
9096.000000;0.485543
9095.000000;0.485561
9094.000000;0.485547
9093.000000;0.485769
9092.000000;0.486289
9091.000000;0.486970
9090.000000;0.487646
9089.000000;0.488200
9088.000000;0.488550
9087.000000;0.488730
9086.000000;0.488928
9085.000000;0.489322
9084.000000;0.489853
9083.000000;0.490320
9082.000000;0.490648
9081.000000;0.490940
9080.000000;0.491272
9079.000000;0.491615
9078.000000;0.491965
9077.000000;0.492380
9076.000000;0.492849
9075.000000;0.493270
9074.000000;0.493613
9073.000000;0.493972
9072.000000;0.494384
9071.000000;0.494741
9070.000000;0.494941
9069.000000;0.495056
9068.000000;0.495246
9067.000000;0.495591
9066.000000;0.496064
9065.000000;0.496582
9064.000000;0.497038
9063.000000;0.497360
9062.000000;0.497594
9061.000000;0.497876
9060.000000;0.498258
9059.000000;0.498631
9058.000000;0.498875
9057.000000;0.499006
9056.000000;0.499117
9055.000000;0.499239
9054.000000;0.499333
9053.000000;0.499396
