Criado como novo conjunto de dados;"0307_DANIEL.spp","3061.9 Secs"
cm-1;Abs
10000.000000;0.268659
9999.000000;0.267558
9998.000000;0.266461
9997.000000;0.265366
9996.000000;0.264274
9995.000000;0.263184
9994.000000;0.262098
9993.000000;0.261014
9992.000000;0.259933
9991.000000;0.258854
9990.000000;0.257780
9989.000000;0.256694
9988.000000;0.255597
9987.000000;0.254556
9986.000000;0.253609
9985.000000;0.252708
9984.000000;0.251749
9983.000000;0.250671
9982.000000;0.249485
9981.000000;0.248239
9980.000000;0.247006
9979.000000;0.245866
9978.000000;0.244840
9977.000000;0.243869
9976.000000;0.242902
9975.000000;0.241970
9974.000000;0.241107
9973.000000;0.240233
9972.000000;0.239197
9971.000000;0.237947
9970.000000;0.236580
9969.000000;0.235237
9968.000000;0.234004
9967.000000;0.232897
9966.000000;0.231858
9965.000000;0.230756
9964.000000;0.229495
9963.000000;0.228135
9962.000000;0.226840
9961.000000;0.225685
9960.000000;0.224562
9959.000000;0.223330
9958.000000;0.221993
9957.000000;0.220693
9956.000000;0.219551
9955.000000;0.218567
9954.000000;0.217643
9953.000000;0.216659
9952.000000;0.215526
9951.000000;0.214213
9950.000000;0.212776
9949.000000;0.211355
9948.000000;0.210100
9947.000000;0.209057
9946.000000;0.208112
9945.000000;0.207096
9944.000000;0.205950
9943.000000;0.204765
9942.000000;0.203637
9941.000000;0.202561
9940.000000;0.201473
9939.000000;0.200347
9938.000000;0.199207
9937.000000;0.198063
9936.000000;0.196890
9935.000000;0.195644
9934.000000;0.194296
9933.000000;0.192880
9932.000000;0.191511
9931.000000;0.190300
9930.000000;0.189222
9929.000000;0.188143
9928.000000;0.187014
9927.000000;0.185946
9926.000000;0.185033
9925.000000;0.184172
9924.000000;0.183156
9923.000000;0.181905
9922.000000;0.180508
9921.000000;0.179084
9920.000000;0.177685
9919.000000;0.176321
9918.000000;0.174985
9917.000000;0.173642
9916.000000;0.172292
9915.000000;0.171020
9914.000000;0.169907
9913.000000;0.168891
9912.000000;0.167814
9911.000000;0.166588
9910.000000;0.165261
9909.000000;0.163909
9908.000000;0.162558
9907.000000;0.161224
9906.000000;0.159963
9905.000000;0.158813
9904.000000;0.157741
9903.000000;0.156671
9902.000000;0.155531
9901.000000;0.154279
9900.000000;0.152918
9899.000000;0.151507
9898.000000;0.150126
9897.000000;0.148828
9896.000000;0.147633
9895.000000;0.146523
9894.000000;0.145423
9893.000000;0.144209
9892.000000;0.142828
9891.000000;0.141388
9890.000000;0.140086
9889.000000;0.139007
9888.000000;0.138054
9887.000000;0.137053
9886.000000;0.135883
9885.000000;0.134510
9884.000000;0.132988
9883.000000;0.131454
9882.000000;0.130052
9881.000000;0.128812
9880.000000;0.127613
9879.000000;0.126312
9878.000000;0.124892
9877.000000;0.123477
9876.000000;0.122201
9875.000000;0.121051
9874.000000;0.119861
9873.000000;0.118459
9872.000000;0.116856
9871.000000;0.115245
9870.000000;0.113829
9869.000000;0.112656
9868.000000;0.111640
9867.000000;0.110652
9866.000000;0.109581
9865.000000;0.108341
9864.000000;0.106925
9863.000000;0.105423
9862.000000;0.103931
9861.000000;0.102457
9860.000000;0.100965
9859.000000;0.099475
9858.000000;0.098058
9857.000000;0.096749
9856.000000;0.095518
9855.000000;0.094304
9854.000000;0.093023
9853.000000;0.091583
9852.000000;0.089981
9851.000000;0.088356
9850.000000;0.086872
9849.000000;0.085553
9848.000000;0.084306
9847.000000;0.083089
9846.000000;0.081934
9845.000000;0.080808
9844.000000;0.079556
9843.000000;0.078062
9842.000000;0.076410
9841.000000;0.074813
9840.000000;0.073416
9839.000000;0.072199
9838.000000;0.071013
9837.000000;0.069685
9836.000000;0.068130
9835.000000;0.066420
9834.000000;0.064746
9833.000000;0.063262
9832.000000;0.061955
9831.000000;0.060670
9830.000000;0.059249
9829.000000;0.057668
9828.000000;0.056056
9827.000000;0.054580
9826.000000;0.053286
9825.000000;0.052054
9824.000000;0.050731
9823.000000;0.049294
9822.000000;0.047850
9821.000000;0.046485
9820.000000;0.045149
9819.000000;0.043729
9818.000000;0.042173
9817.000000;0.040559
9816.000000;0.039023
9815.000000;0.037659
9814.000000;0.036443
9813.000000;0.035243
9812.000000;0.033909
9811.000000;0.032371
9810.000000;0.030672
9809.000000;0.028933
9808.000000;0.027281
9807.000000;0.025768
9806.000000;0.024340
9805.000000;0.022899
9804.000000;0.021403
9803.000000;0.019895
9802.000000;0.018413
9801.000000;0.016924
9800.000000;0.015376
9799.000000;0.013797
9798.000000;0.012272
9797.000000;0.010853
9796.000000;0.009515
9795.000000;0.008184
9794.000000;0.006784
9793.000000;0.005261
9792.000000;0.003623
9791.000000;0.001951
9790.000000;0.000341
9789.000000;-0.001174
9788.000000;-0.002620
9787.000000;-0.004028
9786.000000;-0.005436
9785.000000;-0.006908
9784.000000;-0.008504
9783.000000;-0.010218
9782.000000;-0.011995
9781.000000;-0.013798
9780.000000;-0.015611
9779.000000;-0.017369
9778.000000;-0.018963
9777.000000;-0.020360
9776.000000;-0.021683
9775.000000;-0.023116
9774.000000;-0.024718
9773.000000;-0.026381
9772.000000;-0.027968
9771.000000;-0.029466
9770.000000;-0.030975
9769.000000;-0.032574
9768.000000;-0.034230
9767.000000;-0.035851
9766.000000;-0.037397
9765.000000;-0.038909
9764.000000;-0.040462
9763.000000;-0.042102
9762.000000;-0.043811
9761.000000;-0.045502
9760.000000;-0.047084
9759.000000;-0.048587
9758.000000;-0.050177
9757.000000;-0.051974
9756.000000;-0.053880
9755.000000;-0.055680
9754.000000;-0.057304
9753.000000;-0.058888
9752.000000;-0.060561
9751.000000;-0.062280
9750.000000;-0.063936
9749.000000;-0.065524
9748.000000;-0.067118
9747.000000;-0.068740
9746.000000;-0.070360
9745.000000;-0.071987
9744.000000;-0.073671
9743.000000;-0.075412
9742.000000;-0.077141
9741.000000;-0.078799
9740.000000;-0.080386
9739.000000;-0.081956
9738.000000;-0.083579
9737.000000;-0.085296
9736.000000;-0.087083
9735.000000;-0.088855
9734.000000;-0.090550
9733.000000;-0.092180
9732.000000;-0.093792
9731.000000;-0.095426
9730.000000;-0.097129
9729.000000;-0.098961
9728.000000;-0.100919
9727.000000;-0.102891
9726.000000;-0.104755
9725.000000;-0.106507
9724.000000;-0.108238
9723.000000;-0.110002
9722.000000;-0.111772
9721.000000;-0.113506
9720.000000;-0.115200
9719.000000;-0.116868
9718.000000;-0.118518
9717.000000;-0.120166
9716.000000;-0.121852
9715.000000;-0.123609
9714.000000;-0.125447
9713.000000;-0.127343
9712.000000;-0.129242
9711.000000;-0.131084
9710.000000;-0.132862
9709.000000;-0.134639
9708.000000;-0.136493
9707.000000;-0.138436
9706.000000;-0.140413
9705.000000;-0.142368
9704.000000;-0.144283
9703.000000;-0.146164
9702.000000;-0.148018
9701.000000;-0.149839
9700.000000;-0.151621
9699.000000;-0.153384
9698.000000;-0.155171
9697.000000;-0.157009
9696.000000;-0.158869
9695.000000;-0.160705
9694.000000;-0.162522
9693.000000;-0.164364
9692.000000;-0.166245
9691.000000;-0.168139
9690.000000;-0.170028
9689.000000;-0.171910
9688.000000;-0.173758
9687.000000;-0.175544
9686.000000;-0.177316
9685.000000;-0.179173
9684.000000;-0.181142
9683.000000;-0.183139
9682.000000;-0.185113
9681.000000;-0.187124
9680.000000;-0.189228
9679.000000;-0.191342
9678.000000;-0.193309
9677.000000;-0.195080
9676.000000;-0.196770
9675.000000;-0.198550
9674.000000;-0.200508
9673.000000;-0.202595
9672.000000;-0.204666
9671.000000;-0.206612
9670.000000;-0.208470
9669.000000;-0.210377
9668.000000;-0.212394
9667.000000;-0.214455
9666.000000;-0.216491
9665.000000;-0.218525
9664.000000;-0.220586
9663.000000;-0.222607
9662.000000;-0.224509
9661.000000;-0.226349
9660.000000;-0.228275
9659.000000;-0.230356
9658.000000;-0.232513
9657.000000;-0.234637
9656.000000;-0.236707
9655.000000;-0.238787
9654.000000;-0.240937
9653.000000;-0.243123
9652.000000;-0.245236
9651.000000;-0.247214
9650.000000;-0.249131
9649.000000;-0.251108
9648.000000;-0.253134
9647.000000;-0.255092
9646.000000;-0.256979
9645.000000;-0.258956
9644.000000;-0.261108
9643.000000;-0.263274
9642.000000;-0.265267
9641.000000;-0.267158
9640.000000;-0.269183
9639.000000;-0.271413
9638.000000;-0.273673
9637.000000;-0.275790
9636.000000;-0.277775
9635.000000;-0.279739
9634.000000;-0.281755
9633.000000;-0.283849
9632.000000;-0.286012
9631.000000;-0.288180
9630.000000;-0.290270
9629.000000;-0.292299
9628.000000;-0.294396
9627.000000;-0.296651
9626.000000;-0.299006
9625.000000;-0.301327
9624.000000;-0.303544
9623.000000;-0.305679
9622.000000;-0.307760
9621.000000;-0.309791
9620.000000;-0.311778
9619.000000;-0.313775
9618.000000;-0.315865
9617.000000;-0.318102
9616.000000;-0.320451
9615.000000;-0.322805
9614.000000;-0.325072
9613.000000;-0.327239
9612.000000;-0.329355
9611.000000;-0.331473
9610.000000;-0.333629
9609.000000;-0.335829
9608.000000;-0.338025
9607.000000;-0.340149
9606.000000;-0.342202
9605.000000;-0.344278
9604.000000;-0.346462
9603.000000;-0.348748
9602.000000;-0.351086
9601.000000;-0.353469
9600.000000;-0.355882
9599.000000;-0.358232
9598.000000;-0.360415
9597.000000;-0.362466
9596.000000;-0.364547
9595.000000;-0.366765
9594.000000;-0.369072
9593.000000;-0.371362
9592.000000;-0.373592
9591.000000;-0.375782
9590.000000;-0.377950
9589.000000;-0.380093
9588.000000;-0.382216
9587.000000;-0.384331
9586.000000;-0.386463
9585.000000;-0.388659
9584.000000;-0.390951
9583.000000;-0.393309
9582.000000;-0.395643
9581.000000;-0.397899
9580.000000;-0.400103
9579.000000;-0.402322
9578.000000;-0.404603
9577.000000;-0.406957
9576.000000;-0.409365
9575.000000;-0.411779
9574.000000;-0.414127
9573.000000;-0.416366
9572.000000;-0.418527
9571.000000;-0.420690
9570.000000;-0.422919
9569.000000;-0.425219
9568.000000;-0.427551
9567.000000;-0.429870
9566.000000;-0.432145
9565.000000;-0.434346
9564.000000;-0.436454
9563.000000;-0.438504
9562.000000;-0.440593
9561.000000;-0.442812
9560.000000;-0.445152
9559.000000;-0.447502
9558.000000;-0.449746
9557.000000;-0.451851
9556.000000;-0.453868
9555.000000;-0.455900
9554.000000;-0.458046
9553.000000;-0.460348
9552.000000;-0.462753
9551.000000;-0.465156
9550.000000;-0.467491
9549.000000;-0.469750
9548.000000;-0.471939
9547.000000;-0.474058
9546.000000;-0.476132
9545.000000;-0.478191
9544.000000;-0.480214
9543.000000;-0.482164
9542.000000;-0.484087
9541.000000;-0.486113
9540.000000;-0.488312
9539.000000;-0.490604
9538.000000;-0.492851
9537.000000;-0.494991
9536.000000;-0.497038
9535.000000;-0.499024
9534.000000;-0.501000
9533.000000;-0.503045
9532.000000;-0.505192
9531.000000;-0.507371
9530.000000;-0.509463
9529.000000;-0.511403
9528.000000;-0.513195
9527.000000;-0.514893
9526.000000;-0.516610
9525.000000;-0.518493
9524.000000;-0.520600
9523.000000;-0.522811
9522.000000;-0.524930
9521.000000;-0.526865
9520.000000;-0.528682
9519.000000;-0.530515
9518.000000;-0.532451
9517.000000;-0.534469
9516.000000;-0.536428
9515.000000;-0.538161
9514.000000;-0.539649
9513.000000;-0.541085
9512.000000;-0.542693
9511.000000;-0.544514
9510.000000;-0.546428
9509.000000;-0.548338
9508.000000;-0.550216
9507.000000;-0.552014
9506.000000;-0.553643
9505.000000;-0.555121
9504.000000;-0.556622
9503.000000;-0.558309
9502.000000;-0.560132
9501.000000;-0.561882
9500.000000;-0.563424
9499.000000;-0.564844
9498.000000;-0.566336
9497.000000;-0.567972
9496.000000;-0.569620
9495.000000;-0.571101
9494.000000;-0.572406
9493.000000;-0.573697
9492.000000;-0.575111
9491.000000;-0.576602
9490.000000;-0.578023
9489.000000;-0.579286
9488.000000;-0.580399
9487.000000;-0.581413
9486.000000;-0.582397
9485.000000;-0.583450
9484.000000;-0.584663
9483.000000;-0.586030
9482.000000;-0.587434
9481.000000;-0.588717
9480.000000;-0.589762
9479.000000;-0.590554
9478.000000;-0.591215
9477.000000;-0.591945
9476.000000;-0.592875
9475.000000;-0.593973
9474.000000;-0.595109
9473.000000;-0.596182
9472.000000;-0.597155
9471.000000;-0.598025
9470.000000;-0.598841
9469.000000;-0.599714
9468.000000;-0.600731
9467.000000;-0.601827
9466.000000;-0.602802
9465.000000;-0.603473
9464.000000;-0.603816
9463.000000;-0.603997
9462.000000;-0.604258
9461.000000;-0.604736
9460.000000;-0.605354
9459.000000;-0.605914
9458.000000;-0.606337
9457.000000;-0.606741
9456.000000;-0.607250
9455.000000;-0.607804
9454.000000;-0.608244
9453.000000;-0.608503
9452.000000;-0.608635
9451.000000;-0.608705
9450.000000;-0.608774
9449.000000;-0.608936
9448.000000;-0.609241
9447.000000;-0.609565
9446.000000;-0.609700
9445.000000;-0.609573
9444.000000;-0.609311
9443.000000;-0.609078
9442.000000;-0.608949
9441.000000;-0.608931
9440.000000;-0.608995
9439.000000;-0.609052
9438.000000;-0.609009
9437.000000;-0.608881
9436.000000;-0.608768
9435.000000;-0.608679
9434.000000;-0.608493
9433.000000;-0.608124
9432.000000;-0.607655
9431.000000;-0.607238
9430.000000;-0.606933
9429.000000;-0.606691
9428.000000;-0.606429
9427.000000;-0.606077
9426.000000;-0.605599
9425.000000;-0.605029
9424.000000;-0.604462
9423.000000;-0.603964
9422.000000;-0.603513
9421.000000;-0.603044
9420.000000;-0.602518
9419.000000;-0.601923
9418.000000;-0.601263
9417.000000;-0.600573
9416.000000;-0.599910
9415.000000;-0.599307
9414.000000;-0.598753
9413.000000;-0.598232
9412.000000;-0.597725
9411.000000;-0.597174
9410.000000;-0.596496
9409.000000;-0.595684
9408.000000;-0.594823
9407.000000;-0.594004
9406.000000;-0.593221
9405.000000;-0.592403
9404.000000;-0.591506
9403.000000;-0.590544
9402.000000;-0.589557
9401.000000;-0.588567
9400.000000;-0.587569
9399.000000;-0.586556
9398.000000;-0.585565
9397.000000;-0.584653
9396.000000;-0.583816
9395.000000;-0.582974
9394.000000;-0.582060
9393.000000;-0.581111
9392.000000;-0.580177
9391.000000;-0.579210
9390.000000;-0.578132
9389.000000;-0.576980
9388.000000;-0.575873
9387.000000;-0.574821
9386.000000;-0.573700
9385.000000;-0.572433
9384.000000;-0.571117
9383.000000;-0.569895
9382.000000;-0.568796
9381.000000;-0.567757
9380.000000;-0.566727
9379.000000;-0.565683
9378.000000;-0.564592
9377.000000;-0.563426
9376.000000;-0.562206
9375.000000;-0.560972
9374.000000;-0.559742
9373.000000;-0.558519
9372.000000;-0.557300
9371.000000;-0.556066
9370.000000;-0.554799
9369.000000;-0.553544
9368.000000;-0.552399
9367.000000;-0.551396
9366.000000;-0.550429
9365.000000;-0.549354
9364.000000;-0.548121
9363.000000;-0.546778
9362.000000;-0.545380
9361.000000;-0.543971
9360.000000;-0.542600
9359.000000;-0.541317
9358.000000;-0.540127
9357.000000;-0.538980
9356.000000;-0.537814
9355.000000;-0.536575
9354.000000;-0.535222
9353.000000;-0.533761
9352.000000;-0.532277
9351.000000;-0.530904
9350.000000;-0.529731
9349.000000;-0.528738
9348.000000;-0.527808
9347.000000;-0.526803
9346.000000;-0.525643
9345.000000;-0.524339
9344.000000;-0.522946
9343.000000;-0.521503
9342.000000;-0.520024
9341.000000;-0.518546
9340.000000;-0.517147
9339.000000;-0.515892
9338.000000;-0.514778
9337.000000;-0.513732
9336.000000;-0.512671
9335.000000;-0.511538
9334.000000;-0.510301
9333.000000;-0.508954
9332.000000;-0.507542
9331.000000;-0.506171
9330.000000;-0.504954
9329.000000;-0.503899
9328.000000;-0.502871
9327.000000;-0.501699
9326.000000;-0.500337
9325.000000;-0.498874
9324.000000;-0.497417
9323.000000;-0.496002
9322.000000;-0.494659
9321.000000;-0.493460
9320.000000;-0.492442
9319.000000;-0.491512
9318.000000;-0.490504
9317.000000;-0.489327
9316.000000;-0.488015
9315.000000;-0.486664
9314.000000;-0.485365
9313.000000;-0.484171
9312.000000;-0.483072
9311.000000;-0.481985
9310.000000;-0.480824
9309.000000;-0.479569
9308.000000;-0.478264
9307.000000;-0.476958
9306.000000;-0.475673
9305.000000;-0.474413
9304.000000;-0.473152
9303.000000;-0.471846
9302.000000;-0.470496
9301.000000;-0.469189
9300.000000;-0.468000
9299.000000;-0.466893
9298.000000;-0.465760
9297.000000;-0.464547
9296.000000;-0.463306
9295.000000;-0.462113
9294.000000;-0.461007
9293.000000;-0.459976
9292.000000;-0.458957
9291.000000;-0.457846
9290.000000;-0.456582
9289.000000;-0.455240
9288.000000;-0.453990
9287.000000;-0.452941
9286.000000;-0.452044
9285.000000;-0.451151
9284.000000;-0.450133
9283.000000;-0.448950
9282.000000;-0.447682
9281.000000;-0.446477
9280.000000;-0.445431
9279.000000;-0.444488
9278.000000;-0.443493
9277.000000;-0.442349
9276.000000;-0.441093
9275.000000;-0.439824
9274.000000;-0.438614
9273.000000;-0.437488
9272.000000;-0.436438
9271.000000;-0.435436
9270.000000;-0.434442
9269.000000;-0.433429
9268.000000;-0.432389
9267.000000;-0.431309
9266.000000;-0.430182
9265.000000;-0.429036
9264.000000;-0.427934
9263.000000;-0.426921
9262.000000;-0.425985
9261.000000;-0.425069
9260.000000;-0.424114
9259.000000;-0.423093
9258.000000;-0.422025
9257.000000;-0.420943
9256.000000;-0.419852
9255.000000;-0.418753
9254.000000;-0.417690
9253.000000;-0.416728
9252.000000;-0.415846
9251.000000;-0.414928
9250.000000;-0.413903
9249.000000;-0.412863
9248.000000;-0.411960
9247.000000;-0.411217
9246.000000;-0.410500
9245.000000;-0.409663
9244.000000;-0.408680
9243.000000;-0.407616
9242.000000;-0.406557
9241.000000;-0.405551
9240.000000;-0.404584
9239.000000;-0.403600
9238.000000;-0.402566
9237.000000;-0.401510
9236.000000;-0.400475
9235.000000;-0.399480
9234.000000;-0.398547
9233.000000;-0.397708
9232.000000;-0.396932
9231.000000;-0.396078
9230.000000;-0.395026
9229.000000;-0.393829
9228.000000;-0.392679
9227.000000;-0.391718
9226.000000;-0.390937
9225.000000;-0.390240
9224.000000;-0.389517
9223.000000;-0.388677
9222.000000;-0.387688
9221.000000;-0.386632
9220.000000;-0.385651
9219.000000;-0.384818
9218.000000;-0.384090
9217.000000;-0.383383
9216.000000;-0.382649
9215.000000;-0.381879
9214.000000;-0.381077
9213.000000;-0.380269
9212.000000;-0.379481
9211.000000;-0.378716
9210.000000;-0.377958
9209.000000;-0.377200
9208.000000;-0.376428
9207.000000;-0.375595
9206.000000;-0.374667
9205.000000;-0.373691
9204.000000;-0.372756
9203.000000;-0.371887
9202.000000;-0.371040
9201.000000;-0.370189
9200.000000;-0.369370
9199.000000;-0.368623
9198.000000;-0.367945
9197.000000;-0.367311
9196.000000;-0.366685
9195.000000;-0.365998
9194.000000;-0.365176
9193.000000;-0.364230
9192.000000;-0.363261
9191.000000;-0.362379
9190.000000;-0.361619
9189.000000;-0.360966
9188.000000;-0.360382
9187.000000;-0.359806
9186.000000;-0.359154
9185.000000;-0.358380
9184.000000;-0.357522
9183.000000;-0.356667
9182.000000;-0.355878
9181.000000;-0.355134
9180.000000;-0.354358
9179.000000;-0.353510
9178.000000;-0.352656
9177.000000;-0.351927
9176.000000;-0.351378
9175.000000;-0.350913
9174.000000;-0.350392
9173.000000;-0.349766
9172.000000;-0.349078
9171.000000;-0.348358
9170.000000;-0.347609
9169.000000;-0.346853
9168.000000;-0.346134
9167.000000;-0.345443
9166.000000;-0.344716
9165.000000;-0.343925
9164.000000;-0.343127
9163.000000;-0.342399
9162.000000;-0.341766
9161.000000;-0.341208
9160.000000;-0.340698
9159.000000;-0.340208
9158.000000;-0.339705
9157.000000;-0.339164
9156.000000;-0.338567
9155.000000;-0.337892
9154.000000;-0.337131
9153.000000;-0.336319
9152.000000;-0.335523
9151.000000;-0.334797
9150.000000;-0.334165
9149.000000;-0.333628
9148.000000;-0.333153
9147.000000;-0.332676
9146.000000;-0.332148
9145.000000;-0.331575
9144.000000;-0.330982
9143.000000;-0.330346
9142.000000;-0.329635
9141.000000;-0.328884
9140.000000;-0.328199
9139.000000;-0.327648
9138.000000;-0.327203
9137.000000;-0.326783
9136.000000;-0.326322
9135.000000;-0.325793
9134.000000;-0.325205
9133.000000;-0.324592
9132.000000;-0.323989
9131.000000;-0.323400
9130.000000;-0.322819
9129.000000;-0.322252
9128.000000;-0.321722
9127.000000;-0.321234
9126.000000;-0.320770
9125.000000;-0.320308
9124.000000;-0.319815
9123.000000;-0.319256
9122.000000;-0.318627
9121.000000;-0.317976
9120.000000;-0.317363
9119.000000;-0.316819
9118.000000;-0.316344
9117.000000;-0.315929
9116.000000;-0.315530
9115.000000;-0.315076
9114.000000;-0.314544
9113.000000;-0.313983
9112.000000;-0.313439
9111.000000;-0.312880
9110.000000;-0.312265
9109.000000;-0.311657
9108.000000;-0.311164
9107.000000;-0.310801
9106.000000;-0.310474
9105.000000;-0.310110
9104.000000;-0.309714
9103.000000;-0.309295
9102.000000;-0.308825
9101.000000;-0.308285
9100.000000;-0.307713
9099.000000;-0.307155
9098.000000;-0.306622
9097.000000;-0.306109
9096.000000;-0.305617
9095.000000;-0.305135
9094.000000;-0.304641
9093.000000;-0.304142
9092.000000;-0.303676
9091.000000;-0.303255
9090.000000;-0.302840
9089.000000;-0.302393
9088.000000;-0.301927
9087.000000;-0.301487
9086.000000;-0.301097
