Criado como novo conjunto de dados;"0307_DANIEL.spp","53284.6 Secs"
cm-1;Abs
10000.000000;0.436604
9999.000000;0.435258
9998.000000;0.433943
9997.000000;0.432847
9996.000000;0.431949
9995.000000;0.431072
9994.000000;0.430043
9993.000000;0.428802
9992.000000;0.427429
9991.000000;0.426066
9990.000000;0.424792
9989.000000;0.423607
9988.000000;0.422528
9987.000000;0.421621
9986.000000;0.420892
9985.000000;0.420188
9984.000000;0.419313
9983.000000;0.418217
9982.000000;0.417006
9981.000000;0.415806
9980.000000;0.414670
9979.000000;0.413603
9978.000000;0.412578
9977.000000;0.411523
9976.000000;0.410363
9975.000000;0.409116
9974.000000;0.407887
9973.000000;0.406750
9972.000000;0.405697
9971.000000;0.404681
9970.000000;0.403641
9969.000000;0.402479
9968.000000;0.401132
9967.000000;0.399706
9966.000000;0.398448
9965.000000;0.397485
9964.000000;0.396651
9963.000000;0.395673
9962.000000;0.394470
9961.000000;0.393185
9960.000000;0.391949
9959.000000;0.390730
9958.000000;0.389443
9957.000000;0.388115
9956.000000;0.386851
9955.000000;0.385708
9954.000000;0.384653
9953.000000;0.383626
9952.000000;0.382589
9951.000000;0.381500
9950.000000;0.380307
9949.000000;0.378989
9948.000000;0.377610
9947.000000;0.376293
9946.000000;0.375127
9945.000000;0.374085
9944.000000;0.373060
9943.000000;0.371970
9942.000000;0.370819
9941.000000;0.369653
9940.000000;0.368484
9939.000000;0.367287
9938.000000;0.366058
9937.000000;0.364826
9936.000000;0.363606
9935.000000;0.362381
9934.000000;0.361124
9933.000000;0.359809
9932.000000;0.358412
9931.000000;0.356953
9930.000000;0.355552
9929.000000;0.354357
9928.000000;0.353381
9927.000000;0.352439
9926.000000;0.351322
9925.000000;0.350011
9924.000000;0.348678
9923.000000;0.347470
9922.000000;0.346382
9921.000000;0.345319
9920.000000;0.344214
9919.000000;0.343044
9918.000000;0.341811
9917.000000;0.340547
9916.000000;0.339324
9915.000000;0.338205
9914.000000;0.337190
9913.000000;0.336216
9912.000000;0.335192
9911.000000;0.334030
9910.000000;0.332689
9909.000000;0.331236
9908.000000;0.329809
9907.000000;0.328490
9906.000000;0.327228
9905.000000;0.325941
9904.000000;0.324648
9903.000000;0.323440
9902.000000;0.322347
9901.000000;0.321286
9900.000000;0.320163
9899.000000;0.318934
9898.000000;0.317579
9897.000000;0.316073
9896.000000;0.314434
9895.000000;0.312739
9894.000000;0.311082
9893.000000;0.309545
9892.000000;0.308214
9891.000000;0.307137
9890.000000;0.306236
9889.000000;0.305303
9888.000000;0.304168
9887.000000;0.302852
9886.000000;0.301514
9885.000000;0.300266
9884.000000;0.299084
9883.000000;0.297869
9882.000000;0.296542
9881.000000;0.295119
9880.000000;0.293714
9879.000000;0.292434
9878.000000;0.291213
9877.000000;0.289816
9876.000000;0.288087
9875.000000;0.286204
9874.000000;0.284563
9873.000000;0.283393
9872.000000;0.282560
9871.000000;0.281751
9870.000000;0.280757
9869.000000;0.279537
9868.000000;0.278127
9867.000000;0.276595
9866.000000;0.275029
9865.000000;0.273477
9864.000000;0.271904
9863.000000;0.270293
9862.000000;0.268755
9861.000000;0.267445
9860.000000;0.266378
9859.000000;0.265388
9858.000000;0.264291
9857.000000;0.263032
9856.000000;0.261655
9855.000000;0.260219
9854.000000;0.258782
9853.000000;0.257417
9852.000000;0.256150
9851.000000;0.254910
9850.000000;0.253577
9849.000000;0.252104
9848.000000;0.250563
9847.000000;0.249062
9846.000000;0.247641
9845.000000;0.246260
9844.000000;0.244856
9843.000000;0.243415
9842.000000;0.241987
9841.000000;0.240645
9840.000000;0.239394
9839.000000;0.238119
9838.000000;0.236654
9837.000000;0.234943
9836.000000;0.233142
9835.000000;0.231525
9834.000000;0.230229
9833.000000;0.229122
9832.000000;0.227951
9831.000000;0.226581
9830.000000;0.225055
9829.000000;0.223439
9828.000000;0.221747
9827.000000;0.220013
9826.000000;0.218354
9825.000000;0.216852
9824.000000;0.215458
9823.000000;0.214083
9822.000000;0.212735
9821.000000;0.211444
9820.000000;0.210114
9819.000000;0.208583
9818.000000;0.206856
9817.000000;0.205150
9816.000000;0.203672
9815.000000;0.202418
9814.000000;0.201244
9813.000000;0.200036
9812.000000;0.198746
9811.000000;0.197343
9810.000000;0.195831
9809.000000;0.194269
9808.000000;0.192730
9807.000000;0.191231
9806.000000;0.189750
9805.000000;0.188256
9804.000000;0.186697
9803.000000;0.185019
9802.000000;0.183258
9801.000000;0.181551
9800.000000;0.180000
9799.000000;0.178545
9798.000000;0.177065
9797.000000;0.175551
9796.000000;0.174087
9795.000000;0.172670
9794.000000;0.171170
9793.000000;0.169503
9792.000000;0.167756
9791.000000;0.166099
9790.000000;0.164592
9789.000000;0.163147
9788.000000;0.161643
9787.000000;0.160052
9786.000000;0.158463
9785.000000;0.156988
9784.000000;0.155654
9783.000000;0.154372
9782.000000;0.153036
9781.000000;0.151618
9780.000000;0.150158
9779.000000;0.148668
9778.000000;0.147104
9777.000000;0.145427
9776.000000;0.143648
9775.000000;0.141827
9774.000000;0.140058
9773.000000;0.138426
9772.000000;0.136938
9771.000000;0.135493
9770.000000;0.133951
9769.000000;0.132266
9768.000000;0.130495
9767.000000;0.128724
9766.000000;0.127000
9765.000000;0.125342
9764.000000;0.123728
9763.000000;0.122093
9762.000000;0.120385
9761.000000;0.118639
9760.000000;0.116933
9759.000000;0.115277
9758.000000;0.113617
9757.000000;0.111954
9756.000000;0.110378
9755.000000;0.108934
9754.000000;0.107523
9753.000000;0.105986
9752.000000;0.104244
9751.000000;0.102329
9750.000000;0.100321
9749.000000;0.098324
9748.000000;0.096438
9747.000000;0.094692
9746.000000;0.093032
9745.000000;0.091411
9744.000000;0.089858
9743.000000;0.088400
9742.000000;0.086966
9741.000000;0.085440
9740.000000;0.083803
9739.000000;0.082140
9738.000000;0.080509
9737.000000;0.078881
9736.000000;0.077209
9735.000000;0.075512
9734.000000;0.073850
9733.000000;0.072233
9732.000000;0.070586
9731.000000;0.068789
9730.000000;0.066780
9729.000000;0.064629
9728.000000;0.062519
9727.000000;0.060598
9726.000000;0.058869
9725.000000;0.057231
9724.000000;0.055616
9723.000000;0.054023
9722.000000;0.052423
9721.000000;0.050723
9720.000000;0.048862
9719.000000;0.046917
9718.000000;0.045045
9717.000000;0.043337
9716.000000;0.041745
9715.000000;0.040141
9714.000000;0.038426
9713.000000;0.036584
9712.000000;0.034669
9711.000000;0.032748
9710.000000;0.030862
9709.000000;0.029017
9708.000000;0.027209
9707.000000;0.025416
9706.000000;0.023576
9705.000000;0.021614
9704.000000;0.019532
9703.000000;0.017450
9702.000000;0.015505
9701.000000;0.013707
9700.000000;0.011936
9699.000000;0.010092
9698.000000;0.008192
9697.000000;0.006310
9696.000000;0.004470
9695.000000;0.002645
9694.000000;0.000826
9693.000000;-0.000972
9692.000000;-0.002762
9691.000000;-0.004582
9690.000000;-0.006443
9689.000000;-0.008335
9688.000000;-0.010290
9687.000000;-0.012351
9686.000000;-0.014458
9685.000000;-0.016449
9684.000000;-0.018237
9683.000000;-0.019924
9682.000000;-0.021688
9681.000000;-0.023591
9680.000000;-0.025576
9679.000000;-0.027599
9678.000000;-0.029650
9677.000000;-0.031666
9676.000000;-0.033565
9675.000000;-0.035378
9674.000000;-0.037251
9673.000000;-0.039252
9672.000000;-0.041278
9671.000000;-0.043202
9670.000000;-0.045071
9669.000000;-0.047049
9668.000000;-0.049203
9667.000000;-0.051422
9666.000000;-0.053535
9665.000000;-0.055467
9664.000000;-0.057267
9663.000000;-0.059036
9662.000000;-0.060831
9661.000000;-0.062658
9660.000000;-0.064543
9659.000000;-0.066580
9658.000000;-0.068831
9657.000000;-0.071189
9656.000000;-0.073443
9655.000000;-0.075521
9654.000000;-0.077581
9653.000000;-0.079779
9652.000000;-0.082026
9651.000000;-0.084092
9650.000000;-0.085904
9649.000000;-0.087636
9648.000000;-0.089497
9647.000000;-0.091557
9646.000000;-0.093762
9645.000000;-0.096015
9644.000000;-0.098174
9643.000000;-0.100127
9642.000000;-0.101945
9641.000000;-0.103892
9640.000000;-0.106160
9639.000000;-0.108638
9638.000000;-0.111045
9637.000000;-0.113236
9636.000000;-0.115285
9635.000000;-0.117313
9634.000000;-0.119370
9633.000000;-0.121501
9632.000000;-0.123762
9631.000000;-0.126098
9630.000000;-0.128319
9629.000000;-0.130320
9628.000000;-0.132270
9627.000000;-0.134456
9626.000000;-0.136936
9625.000000;-0.139455
9624.000000;-0.141718
9623.000000;-0.143659
9622.000000;-0.145440
9621.000000;-0.147246
9620.000000;-0.149164
9619.000000;-0.151202
9618.000000;-0.153356
9617.000000;-0.155627
9616.000000;-0.157998
9615.000000;-0.160386
9614.000000;-0.162663
9613.000000;-0.164769
9612.000000;-0.166830
9611.000000;-0.169066
9610.000000;-0.171550
9609.000000;-0.174080
9608.000000;-0.176373
9607.000000;-0.178370
9606.000000;-0.180279
9605.000000;-0.182332
9604.000000;-0.184566
9603.000000;-0.186868
9602.000000;-0.189139
9601.000000;-0.191362
9600.000000;-0.193544
9599.000000;-0.195696
9598.000000;-0.197856
9597.000000;-0.200082
9596.000000;-0.202392
9595.000000;-0.204734
9594.000000;-0.207041
9593.000000;-0.209306
9592.000000;-0.211572
9591.000000;-0.213866
9590.000000;-0.216178
9589.000000;-0.218501
9588.000000;-0.220849
9587.000000;-0.223199
9586.000000;-0.225452
9585.000000;-0.227523
9584.000000;-0.229467
9583.000000;-0.231465
9582.000000;-0.233675
9581.000000;-0.236104
9580.000000;-0.238612
9579.000000;-0.241019
9578.000000;-0.243221
9577.000000;-0.245271
9576.000000;-0.247363
9575.000000;-0.249663
9574.000000;-0.252132
9573.000000;-0.254569
9572.000000;-0.256841
9571.000000;-0.259021
9570.000000;-0.261247
9569.000000;-0.263531
9568.000000;-0.265796
9567.000000;-0.268019
9566.000000;-0.270235
9565.000000;-0.272422
9564.000000;-0.274514
9563.000000;-0.276555
9562.000000;-0.278712
9561.000000;-0.281068
9560.000000;-0.283473
9559.000000;-0.285690
9558.000000;-0.287660
9557.000000;-0.289566
9556.000000;-0.291653
9555.000000;-0.294017
9554.000000;-0.296571
9553.000000;-0.299165
9552.000000;-0.301700
9551.000000;-0.304140
9550.000000;-0.306461
9549.000000;-0.308626
9548.000000;-0.310637
9547.000000;-0.312545
9546.000000;-0.314396
9545.000000;-0.316207
9544.000000;-0.318017
9543.000000;-0.319924
9542.000000;-0.322003
9541.000000;-0.324224
9540.000000;-0.326509
9539.000000;-0.328851
9538.000000;-0.331290
9537.000000;-0.333775
9536.000000;-0.336149
9535.000000;-0.338297
9534.000000;-0.340258
9533.000000;-0.342159
9532.000000;-0.344096
9531.000000;-0.346094
9530.000000;-0.348126
9529.000000;-0.350119
9528.000000;-0.352001
9527.000000;-0.353780
9526.000000;-0.355562
9525.000000;-0.357476
9524.000000;-0.359598
9523.000000;-0.361927
9522.000000;-0.364367
9521.000000;-0.366719
9520.000000;-0.368787
9519.000000;-0.370547
9518.000000;-0.372172
9517.000000;-0.373843
9516.000000;-0.375586
9515.000000;-0.377335
9514.000000;-0.379072
9513.000000;-0.380832
9512.000000;-0.382611
9511.000000;-0.384377
9510.000000;-0.386152
9509.000000;-0.387998
9508.000000;-0.389882
9507.000000;-0.391641
9506.000000;-0.393154
9505.000000;-0.394518
9504.000000;-0.395999
9503.000000;-0.397783
9502.000000;-0.399774
9501.000000;-0.401690
9500.000000;-0.403335
9499.000000;-0.404770
9498.000000;-0.406203
9497.000000;-0.407734
9496.000000;-0.409271
9495.000000;-0.410697
9494.000000;-0.412037
9493.000000;-0.413413
9492.000000;-0.414872
9491.000000;-0.416326
9490.000000;-0.417656
9489.000000;-0.418831
9488.000000;-0.419908
9487.000000;-0.420959
9486.000000;-0.422029
9485.000000;-0.423147
9484.000000;-0.424354
9483.000000;-0.425682
9482.000000;-0.427095
9481.000000;-0.428460
9480.000000;-0.429606
9479.000000;-0.430444
9478.000000;-0.431059
9477.000000;-0.431672
9476.000000;-0.432498
9475.000000;-0.433586
9474.000000;-0.434789
9473.000000;-0.435895
9472.000000;-0.436827
9471.000000;-0.437690
9470.000000;-0.438617
9469.000000;-0.439604
9468.000000;-0.440550
9467.000000;-0.441403
9466.000000;-0.442201
9465.000000;-0.442940
9464.000000;-0.443535
9463.000000;-0.443949
9462.000000;-0.444285
9461.000000;-0.444682
9460.000000;-0.445147
9459.000000;-0.445584
9458.000000;-0.445968
9457.000000;-0.446395
9456.000000;-0.446959
9455.000000;-0.447618
9454.000000;-0.448225
9453.000000;-0.448651
9452.000000;-0.448862
9451.000000;-0.448935
9450.000000;-0.449011
9449.000000;-0.449198
9448.000000;-0.449469
9447.000000;-0.449690
9446.000000;-0.449768
9445.000000;-0.449745
9444.000000;-0.449715
9443.000000;-0.449713
9442.000000;-0.449708
9441.000000;-0.449678
9440.000000;-0.449620
9439.000000;-0.449504
9438.000000;-0.449313
9437.000000;-0.449122
9436.000000;-0.449044
9435.000000;-0.449068
9434.000000;-0.449027
9433.000000;-0.448790
9432.000000;-0.448424
9431.000000;-0.448100
9430.000000;-0.447878
9429.000000;-0.447668
9428.000000;-0.447382
9427.000000;-0.447011
9426.000000;-0.446561
9425.000000;-0.446002
9424.000000;-0.445334
9423.000000;-0.444633
9422.000000;-0.443973
9421.000000;-0.443359
9420.000000;-0.442766
9419.000000;-0.442207
9418.000000;-0.441705
9417.000000;-0.441219
9416.000000;-0.440684
9415.000000;-0.440101
9414.000000;-0.439531
9413.000000;-0.439013
9412.000000;-0.438514
9411.000000;-0.437971
9410.000000;-0.437326
9409.000000;-0.436532
9408.000000;-0.435591
9407.000000;-0.434601
9406.000000;-0.433695
9405.000000;-0.432911
9404.000000;-0.432145
9403.000000;-0.431284
9402.000000;-0.430328
9401.000000;-0.429364
9400.000000;-0.428450
9399.000000;-0.427581
9398.000000;-0.426750
9397.000000;-0.425964
9396.000000;-0.425184
9395.000000;-0.424316
9394.000000;-0.423283
9393.000000;-0.422115
9392.000000;-0.420937
9391.000000;-0.419878
9390.000000;-0.418992
9389.000000;-0.418242
9388.000000;-0.417517
9387.000000;-0.416681
9386.000000;-0.415643
9385.000000;-0.414416
9384.000000;-0.413098
9383.000000;-0.411785
9382.000000;-0.410503
9381.000000;-0.409221
9380.000000;-0.407926
9379.000000;-0.406659
9378.000000;-0.405485
9377.000000;-0.404421
9376.000000;-0.403411
9375.000000;-0.402350
9374.000000;-0.401162
9373.000000;-0.399861
9372.000000;-0.398545
9371.000000;-0.397322
9370.000000;-0.396223
9369.000000;-0.395175
9368.000000;-0.394069
9367.000000;-0.392854
9366.000000;-0.391576
9365.000000;-0.390321
9364.000000;-0.389123
9363.000000;-0.387926
9362.000000;-0.386662
9361.000000;-0.385339
9360.000000;-0.384039
9359.000000;-0.382816
9358.000000;-0.381631
9357.000000;-0.380410
9356.000000;-0.379147
9355.000000;-0.377885
9354.000000;-0.376627
9353.000000;-0.375319
9352.000000;-0.373946
9351.000000;-0.372586
9350.000000;-0.371341
9349.000000;-0.370231
9348.000000;-0.369195
9347.000000;-0.368157
9346.000000;-0.367039
9345.000000;-0.365764
9344.000000;-0.364318
9343.000000;-0.362818
9342.000000;-0.361440
9341.000000;-0.360244
9340.000000;-0.359126
9339.000000;-0.357953
9338.000000;-0.356697
9337.000000;-0.355421
9336.000000;-0.354173
9335.000000;-0.352953
9334.000000;-0.351744
9333.000000;-0.350538
9332.000000;-0.349345
9331.000000;-0.348206
9330.000000;-0.347157
9329.000000;-0.346147
9328.000000;-0.345019
9327.000000;-0.343666
9326.000000;-0.342183
9325.000000;-0.340789
9324.000000;-0.339595
9323.000000;-0.338497
9322.000000;-0.337346
9321.000000;-0.336117
9320.000000;-0.334893
9319.000000;-0.333714
9318.000000;-0.332530
9317.000000;-0.331289
9316.000000;-0.330005
9315.000000;-0.328727
9314.000000;-0.327493
9313.000000;-0.326323
9312.000000;-0.325227
9311.000000;-0.324184
9310.000000;-0.323121
9309.000000;-0.321944
9308.000000;-0.320615
9307.000000;-0.319209
9306.000000;-0.317859
9305.000000;-0.316625
9304.000000;-0.315438
9303.000000;-0.314205
9302.000000;-0.312946
9301.000000;-0.311771
9300.000000;-0.310718
9299.000000;-0.309678
9298.000000;-0.308526
9297.000000;-0.307272
9296.000000;-0.306018
9295.000000;-0.304824
9294.000000;-0.303676
9293.000000;-0.302572
9292.000000;-0.301523
9291.000000;-0.300481
9290.000000;-0.299338
9289.000000;-0.298052
9288.000000;-0.296720
9287.000000;-0.295483
9286.000000;-0.294385
9285.000000;-0.293364
9284.000000;-0.292338
9283.000000;-0.291277
9282.000000;-0.290181
9281.000000;-0.289064
9280.000000;-0.287940
9279.000000;-0.286813
9278.000000;-0.285673
9277.000000;-0.284516
9276.000000;-0.283366
9275.000000;-0.282244
9274.000000;-0.281133
9273.000000;-0.280013
9272.000000;-0.278906
9271.000000;-0.277861
9270.000000;-0.276883
9269.000000;-0.275916
9268.000000;-0.274900
9267.000000;-0.273830
9266.000000;-0.272747
9265.000000;-0.271721
9264.000000;-0.270820
9263.000000;-0.270045
9262.000000;-0.269269
9261.000000;-0.268310
9260.000000;-0.267110
9259.000000;-0.265839
9258.000000;-0.264726
9257.000000;-0.263810
9256.000000;-0.262905
9255.000000;-0.261842
9254.000000;-0.260672
9253.000000;-0.259590
9252.000000;-0.258704
9251.000000;-0.257936
9250.000000;-0.257131
9249.000000;-0.256200
9248.000000;-0.255158
9247.000000;-0.254084
9246.000000;-0.253070
9245.000000;-0.252170
9244.000000;-0.251352
9243.000000;-0.250511
9242.000000;-0.249550
9241.000000;-0.248459
9240.000000;-0.247298
9239.000000;-0.246143
9238.000000;-0.245047
9237.000000;-0.244045
9236.000000;-0.243151
9235.000000;-0.242347
9234.000000;-0.241605
9233.000000;-0.240900
9232.000000;-0.240186
9231.000000;-0.239374
9230.000000;-0.238393
9229.000000;-0.237281
9228.000000;-0.236187
9227.000000;-0.235230
9226.000000;-0.234400
9225.000000;-0.233599
9224.000000;-0.232759
9223.000000;-0.231889
9222.000000;-0.231016
9221.000000;-0.230155
9220.000000;-0.229319
9219.000000;-0.228528
9218.000000;-0.227773
9217.000000;-0.227029
9216.000000;-0.226283
9215.000000;-0.225544
9214.000000;-0.224804
9213.000000;-0.224024
9212.000000;-0.223186
9211.000000;-0.222321
9210.000000;-0.221463
9209.000000;-0.220612
9208.000000;-0.219761
9207.000000;-0.218935
9206.000000;-0.218175
9205.000000;-0.217477
9204.000000;-0.216794
9203.000000;-0.216079
9202.000000;-0.215296
9201.000000;-0.214418
9200.000000;-0.213445
9199.000000;-0.212447
9198.000000;-0.211526
9197.000000;-0.210733
9196.000000;-0.210037
9195.000000;-0.209381
9194.000000;-0.208740
9193.000000;-0.208103
9192.000000;-0.207445
9191.000000;-0.206738
9190.000000;-0.205970
9189.000000;-0.205141
9188.000000;-0.204264
9187.000000;-0.203391
9186.000000;-0.202605
9185.000000;-0.201944
9184.000000;-0.201346
9183.000000;-0.200710
9182.000000;-0.199995
9181.000000;-0.199243
9180.000000;-0.198509
9179.000000;-0.197812
9178.000000;-0.197146
9177.000000;-0.196501
9176.000000;-0.195854
9175.000000;-0.195171
9174.000000;-0.194440
9173.000000;-0.193694
9172.000000;-0.192973
9171.000000;-0.192280
9170.000000;-0.191588
9169.000000;-0.190894
9168.000000;-0.190233
9167.000000;-0.189643
9166.000000;-0.189121
9165.000000;-0.188608
9164.000000;-0.188030
9163.000000;-0.187355
9162.000000;-0.186619
9161.000000;-0.185899
9160.000000;-0.185244
9159.000000;-0.184636
9158.000000;-0.184012
9157.000000;-0.183332
9156.000000;-0.182610
9155.000000;-0.181893
9154.000000;-0.181213
9153.000000;-0.180578
9152.000000;-0.179985
9151.000000;-0.179425
9150.000000;-0.178860
9149.000000;-0.178225
9148.000000;-0.177495
9147.000000;-0.176726
9146.000000;-0.176021
9145.000000;-0.175435
9144.000000;-0.174923
9143.000000;-0.174396
9142.000000;-0.173799
9141.000000;-0.173160
9140.000000;-0.172570
9139.000000;-0.172111
9138.000000;-0.171782
9137.000000;-0.171466
9136.000000;-0.171006
9135.000000;-0.170335
9134.000000;-0.169549
9133.000000;-0.168837
9132.000000;-0.168327
9131.000000;-0.168001
9130.000000;-0.167724
9129.000000;-0.167343
9128.000000;-0.166777
9127.000000;-0.166059
9126.000000;-0.165311
9125.000000;-0.164656
9124.000000;-0.164131
9123.000000;-0.163679
9122.000000;-0.163212
9121.000000;-0.162686
9120.000000;-0.162139
9119.000000;-0.161648
9118.000000;-0.161253
9117.000000;-0.160900
9116.000000;-0.160478
9115.000000;-0.159934
9114.000000;-0.159329
9113.000000;-0.158761
9112.000000;-0.158257
9111.000000;-0.157773
9110.000000;-0.157282
9109.000000;-0.156806
9108.000000;-0.156349
9107.000000;-0.155862
9106.000000;-0.155314
9105.000000;-0.154754
9104.000000;-0.154255
9103.000000;-0.153828
9102.000000;-0.153427
9101.000000;-0.153031
9100.000000;-0.152652
9099.000000;-0.152266
9098.000000;-0.151813
9097.000000;-0.151294
9096.000000;-0.150809
9095.000000;-0.150449
9094.000000;-0.150170
9093.000000;-0.149826
9092.000000;-0.149314
9091.000000;-0.148661
9090.000000;-0.147975
9089.000000;-0.147355
9088.000000;-0.146856
9087.000000;-0.146489
9086.000000;-0.146224
9085.000000;-0.145998
9084.000000;-0.145742
9083.000000;-0.145413
9082.000000;-0.145003
