Criado como novo conjunto de dados;"0307_DANIEL.spp","35463.6 Secs"
cm-1;Abs
10000.000000;1.146617
9999.000000;1.144147
9998.000000;1.141686
9997.000000;1.139245
9996.000000;1.136884
9995.000000;1.135162
9994.000000;1.134377
9993.000000;1.134132
9992.000000;1.133812
9991.000000;1.132815
9990.000000;1.130938
9989.000000;1.128658
9988.000000;1.126808
9987.000000;1.125682
9986.000000;1.124772
9985.000000;1.123596
9984.000000;1.122443
9983.000000;1.121886
9982.000000;1.121849
9981.000000;1.121658
9980.000000;1.120863
9979.000000;1.119578
9978.000000;1.118064
9977.000000;1.116452
9976.000000;1.114879
9975.000000;1.113503
9974.000000;1.112345
9973.000000;1.111330
9972.000000;1.110447
9971.000000;1.109613
9970.000000;1.108505
9969.000000;1.106882
9968.000000;1.104992
9967.000000;1.103297
9966.000000;1.101866
9965.000000;1.100407
9964.000000;1.098874
9963.000000;1.097597
9962.000000;1.096761
9961.000000;1.096155
9960.000000;1.095493
9959.000000;1.094649
9958.000000;1.093507
9957.000000;1.091991
9956.000000;1.090347
9955.000000;1.089020
9954.000000;1.088067
9953.000000;1.087006
9952.000000;1.085452
9951.000000;1.083632
9950.000000;1.082081
9949.000000;1.081058
9948.000000;1.080389
9947.000000;1.079683
9946.000000;1.078588
9945.000000;1.077040
9944.000000;1.075348
9943.000000;1.073835
9942.000000;1.072413
9941.000000;1.070756
9940.000000;1.068895
9939.000000;1.067250
9938.000000;1.066017
9937.000000;1.064913
9936.000000;1.063692
9935.000000;1.062531
9934.000000;1.061640
9933.000000;1.060828
9932.000000;1.059770
9931.000000;1.058431
9930.000000;1.056936
9929.000000;1.055254
9928.000000;1.053391
9927.000000;1.051717
9926.000000;1.050699
9925.000000;1.050314
9924.000000;1.049995
9923.000000;1.049171
9922.000000;1.047712
9921.000000;1.045882
9920.000000;1.044027
9919.000000;1.042341
9918.000000;1.040776
9917.000000;1.039201
9916.000000;1.037708
9915.000000;1.036662
9914.000000;1.036281
9913.000000;1.036197
9912.000000;1.035625
9911.000000;1.034006
9910.000000;1.031480
9909.000000;1.028772
9908.000000;1.026682
9907.000000;1.025579
9906.000000;1.025163
9905.000000;1.024660
9904.000000;1.023384
9903.000000;1.021255
9902.000000;1.018857
9901.000000;1.016978
9900.000000;1.015972
9899.000000;1.015451
9898.000000;1.014636
9897.000000;1.013157
9896.000000;1.011417
9895.000000;1.010037
9894.000000;1.009041
9893.000000;1.007882
9892.000000;1.006242
9891.000000;1.004502
9890.000000;1.003251
9889.000000;1.002563
9888.000000;1.001928
9887.000000;1.000797
9886.000000;0.999080
9885.000000;0.997203
9884.000000;0.995715
9883.000000;0.994705
9882.000000;0.993584
9881.000000;0.991625
9880.000000;0.988818
9879.000000;0.986029
9878.000000;0.984222
9877.000000;0.983627
9876.000000;0.983644
9875.000000;0.983371
9874.000000;0.982211
9873.000000;0.980242
9872.000000;0.978142
9871.000000;0.976592
9870.000000;0.975635
9869.000000;0.974735
9868.000000;0.973480
9867.000000;0.971967
9866.000000;0.970438
9865.000000;0.968878
9864.000000;0.967209
9863.000000;0.965598
9862.000000;0.964266
9861.000000;0.963111
9860.000000;0.961787
9859.000000;0.960093
9858.000000;0.958096
9857.000000;0.955958
9856.000000;0.953865
9855.000000;0.952043
9854.000000;0.950613
9853.000000;0.949460
9852.000000;0.948386
9851.000000;0.947356
9850.000000;0.946451
9849.000000;0.945642
9848.000000;0.944730
9847.000000;0.943483
9846.000000;0.941784
9845.000000;0.939731
9844.000000;0.937659
9843.000000;0.935905
9842.000000;0.934454
9841.000000;0.932964
9840.000000;0.931247
9839.000000;0.929520
9838.000000;0.928034
9837.000000;0.926716
9836.000000;0.925434
9835.000000;0.924352
9834.000000;0.923644
9833.000000;0.922980
9832.000000;0.921750
9831.000000;0.919835
9830.000000;0.917750
9829.000000;0.915935
9828.000000;0.914243
9827.000000;0.912297
9826.000000;0.910069
9825.000000;0.907902
9824.000000;0.906108
9823.000000;0.904727
9822.000000;0.903585
9821.000000;0.902436
9820.000000;0.901111
9819.000000;0.899649
9818.000000;0.898234
9817.000000;0.896965
9816.000000;0.895726
9815.000000;0.894348
9814.000000;0.892772
9813.000000;0.891028
9812.000000;0.889142
9811.000000;0.887175
9810.000000;0.885283
9809.000000;0.883614
9808.000000;0.882154
9807.000000;0.880701
9806.000000;0.879011
9805.000000;0.876991
9804.000000;0.874846
9803.000000;0.873040
9802.000000;0.871988
9801.000000;0.871645
9800.000000;0.871419
9799.000000;0.870578
9798.000000;0.868805
9797.000000;0.866364
9796.000000;0.863807
9795.000000;0.861580
9794.000000;0.859860
9793.000000;0.858574
9792.000000;0.857479
9791.000000;0.856282
9790.000000;0.854795
9789.000000;0.853027
9788.000000;0.851127
9787.000000;0.849284
9786.000000;0.847654
9785.000000;0.846280
9784.000000;0.844971
9783.000000;0.843344
9782.000000;0.841152
9781.000000;0.838615
9780.000000;0.836264
9779.000000;0.834431
9778.000000;0.832996
9777.000000;0.831657
9776.000000;0.830270
9775.000000;0.828793
9774.000000;0.827106
9773.000000;0.825182
9772.000000;0.823327
9771.000000;0.821935
9770.000000;0.820955
9769.000000;0.819874
9768.000000;0.818311
9767.000000;0.816423
9766.000000;0.814575
9765.000000;0.812871
9764.000000;0.811199
9763.000000;0.809566
9762.000000;0.808067
9761.000000;0.806596
9760.000000;0.804848
9759.000000;0.802680
9758.000000;0.800302
9757.000000;0.798063
9756.000000;0.796164
9755.000000;0.794595
9754.000000;0.793199
9753.000000;0.791706
9752.000000;0.789855
9751.000000;0.787626
9750.000000;0.785331
9749.000000;0.783393
9748.000000;0.781993
9747.000000;0.780953
9746.000000;0.779909
9745.000000;0.778558
9744.000000;0.776794
9743.000000;0.774697
9742.000000;0.772416
9741.000000;0.770045
9740.000000;0.767619
9739.000000;0.765269
9738.000000;0.763285
9737.000000;0.761898
9736.000000;0.760941
9735.000000;0.759863
9734.000000;0.758224
9733.000000;0.756110
9732.000000;0.753947
9731.000000;0.751979
9730.000000;0.750092
9729.000000;0.748146
9728.000000;0.746235
9727.000000;0.744524
9726.000000;0.742946
9725.000000;0.741236
9724.000000;0.739235
9723.000000;0.737084
9722.000000;0.735066
9721.000000;0.733282
9720.000000;0.731485
9719.000000;0.729316
9718.000000;0.726798
9717.000000;0.724493
9716.000000;0.722967
9715.000000;0.722120
9714.000000;0.721217
9713.000000;0.719672
9712.000000;0.717557
9711.000000;0.715281
9710.000000;0.713059
9709.000000;0.710900
9708.000000;0.708836
9707.000000;0.706846
9706.000000;0.704703
9705.000000;0.702208
9704.000000;0.699555
9703.000000;0.697204
9702.000000;0.695430
9701.000000;0.694166
9700.000000;0.693160
9699.000000;0.692043
9698.000000;0.690373
9697.000000;0.688013
9696.000000;0.685455
9695.000000;0.683406
9694.000000;0.681968
9693.000000;0.680524
9692.000000;0.678492
9691.000000;0.675913
9690.000000;0.673208
9689.000000;0.670689
9688.000000;0.668492
9687.000000;0.666689
9686.000000;0.665179
9685.000000;0.663646
9684.000000;0.661841
9683.000000;0.659824
9682.000000;0.657776
9681.000000;0.655740
9680.000000;0.653718
9679.000000;0.651873
9678.000000;0.650368
9677.000000;0.649070
9676.000000;0.647610
9675.000000;0.645738
9674.000000;0.643526
9673.000000;0.641211
9672.000000;0.638951
9671.000000;0.636701
9670.000000;0.634272
9669.000000;0.631574
9668.000000;0.628812
9667.000000;0.626322
9666.000000;0.624169
9665.000000;0.622051
9664.000000;0.619699
9663.000000;0.617231
9662.000000;0.614988
9661.000000;0.613120
9660.000000;0.611479
9659.000000;0.609815
9658.000000;0.607964
9657.000000;0.605927
9656.000000;0.603890
9655.000000;0.602063
9654.000000;0.600388
9653.000000;0.598522
9652.000000;0.596272
9651.000000;0.593904
9650.000000;0.591827
9649.000000;0.590056
9648.000000;0.588221
9647.000000;0.586098
9646.000000;0.583878
9645.000000;0.581859
9644.000000;0.580049
9643.000000;0.578159
9642.000000;0.575893
9641.000000;0.573196
9640.000000;0.570316
9639.000000;0.567628
9638.000000;0.565298
9637.000000;0.563100
9636.000000;0.560658
9635.000000;0.557884
9634.000000;0.555050
9633.000000;0.552447
9632.000000;0.550109
9631.000000;0.547902
9630.000000;0.545743
9629.000000;0.543621
9628.000000;0.541537
9627.000000;0.539539
9626.000000;0.537726
9625.000000;0.536090
9624.000000;0.534405
9623.000000;0.532397
9622.000000;0.530057
9621.000000;0.527705
9620.000000;0.525683
9619.000000;0.524006
9618.000000;0.522303
9617.000000;0.520125
9616.000000;0.517369
9615.000000;0.514401
9614.000000;0.511705
9613.000000;0.509412
9612.000000;0.507237
9611.000000;0.504906
9610.000000;0.502520
9609.000000;0.500355
9608.000000;0.498384
9607.000000;0.496199
9606.000000;0.493467
9605.000000;0.490338
9604.000000;0.487336
9603.000000;0.484893
9602.000000;0.483025
9601.000000;0.481363
9600.000000;0.479496
9599.000000;0.477335
9598.000000;0.475193
9597.000000;0.473401
9596.000000;0.471853
9595.000000;0.470047
9594.000000;0.467656
9593.000000;0.464879
9592.000000;0.462104
9591.000000;0.459388
9590.000000;0.456511
9589.000000;0.453445
9588.000000;0.450485
9587.000000;0.447861
9586.000000;0.445462
9585.000000;0.443048
9584.000000;0.440573
9583.000000;0.438187
9582.000000;0.436032
9581.000000;0.434114
9580.000000;0.432281
9579.000000;0.430283
9578.000000;0.427973
9577.000000;0.425492
9576.000000;0.423106
9575.000000;0.420845
9574.000000;0.418467
9573.000000;0.415889
9572.000000;0.413422
9571.000000;0.411426
9570.000000;0.409857
9569.000000;0.408330
9568.000000;0.406515
9567.000000;0.404308
9566.000000;0.401767
9565.000000;0.399088
9564.000000;0.396566
9563.000000;0.394337
9562.000000;0.392184
9561.000000;0.389777
9560.000000;0.387071
9559.000000;0.384268
9558.000000;0.381443
9557.000000;0.378471
9556.000000;0.375353
9555.000000;0.372405
9554.000000;0.370016
9553.000000;0.368282
9552.000000;0.366924
9551.000000;0.365461
9550.000000;0.363535
9549.000000;0.361195
9548.000000;0.358842
9547.000000;0.356768
9546.000000;0.354816
9545.000000;0.352640
9544.000000;0.350234
9543.000000;0.347952
9542.000000;0.346022
9541.000000;0.344307
9540.000000;0.342573
9539.000000;0.340708
9538.000000;0.338580
9537.000000;0.335957
9536.000000;0.332821
9535.000000;0.329589
9534.000000;0.326810
9533.000000;0.324672
9532.000000;0.322941
9531.000000;0.321301
9530.000000;0.319575
9529.000000;0.317677
9528.000000;0.315534
9527.000000;0.313160
9526.000000;0.310737
9525.000000;0.308555
9524.000000;0.306790
9523.000000;0.305303
9522.000000;0.303693
9521.000000;0.301649
9520.000000;0.299253
9519.000000;0.296854
9518.000000;0.294658
9517.000000;0.292601
9516.000000;0.290601
9515.000000;0.288738
9514.000000;0.287054
9513.000000;0.285372
9512.000000;0.283501
9511.000000;0.281513
9510.000000;0.279648
9509.000000;0.277956
9508.000000;0.276220
9507.000000;0.274235
9506.000000;0.272049
9505.000000;0.269890
9504.000000;0.267956
9503.000000;0.266310
9502.000000;0.264886
9501.000000;0.263513
9500.000000;0.262003
9499.000000;0.260287
9498.000000;0.258481
9497.000000;0.256760
9496.000000;0.255136
9495.000000;0.253401
9494.000000;0.251371
9493.000000;0.249200
9492.000000;0.247345
9491.000000;0.246130
9490.000000;0.245402
9489.000000;0.244709
9488.000000;0.243810
9487.000000;0.242863
9486.000000;0.242103
9485.000000;0.241446
9484.000000;0.240523
9483.000000;0.239053
9482.000000;0.237137
9481.000000;0.235219
9480.000000;0.233768
9479.000000;0.232913
9478.000000;0.232314
9477.000000;0.231438
9476.000000;0.230037
9475.000000;0.228372
9474.000000;0.226935
9473.000000;0.225970
9472.000000;0.225280
9471.000000;0.224478
9470.000000;0.223359
9469.000000;0.222036
9468.000000;0.220745
9467.000000;0.219600
9466.000000;0.218563
9465.000000;0.217643
9464.000000;0.216992
9463.000000;0.216724
9462.000000;0.216722
9461.000000;0.216699
9460.000000;0.216465
9459.000000;0.216039
9458.000000;0.215526
9457.000000;0.214997
9456.000000;0.214500
9455.000000;0.214092
9454.000000;0.213778
9453.000000;0.213486
9452.000000;0.213135
9451.000000;0.212672
9450.000000;0.212051
9449.000000;0.211261
9448.000000;0.210419
9447.000000;0.209750
9446.000000;0.209395
9445.000000;0.209310
9444.000000;0.209376
9443.000000;0.209547
9442.000000;0.209796
9441.000000;0.209990
9440.000000;0.209926
9439.000000;0.209547
9438.000000;0.209053
9437.000000;0.208776
9436.000000;0.208950
9435.000000;0.209587
9434.000000;0.210524
9433.000000;0.211526
9432.000000;0.212348
9431.000000;0.212801
9430.000000;0.212852
9429.000000;0.212716
9428.000000;0.212736
9427.000000;0.213076
9426.000000;0.213534
9425.000000;0.213738
9424.000000;0.213548
9423.000000;0.213206
9422.000000;0.213092
9421.000000;0.213382
9420.000000;0.213980
9419.000000;0.214697
9418.000000;0.215445
9417.000000;0.216253
9416.000000;0.217130
9415.000000;0.217985
9414.000000;0.218706
9413.000000;0.219297
9412.000000;0.219830
9411.000000;0.220299
9410.000000;0.220641
9409.000000;0.220922
9408.000000;0.221356
9407.000000;0.222038
9406.000000;0.222801
9405.000000;0.223449
9404.000000;0.224040
9403.000000;0.224781
9402.000000;0.225711
9401.000000;0.226671
9400.000000;0.227529
9399.000000;0.228283
9398.000000;0.228983
9397.000000;0.229685
9396.000000;0.230488
9395.000000;0.231456
9394.000000;0.232506
9393.000000;0.233528
9392.000000;0.234554
9391.000000;0.235663
9390.000000;0.236750
9389.000000;0.237633
9388.000000;0.238403
9387.000000;0.239408
9386.000000;0.240800
9385.000000;0.242304
9384.000000;0.243571
9383.000000;0.244562
9382.000000;0.245458
9381.000000;0.246336
9380.000000;0.247093
9379.000000;0.247640
9378.000000;0.248037
9377.000000;0.248500
9376.000000;0.249307
9375.000000;0.250609
9374.000000;0.252235
9373.000000;0.253786
9372.000000;0.254996
9371.000000;0.255951
9370.000000;0.256918
9369.000000;0.258062
9368.000000;0.259392
9367.000000;0.260800
9366.000000;0.262096
9365.000000;0.263117
9364.000000;0.263917
9363.000000;0.264758
9362.000000;0.265810
9361.000000;0.267009
9360.000000;0.268277
9359.000000;0.269705
9358.000000;0.271335
9357.000000;0.272919
9356.000000;0.274141
9355.000000;0.275038
9354.000000;0.275975
9353.000000;0.277197
9352.000000;0.278598
9351.000000;0.279948
9350.000000;0.281173
9349.000000;0.282304
9348.000000;0.283301
9347.000000;0.284051
9346.000000;0.284565
9345.000000;0.285083
9344.000000;0.285938
9343.000000;0.287289
9342.000000;0.288985
9341.000000;0.290693
9340.000000;0.292178
9339.000000;0.293447
9338.000000;0.294638
9337.000000;0.295837
9336.000000;0.297018
9335.000000;0.298101
9334.000000;0.299041
9333.000000;0.299901
9332.000000;0.300842
9331.000000;0.301972
9330.000000;0.303203
9329.000000;0.304335
9328.000000;0.305298
9327.000000;0.306222
9326.000000;0.307265
9325.000000;0.308464
9324.000000;0.309800
9323.000000;0.311281
9322.000000;0.312890
9321.000000;0.314516
9320.000000;0.316016
9319.000000;0.317277
9318.000000;0.318220
9317.000000;0.318884
9316.000000;0.319528
9315.000000;0.320498
9314.000000;0.321859
9313.000000;0.323274
9312.000000;0.324376
9311.000000;0.325186
9310.000000;0.326046
9309.000000;0.327205
9308.000000;0.328607
9307.000000;0.330014
9306.000000;0.331233
9305.000000;0.332237
9304.000000;0.333172
9303.000000;0.334226
9302.000000;0.335438
9301.000000;0.336666
9300.000000;0.337772
9299.000000;0.338770
9298.000000;0.339740
9297.000000;0.340696
9296.000000;0.341637
9295.000000;0.342643
9294.000000;0.343774
9293.000000;0.344943
9292.000000;0.346030
9291.000000;0.347089
9290.000000;0.348317
9289.000000;0.349765
9288.000000;0.351187
9287.000000;0.352228
9286.000000;0.352751
9285.000000;0.352977
9284.000000;0.353326
9283.000000;0.354099
9282.000000;0.355294
9281.000000;0.356737
9280.000000;0.358318
9279.000000;0.360000
9278.000000;0.361646
9277.000000;0.363033
9276.000000;0.364122
9275.000000;0.365122
9274.000000;0.366199
9273.000000;0.367240
9272.000000;0.368068
9271.000000;0.368749
9270.000000;0.369520
9269.000000;0.370493
9268.000000;0.371585
9267.000000;0.372700
9266.000000;0.373796
9265.000000;0.374810
9264.000000;0.375673
9263.000000;0.376421
9262.000000;0.377178
9261.000000;0.378035
9260.000000;0.378991
9259.000000;0.379988
9258.000000;0.380898
9257.000000;0.381565
9256.000000;0.381990
9255.000000;0.382459
9254.000000;0.383318
9253.000000;0.384602
9252.000000;0.385968
9251.000000;0.387029
9250.000000;0.387699
9249.000000;0.388227
9248.000000;0.388981
9247.000000;0.390160
9246.000000;0.391638
9245.000000;0.393069
9244.000000;0.394197
9243.000000;0.395045
9242.000000;0.395814
9241.000000;0.396664
9240.000000;0.397644
9239.000000;0.398685
9238.000000;0.399561
9237.000000;0.400006
9236.000000;0.400039
9235.000000;0.400067
9234.000000;0.400501
9233.000000;0.401359
9232.000000;0.402377
9231.000000;0.403405
9230.000000;0.404473
9229.000000;0.405552
9228.000000;0.406507
9227.000000;0.407284
9226.000000;0.407933
9225.000000;0.408440
9224.000000;0.408769
9223.000000;0.409067
9222.000000;0.409584
9221.000000;0.410361
9220.000000;0.411218
9219.000000;0.412083
9218.000000;0.413070
9217.000000;0.414149
9216.000000;0.415048
9215.000000;0.415613
9214.000000;0.416068
9213.000000;0.416705
9212.000000;0.417537
9211.000000;0.418440
9210.000000;0.419440
9209.000000;0.420618
9208.000000;0.421831
9207.000000;0.422800
9206.000000;0.423436
9205.000000;0.423919
9204.000000;0.424485
9203.000000;0.425279
9202.000000;0.426342
9201.000000;0.427548
9200.000000;0.428613
9199.000000;0.429331
9198.000000;0.429815
9197.000000;0.430353
9196.000000;0.431051
9195.000000;0.431779
9194.000000;0.432436
9193.000000;0.433085
9192.000000;0.433780
9191.000000;0.434457
9190.000000;0.435027
9189.000000;0.435470
9188.000000;0.435778
9187.000000;0.435945
9186.000000;0.436077
9185.000000;0.436410
9184.000000;0.437116
9183.000000;0.438167
9182.000000;0.439400
9181.000000;0.440626
9180.000000;0.441654
9179.000000;0.442324
9178.000000;0.442648
9177.000000;0.442851
9176.000000;0.443206
9175.000000;0.443819
9174.000000;0.444578
9173.000000;0.445260
9172.000000;0.445686
9171.000000;0.445904
9170.000000;0.446213
9169.000000;0.446920
9168.000000;0.447988
9167.000000;0.449036
9166.000000;0.449729
9165.000000;0.450091
9164.000000;0.450362
9163.000000;0.450708
9162.000000;0.451162
9161.000000;0.451747
9160.000000;0.452440
9159.000000;0.453090
9158.000000;0.453539
9157.000000;0.453843
9156.000000;0.454227
9155.000000;0.454807
9154.000000;0.455484
9153.000000;0.456120
9152.000000;0.456701
9151.000000;0.457284
9150.000000;0.457902
9149.000000;0.458580
9148.000000;0.459336
9147.000000;0.460129
9146.000000;0.460861
9145.000000;0.461481
9144.000000;0.462010
9143.000000;0.462436
9142.000000;0.462695
9141.000000;0.462831
9140.000000;0.463066
9139.000000;0.463603
9138.000000;0.464384
9137.000000;0.465154
9136.000000;0.465723
9135.000000;0.466108
9134.000000;0.466435
9133.000000;0.466771
9132.000000;0.467095
9131.000000;0.467383
9130.000000;0.467699
9129.000000;0.468174
9128.000000;0.468859
9127.000000;0.469615
9126.000000;0.470217
9125.000000;0.470585
9124.000000;0.470856
9123.000000;0.471194
9122.000000;0.471605
9121.000000;0.471992
9120.000000;0.472340
9119.000000;0.472752
9118.000000;0.473323
9117.000000;0.474038
9116.000000;0.474781
9115.000000;0.475390
9114.000000;0.475753
9113.000000;0.475887
9112.000000;0.475924
9111.000000;0.475971
9110.000000;0.476034
9109.000000;0.476117
9108.000000;0.476311
9107.000000;0.476716
9106.000000;0.477284
9105.000000;0.477851
9104.000000;0.478308
9103.000000;0.478671
9102.000000;0.478984
9101.000000;0.479243
9100.000000;0.479477
9099.000000;0.479803
9098.000000;0.480340
9097.000000;0.481046
9096.000000;0.481702
9095.000000;0.482099
9094.000000;0.482267
9093.000000;0.482456
9092.000000;0.482863
9091.000000;0.483423
9090.000000;0.483919
9089.000000;0.484252
9088.000000;0.484510
9087.000000;0.484770
9086.000000;0.485000
9085.000000;0.485191
9084.000000;0.485428
9083.000000;0.485762
9082.000000;0.486104
9081.000000;0.486375
9080.000000;0.486653
9079.000000;0.487055
9078.000000;0.487526
9077.000000;0.487910
9076.000000;0.488183
9075.000000;0.488489
9074.000000;0.488957
9073.000000;0.489581
9072.000000;0.490243
9071.000000;0.490774
9070.000000;0.491044
9069.000000;0.491104
9068.000000;0.491207
9067.000000;0.491531
9066.000000;0.491938
9065.000000;0.492146
9064.000000;0.492136
9063.000000;0.492201
9062.000000;0.492583
9061.000000;0.493206
9060.000000;0.493841
9059.000000;0.494367
9058.000000;0.494793
9057.000000;0.495131
9056.000000;0.495352
9055.000000;0.495435
9054.000000;0.495386
9053.000000;0.495260
