Criado como novo conjunto de dados;"0307_DANIEL.spp","75245.7 Secs"
cm-1;Abs
10000.000000;0.551913
9999.000000;0.550805
9998.000000;0.549863
9997.000000;0.548975
9996.000000;0.548247
9995.000000;0.547876
9994.000000;0.547815
9993.000000;0.547771
9992.000000;0.547506
9991.000000;0.546993
9990.000000;0.546294
9989.000000;0.545480
9988.000000;0.544702
9987.000000;0.544107
9986.000000;0.543597
9985.000000;0.542848
9984.000000;0.541685
9983.000000;0.540320
9982.000000;0.539126
9981.000000;0.538262
9980.000000;0.537635
9979.000000;0.537073
9978.000000;0.536411
9977.000000;0.535494
9976.000000;0.534260
9975.000000;0.532840
9974.000000;0.531468
9973.000000;0.530320
9972.000000;0.529457
9971.000000;0.528869
9970.000000;0.528482
9969.000000;0.528171
9968.000000;0.527826
9967.000000;0.527384
9966.000000;0.526779
9965.000000;0.525935
9964.000000;0.524882
9963.000000;0.523804
9962.000000;0.522888
9961.000000;0.522151
9960.000000;0.521484
9959.000000;0.520787
9958.000000;0.520010
9957.000000;0.519115
9956.000000;0.518092
9955.000000;0.516992
9954.000000;0.515899
9953.000000;0.514881
9952.000000;0.513992
9951.000000;0.513236
9950.000000;0.512515
9949.000000;0.511686
9948.000000;0.510712
9947.000000;0.509698
9946.000000;0.508734
9945.000000;0.507814
9944.000000;0.506960
9943.000000;0.506289
9942.000000;0.505866
9941.000000;0.505562
9940.000000;0.505155
9939.000000;0.504526
9938.000000;0.503683
9937.000000;0.502682
9936.000000;0.501613
9935.000000;0.500578
9934.000000;0.499570
9933.000000;0.498444
9932.000000;0.497138
9931.000000;0.495866
9930.000000;0.494953
9929.000000;0.494484
9928.000000;0.494212
9927.000000;0.493793
9926.000000;0.493036
9925.000000;0.491946
9924.000000;0.490644
9923.000000;0.489284
9922.000000;0.487983
9921.000000;0.486810
9920.000000;0.485834
9919.000000;0.485131
9918.000000;0.484701
9917.000000;0.484432
9916.000000;0.484181
9915.000000;0.483814
9914.000000;0.483152
9913.000000;0.482008
9912.000000;0.480401
9911.000000;0.478634
9910.000000;0.477062
9909.000000;0.475782
9908.000000;0.474651
9907.000000;0.473513
9906.000000;0.472348
9905.000000;0.471251
9904.000000;0.470369
9903.000000;0.469796
9902.000000;0.469452
9901.000000;0.469104
9900.000000;0.468584
9899.000000;0.467896
9898.000000;0.467061
9897.000000;0.465985
9896.000000;0.464646
9895.000000;0.463290
9894.000000;0.462234
9893.000000;0.461494
9892.000000;0.460758
9891.000000;0.459726
9890.000000;0.458365
9889.000000;0.456873
9888.000000;0.455537
9887.000000;0.454573
9886.000000;0.453929
9885.000000;0.453281
9884.000000;0.452360
9883.000000;0.451265
9882.000000;0.450286
9881.000000;0.449480
9880.000000;0.448639
9879.000000;0.447649
9878.000000;0.446618
9877.000000;0.445614
9876.000000;0.444503
9875.000000;0.443195
9874.000000;0.441863
9873.000000;0.440748
9872.000000;0.439867
9871.000000;0.439012
9870.000000;0.437995
9869.000000;0.436772
9868.000000;0.435425
9867.000000;0.434093
9866.000000;0.432890
9865.000000;0.431835
9864.000000;0.430899
9863.000000;0.430105
9862.000000;0.429483
9861.000000;0.428934
9860.000000;0.428250
9859.000000;0.427303
9858.000000;0.426119
9857.000000;0.424752
9856.000000;0.423252
9855.000000;0.421785
9854.000000;0.420609
9853.000000;0.419809
9852.000000;0.419169
9851.000000;0.418411
9850.000000;0.417499
9849.000000;0.416581
9848.000000;0.415743
9847.000000;0.414902
9846.000000;0.413878
9845.000000;0.412484
9844.000000;0.410672
9843.000000;0.408695
9842.000000;0.407032
9841.000000;0.405989
9840.000000;0.405380
9839.000000;0.404739
9838.000000;0.403799
9837.000000;0.402659
9836.000000;0.401530
9835.000000;0.400487
9834.000000;0.399498
9833.000000;0.398515
9832.000000;0.397461
9831.000000;0.396218
9830.000000;0.394726
9829.000000;0.393106
9828.000000;0.391606
9827.000000;0.390406
9826.000000;0.389449
9825.000000;0.388469
9824.000000;0.387229
9823.000000;0.385782
9822.000000;0.384453
9821.000000;0.383513
9820.000000;0.382871
9819.000000;0.382139
9818.000000;0.381003
9817.000000;0.379510
9816.000000;0.378029
9815.000000;0.376961
9814.000000;0.376414
9813.000000;0.376061
9812.000000;0.375337
9811.000000;0.373890
9810.000000;0.371909
9809.000000;0.369954
9808.000000;0.368475
9807.000000;0.367490
9806.000000;0.366712
9805.000000;0.365881
9804.000000;0.364961
9803.000000;0.364045
9802.000000;0.363136
9801.000000;0.362064
9800.000000;0.360645
9799.000000;0.358927
9798.000000;0.357198
9797.000000;0.355720
9796.000000;0.354487
9795.000000;0.353334
9794.000000;0.352188
9793.000000;0.351107
9792.000000;0.350073
9791.000000;0.348904
9790.000000;0.347471
9789.000000;0.345893
9788.000000;0.344420
9787.000000;0.343145
9786.000000;0.341926
9785.000000;0.340603
9784.000000;0.339221
9783.000000;0.338001
9782.000000;0.337079
9781.000000;0.336294
9780.000000;0.335274
9779.000000;0.333787
9778.000000;0.332014
9777.000000;0.330405
9776.000000;0.329240
9775.000000;0.328377
9774.000000;0.327456
9773.000000;0.326273
9772.000000;0.324879
9771.000000;0.323401
9770.000000;0.321893
9769.000000;0.320387
9768.000000;0.318954
9767.000000;0.317650
9766.000000;0.316458
9765.000000;0.315319
9764.000000;0.314183
9763.000000;0.313011
9762.000000;0.311764
9761.000000;0.310457
9760.000000;0.309155
9759.000000;0.307891
9758.000000;0.306608
9757.000000;0.305237
9756.000000;0.303778
9755.000000;0.302245
9754.000000;0.300578
9753.000000;0.298711
9752.000000;0.296744
9751.000000;0.294943
9750.000000;0.293527
9749.000000;0.292512
9748.000000;0.291752
9747.000000;0.291038
9746.000000;0.290115
9745.000000;0.288724
9744.000000;0.286787
9743.000000;0.284561
9742.000000;0.282492
9741.000000;0.280880
9740.000000;0.279708
9739.000000;0.278763
9738.000000;0.277813
9737.000000;0.276668
9736.000000;0.275224
9735.000000;0.273528
9734.000000;0.271761
9733.000000;0.270060
9732.000000;0.268403
9731.000000;0.266730
9730.000000;0.265115
9729.000000;0.263728
9728.000000;0.262631
9727.000000;0.261714
9726.000000;0.260811
9725.000000;0.259743
9724.000000;0.258296
9723.000000;0.256368
9722.000000;0.254235
9721.000000;0.252464
9720.000000;0.251351
9719.000000;0.250535
9718.000000;0.249370
9717.000000;0.247653
9716.000000;0.245779
9715.000000;0.244154
9714.000000;0.242711
9713.000000;0.241153
9712.000000;0.239427
9711.000000;0.237759
9710.000000;0.236292
9709.000000;0.234925
9708.000000;0.233496
9707.000000;0.231943
9706.000000;0.230240
9705.000000;0.228347
9704.000000;0.226329
9703.000000;0.224402
9702.000000;0.222752
9701.000000;0.221352
9700.000000;0.220039
9699.000000;0.218723
9698.000000;0.217438
9697.000000;0.216174
9696.000000;0.214807
9695.000000;0.213230
9694.000000;0.211514
9693.000000;0.209854
9692.000000;0.208361
9691.000000;0.206940
9690.000000;0.205398
9689.000000;0.203611
9688.000000;0.201575
9687.000000;0.199381
9686.000000;0.197227
9685.000000;0.195384
9684.000000;0.193997
9683.000000;0.192885
9682.000000;0.191651
9681.000000;0.190067
9680.000000;0.188282
9679.000000;0.186584
9678.000000;0.185082
9677.000000;0.183669
9676.000000;0.182193
9675.000000;0.180514
9674.000000;0.178511
9673.000000;0.176207
9672.000000;0.173865
9671.000000;0.171781
9670.000000;0.170010
9669.000000;0.168416
9668.000000;0.166951
9667.000000;0.165653
9666.000000;0.164366
9665.000000;0.162722
9664.000000;0.160589
9663.000000;0.158320
9662.000000;0.156391
9661.000000;0.154882
9660.000000;0.153510
9659.000000;0.152053
9658.000000;0.150536
9657.000000;0.149006
9656.000000;0.147374
9655.000000;0.145546
9654.000000;0.143590
9653.000000;0.141669
9652.000000;0.139891
9651.000000;0.138246
9650.000000;0.136652
9649.000000;0.134992
9648.000000;0.133176
9647.000000;0.131194
9646.000000;0.129096
9645.000000;0.126925
9644.000000;0.124748
9643.000000;0.122737
9642.000000;0.121078
9641.000000;0.119709
9640.000000;0.118261
9639.000000;0.116376
9638.000000;0.114118
9637.000000;0.111934
9636.000000;0.110207
9635.000000;0.108886
9634.000000;0.107595
9633.000000;0.106012
9632.000000;0.104092
9631.000000;0.101971
9630.000000;0.099796
9629.000000;0.097680
9628.000000;0.095706
9627.000000;0.093882
9626.000000;0.092091
9625.000000;0.090188
9624.000000;0.088165
9623.000000;0.086159
9622.000000;0.084276
9621.000000;0.082447
9620.000000;0.080525
9619.000000;0.078481
9618.000000;0.076433
9617.000000;0.074492
9616.000000;0.072645
9615.000000;0.070813
9614.000000;0.068962
9613.000000;0.067108
9612.000000;0.065228
9611.000000;0.063266
9610.000000;0.061244
9609.000000;0.059330
9608.000000;0.057690
9607.000000;0.056301
9606.000000;0.054933
9605.000000;0.053348
9604.000000;0.051446
9603.000000;0.049240
9602.000000;0.046786
9601.000000;0.044193
9600.000000;0.041635
9599.000000;0.039240
9598.000000;0.036991
9597.000000;0.034803
9596.000000;0.032684
9595.000000;0.030750
9594.000000;0.029068
9593.000000;0.027538
9592.000000;0.025954
9591.000000;0.024135
9590.000000;0.022023
9589.000000;0.019734
9588.000000;0.017510
9587.000000;0.015526
9586.000000;0.013689
9585.000000;0.011706
9584.000000;0.009425
9583.000000;0.007052
9582.000000;0.004952
9581.000000;0.003272
9580.000000;0.001832
9579.000000;0.000359
9578.000000;-0.001259
9577.000000;-0.003002
9576.000000;-0.004893
9575.000000;-0.007041
9574.000000;-0.009468
9573.000000;-0.011988
9572.000000;-0.014351
9571.000000;-0.016497
9570.000000;-0.018566
9569.000000;-0.020629
9568.000000;-0.022531
9567.000000;-0.024127
9566.000000;-0.025581
9565.000000;-0.027257
9564.000000;-0.029319
9563.000000;-0.031586
9562.000000;-0.033818
9561.000000;-0.035976
9560.000000;-0.038094
9559.000000;-0.040091
9558.000000;-0.041887
9557.000000;-0.043619
9556.000000;-0.045529
9555.000000;-0.047653
9554.000000;-0.049790
9553.000000;-0.051811
9552.000000;-0.053811
9551.000000;-0.055879
9550.000000;-0.057878
9549.000000;-0.059626
9548.000000;-0.061221
9547.000000;-0.062982
9546.000000;-0.065027
9545.000000;-0.067050
9544.000000;-0.068665
9543.000000;-0.069909
9542.000000;-0.071276
9541.000000;-0.073226
9540.000000;-0.075713
9539.000000;-0.078266
9538.000000;-0.080489
9537.000000;-0.082403
9536.000000;-0.084306
9535.000000;-0.086375
9534.000000;-0.088458
9533.000000;-0.090270
9532.000000;-0.091751
9531.000000;-0.093161
9530.000000;-0.094787
9529.000000;-0.096605
9528.000000;-0.098338
9527.000000;-0.099863
9526.000000;-0.101416
9525.000000;-0.103297
9524.000000;-0.105456
9523.000000;-0.107523
9522.000000;-0.109243
9521.000000;-0.110737
9520.000000;-0.112320
9519.000000;-0.114155
9518.000000;-0.116143
9517.000000;-0.118048
9516.000000;-0.119702
9515.000000;-0.121142
9514.000000;-0.122610
9513.000000;-0.124295
9512.000000;-0.126068
9511.000000;-0.127588
9510.000000;-0.128736
9509.000000;-0.129796
9508.000000;-0.131102
9507.000000;-0.132634
9506.000000;-0.134126
9505.000000;-0.135488
9504.000000;-0.136898
9503.000000;-0.138477
9502.000000;-0.140107
9501.000000;-0.141606
9500.000000;-0.142958
9499.000000;-0.144259
9498.000000;-0.145562
9497.000000;-0.146859
9496.000000;-0.148173
9495.000000;-0.149547
9494.000000;-0.150966
9493.000000;-0.152333
9492.000000;-0.153534
9491.000000;-0.154526
9490.000000;-0.155375
9489.000000;-0.156218
9488.000000;-0.157141
9487.000000;-0.158099
9486.000000;-0.158993
9485.000000;-0.159815
9484.000000;-0.160664
9483.000000;-0.161602
9482.000000;-0.162546
9481.000000;-0.163356
9480.000000;-0.163971
9479.000000;-0.164451
9478.000000;-0.164914
9477.000000;-0.165457
9476.000000;-0.166106
9475.000000;-0.166839
9474.000000;-0.167646
9473.000000;-0.168551
9472.000000;-0.169535
9471.000000;-0.170478
9470.000000;-0.171253
9469.000000;-0.171894
9468.000000;-0.172553
9467.000000;-0.173291
9466.000000;-0.173972
9465.000000;-0.174431
9464.000000;-0.174681
9463.000000;-0.174913
9462.000000;-0.175308
9461.000000;-0.175857
9460.000000;-0.176347
9459.000000;-0.176522
9458.000000;-0.176350
9457.000000;-0.176124
9456.000000;-0.176208
9455.000000;-0.176631
9454.000000;-0.177028
9453.000000;-0.177066
9452.000000;-0.176835
9451.000000;-0.176728
9450.000000;-0.177012
9449.000000;-0.177597
9448.000000;-0.178177
9447.000000;-0.178469
9446.000000;-0.178355
9445.000000;-0.177949
9444.000000;-0.177551
9443.000000;-0.177437
9442.000000;-0.177616
9441.000000;-0.177828
9440.000000;-0.177776
9439.000000;-0.177352
9438.000000;-0.176681
9437.000000;-0.176032
9436.000000;-0.175667
9435.000000;-0.175653
9434.000000;-0.175772
9433.000000;-0.175669
9432.000000;-0.175156
9431.000000;-0.174348
9430.000000;-0.173494
9429.000000;-0.172731
9428.000000;-0.172021
9427.000000;-0.171288
9426.000000;-0.170533
9425.000000;-0.169807
9424.000000;-0.169101
9423.000000;-0.168286
9422.000000;-0.167218
9421.000000;-0.165907
9420.000000;-0.164585
9419.000000;-0.163532
9418.000000;-0.162831
9417.000000;-0.162322
9416.000000;-0.161808
9415.000000;-0.161233
9414.000000;-0.160636
9413.000000;-0.159986
9412.000000;-0.159152
9411.000000;-0.158053
9410.000000;-0.156794
9409.000000;-0.155633
9408.000000;-0.154760
9407.000000;-0.154107
9406.000000;-0.153393
9405.000000;-0.152401
9404.000000;-0.151205
9403.000000;-0.150069
9402.000000;-0.149138
9401.000000;-0.148288
9400.000000;-0.147301
9399.000000;-0.146112
9398.000000;-0.144836
9397.000000;-0.143601
9396.000000;-0.142420
9395.000000;-0.141224
9394.000000;-0.139974
9393.000000;-0.138714
9392.000000;-0.137547
9391.000000;-0.136526
9390.000000;-0.135574
9389.000000;-0.134532
9388.000000;-0.133307
9387.000000;-0.131937
9386.000000;-0.130488
9385.000000;-0.128958
9384.000000;-0.127364
9383.000000;-0.125873
9382.000000;-0.124704
9381.000000;-0.123865
9380.000000;-0.123059
9379.000000;-0.121939
9378.000000;-0.120408
9377.000000;-0.118689
9376.000000;-0.117133
9375.000000;-0.115964
9374.000000;-0.115105
9373.000000;-0.114186
9372.000000;-0.112811
9371.000000;-0.110922
9370.000000;-0.108871
9369.000000;-0.107091
9368.000000;-0.105707
9367.000000;-0.104561
9366.000000;-0.103488
9365.000000;-0.102432
9364.000000;-0.101312
9363.000000;-0.099978
9362.000000;-0.098414
9361.000000;-0.096824
9360.000000;-0.095411
9359.000000;-0.094121
9358.000000;-0.092729
9357.000000;-0.091135
9356.000000;-0.089448
9355.000000;-0.087790
9354.000000;-0.086141
9353.000000;-0.084441
9352.000000;-0.082749
9351.000000;-0.081245
9350.000000;-0.080059
9349.000000;-0.079135
9348.000000;-0.078231
9347.000000;-0.077064
9346.000000;-0.075506
9345.000000;-0.073659
9344.000000;-0.071751
9343.000000;-0.069935
9342.000000;-0.068217
9341.000000;-0.066574
9340.000000;-0.065073
9339.000000;-0.063811
9338.000000;-0.062765
9337.000000;-0.061732
9336.000000;-0.060479
9335.000000;-0.058933
9334.000000;-0.057210
9333.000000;-0.055469
9332.000000;-0.053788
9331.000000;-0.052215
9330.000000;-0.050864
9329.000000;-0.049862
9328.000000;-0.049175
9327.000000;-0.048565
9326.000000;-0.047786
9325.000000;-0.046763
9324.000000;-0.045540
9323.000000;-0.044107
9322.000000;-0.042403
9321.000000;-0.040485
9320.000000;-0.038560
9319.000000;-0.036810
9318.000000;-0.035246
9317.000000;-0.033806
9316.000000;-0.032500
9315.000000;-0.031388
9314.000000;-0.030416
9313.000000;-0.029383
9312.000000;-0.028110
9311.000000;-0.026613
9310.000000;-0.025088
9309.000000;-0.023712
9308.000000;-0.022472
9307.000000;-0.021204
9306.000000;-0.019785
9305.000000;-0.018257
9304.000000;-0.016735
9303.000000;-0.015255
9302.000000;-0.013781
9301.000000;-0.012348
9300.000000;-0.011060
9299.000000;-0.009926
9298.000000;-0.008790
9297.000000;-0.007525
9296.000000;-0.006199
9295.000000;-0.004944
9294.000000;-0.003712
9293.000000;-0.002328
9292.000000;-0.000781
9291.000000;0.000710
9290.000000;0.001986
9289.000000;0.003148
9288.000000;0.004356
9287.000000;0.005565
9286.000000;0.006631
9285.000000;0.007635
9284.000000;0.008877
9283.000000;0.010510
9282.000000;0.012316
9281.000000;0.013946
9280.000000;0.015271
9279.000000;0.016421
9278.000000;0.017558
9277.000000;0.018742
9276.000000;0.019979
9275.000000;0.021284
9274.000000;0.022653
9273.000000;0.024037
9272.000000;0.025366
9271.000000;0.026592
9270.000000;0.027704
9269.000000;0.028767
9268.000000;0.029905
9267.000000;0.031192
9266.000000;0.032549
9265.000000;0.033814
9264.000000;0.034933
9263.000000;0.036034
9262.000000;0.037274
9261.000000;0.038651
9260.000000;0.039984
9259.000000;0.041050
9258.000000;0.041751
9257.000000;0.042201
9256.000000;0.042696
9255.000000;0.043553
9254.000000;0.044884
9253.000000;0.046527
9252.000000;0.048193
9251.000000;0.049684
9250.000000;0.050970
9249.000000;0.052118
9248.000000;0.053210
9247.000000;0.054304
9246.000000;0.055416
9245.000000;0.056529
9244.000000;0.057630
9243.000000;0.058736
9242.000000;0.059872
9241.000000;0.061033
9240.000000;0.062199
9239.000000;0.063351
9238.000000;0.064433
9237.000000;0.065372
9236.000000;0.066194
9235.000000;0.067084
9234.000000;0.068208
9233.000000;0.069475
9232.000000;0.070594
9231.000000;0.071421
9230.000000;0.072152
9229.000000;0.073087
9228.000000;0.074271
9227.000000;0.075480
9226.000000;0.076519
9225.000000;0.077426
9224.000000;0.078357
9223.000000;0.079380
9222.000000;0.080416
9221.000000;0.081370
9220.000000;0.082264
9219.000000;0.083237
9218.000000;0.084404
9217.000000;0.085696
9216.000000;0.086893
9215.000000;0.087850
9214.000000;0.088674
9213.000000;0.089569
9212.000000;0.090550
9211.000000;0.091423
9210.000000;0.092074
9209.000000;0.092676
9208.000000;0.093527
9207.000000;0.094761
9206.000000;0.096247
9205.000000;0.097702
9204.000000;0.098835
9203.000000;0.099501
9202.000000;0.099843
9201.000000;0.100240
9200.000000;0.100986
9199.000000;0.102042
9198.000000;0.103159
9197.000000;0.104202
9196.000000;0.105221
9195.000000;0.106266
9194.000000;0.107280
9193.000000;0.108227
9192.000000;0.109166
9191.000000;0.110161
9190.000000;0.111194
9189.000000;0.112210
9188.000000;0.113164
9187.000000;0.114002
9186.000000;0.114704
9185.000000;0.115396
9184.000000;0.116273
9183.000000;0.117339
9182.000000;0.118332
9181.000000;0.119019
9180.000000;0.119473
9179.000000;0.119974
9178.000000;0.120698
9177.000000;0.121616
9176.000000;0.122614
9175.000000;0.123598
9174.000000;0.124490
9173.000000;0.125273
9172.000000;0.126029
9171.000000;0.126849
9170.000000;0.127701
9169.000000;0.128490
9168.000000;0.129222
9167.000000;0.129994
9166.000000;0.130829
9165.000000;0.131628
9164.000000;0.132335
9163.000000;0.133063
9162.000000;0.133965
9161.000000;0.135041
9160.000000;0.136118
9159.000000;0.136995
9158.000000;0.137579
9157.000000;0.137917
9156.000000;0.138151
9155.000000;0.138435
9154.000000;0.138851
9153.000000;0.139405
9152.000000;0.140097
9151.000000;0.140963
9150.000000;0.142024
9149.000000;0.143194
9148.000000;0.144293
9147.000000;0.145161
9146.000000;0.145796
9145.000000;0.146361
9144.000000;0.147054
9143.000000;0.147926
9142.000000;0.148850
9141.000000;0.149668
9140.000000;0.150377
9139.000000;0.151121
9138.000000;0.151995
9137.000000;0.152872
9136.000000;0.153487
9135.000000;0.153735
9134.000000;0.153849
9133.000000;0.154235
9132.000000;0.155080
9131.000000;0.156200
9130.000000;0.157274
9129.000000;0.158163
9128.000000;0.158899
9127.000000;0.159459
9126.000000;0.159744
9125.000000;0.159828
9124.000000;0.160045
9123.000000;0.160692
9122.000000;0.161709
9121.000000;0.162745
9120.000000;0.163486
9119.000000;0.163862
9118.000000;0.163989
9117.000000;0.164063
9116.000000;0.164310
9115.000000;0.164904
9114.000000;0.165858
9113.000000;0.167002
9112.000000;0.168076
9111.000000;0.168869
9110.000000;0.169338
9109.000000;0.169628
9108.000000;0.169982
9107.000000;0.170568
9106.000000;0.171364
9105.000000;0.172201
9104.000000;0.172887
9103.000000;0.173327
9102.000000;0.173576
9101.000000;0.173802
9100.000000;0.174145
9099.000000;0.174606
9098.000000;0.175110
9097.000000;0.175674
9096.000000;0.176401
9095.000000;0.177302
9094.000000;0.178233
9093.000000;0.179073
9092.000000;0.179861
9091.000000;0.180696
9090.000000;0.181575
9089.000000;0.182401
9088.000000;0.183077
9087.000000;0.183539
9086.000000;0.183792
9085.000000;0.184002
9084.000000;0.184436
9083.000000;0.185179
9082.000000;0.185977
9081.000000;0.186466
9080.000000;0.186511
9079.000000;0.186268
9078.000000;0.186035
9077.000000;0.186149
9076.000000;0.186872
9075.000000;0.188154
9074.000000;0.189556
9073.000000;0.190582
9072.000000;0.191103
9071.000000;0.191335
9070.000000;0.191486
9069.000000;0.191641
9068.000000;0.191912
9067.000000;0.192427
9066.000000;0.193102
