Criado como novo conjunto de dados;"0307_DANIEL.spp","64985.4 Secs"
cm-1;Abs
10000.000000;0.570126
9999.000000;0.569216
9998.000000;0.568397
9997.000000;0.567622
9996.000000;0.566697
9995.000000;0.565450
9994.000000;0.563950
9993.000000;0.562487
9992.000000;0.561378
9991.000000;0.560782
9990.000000;0.560631
9989.000000;0.560661
9988.000000;0.560534
9987.000000;0.560065
9986.000000;0.559339
9985.000000;0.558535
9984.000000;0.557685
9983.000000;0.556713
9982.000000;0.555687
9981.000000;0.554844
9980.000000;0.554256
9979.000000;0.553623
9978.000000;0.552572
9977.000000;0.551119
9976.000000;0.549690
9975.000000;0.548663
9974.000000;0.548021
9973.000000;0.547499
9972.000000;0.546940
9971.000000;0.546365
9970.000000;0.545758
9969.000000;0.544965
9968.000000;0.543873
9967.000000;0.542612
9966.000000;0.541461
9965.000000;0.540595
9964.000000;0.539970
9963.000000;0.539434
9962.000000;0.538857
9961.000000;0.538151
9960.000000;0.537282
9959.000000;0.536324
9958.000000;0.535422
9957.000000;0.534612
9956.000000;0.533748
9955.000000;0.532725
9954.000000;0.531735
9953.000000;0.531122
9952.000000;0.530956
9951.000000;0.530876
9950.000000;0.530450
9949.000000;0.529572
9948.000000;0.528434
9947.000000;0.527195
9946.000000;0.525845
9945.000000;0.524393
9944.000000;0.523024
9943.000000;0.521985
9942.000000;0.521337
9941.000000;0.520862
9940.000000;0.520227
9939.000000;0.519274
9938.000000;0.518134
9937.000000;0.517049
9936.000000;0.516088
9935.000000;0.515107
9934.000000;0.514010
9933.000000;0.512947
9932.000000;0.512165
9931.000000;0.511708
9930.000000;0.511362
9929.000000;0.510864
9928.000000;0.510103
9927.000000;0.509145
9926.000000;0.508157
9925.000000;0.507298
9924.000000;0.506579
9923.000000;0.505804
9922.000000;0.504750
9921.000000;0.503455
9920.000000;0.502237
9919.000000;0.501378
9918.000000;0.500837
9917.000000;0.500276
9916.000000;0.499372
9915.000000;0.498095
9914.000000;0.496733
9913.000000;0.495637
9912.000000;0.494879
9911.000000;0.494170
9910.000000;0.493203
9909.000000;0.492025
9908.000000;0.490967
9907.000000;0.490214
9906.000000;0.489592
9905.000000;0.488845
9904.000000;0.487927
9903.000000;0.486915
9902.000000;0.485782
9901.000000;0.484452
9900.000000;0.483034
9899.000000;0.481773
9898.000000;0.480746
9897.000000;0.479766
9896.000000;0.478663
9895.000000;0.477537
9894.000000;0.476612
9893.000000;0.475929
9892.000000;0.475316
9891.000000;0.474622
9890.000000;0.473871
9889.000000;0.473111
9888.000000;0.472266
9887.000000;0.471228
9886.000000;0.470057
9885.000000;0.468946
9884.000000;0.467979
9883.000000;0.467051
9882.000000;0.466071
9881.000000;0.465121
9880.000000;0.464311
9879.000000;0.463558
9878.000000;0.462646
9877.000000;0.461482
9876.000000;0.460163
9875.000000;0.458793
9874.000000;0.457379
9873.000000;0.455924
9872.000000;0.454517
9871.000000;0.453266
9870.000000;0.452215
9869.000000;0.451366
9868.000000;0.450725
9867.000000;0.450283
9866.000000;0.449991
9865.000000;0.449756
9864.000000;0.449373
9863.000000;0.448533
9862.000000;0.447063
9861.000000;0.445219
9860.000000;0.443569
9859.000000;0.442481
9858.000000;0.441828
9857.000000;0.441246
9856.000000;0.440539
9855.000000;0.439702
9854.000000;0.438694
9853.000000;0.437415
9852.000000;0.435927
9851.000000;0.434480
9850.000000;0.433265
9849.000000;0.432217
9848.000000;0.431124
9847.000000;0.429870
9846.000000;0.428544
9845.000000;0.427331
9844.000000;0.426329
9843.000000;0.425455
9842.000000;0.424554
9841.000000;0.423582
9840.000000;0.422618
9839.000000;0.421698
9838.000000;0.420704
9837.000000;0.419473
9836.000000;0.417951
9835.000000;0.416246
9834.000000;0.414585
9833.000000;0.413222
9832.000000;0.412255
9831.000000;0.411461
9830.000000;0.410445
9829.000000;0.409064
9828.000000;0.407601
9827.000000;0.406409
9826.000000;0.405482
9825.000000;0.404538
9824.000000;0.403418
9823.000000;0.402225
9822.000000;0.401096
9821.000000;0.400036
9820.000000;0.398985
9819.000000;0.397899
9818.000000;0.396745
9817.000000;0.395544
9816.000000;0.394464
9815.000000;0.393706
9814.000000;0.393231
9813.000000;0.392685
9812.000000;0.391687
9811.000000;0.390161
9810.000000;0.388387
9809.000000;0.386745
9808.000000;0.385416
9807.000000;0.384247
9806.000000;0.382926
9805.000000;0.381334
9804.000000;0.379694
9803.000000;0.378340
9802.000000;0.377356
9801.000000;0.376538
9800.000000;0.375642
9799.000000;0.374614
9798.000000;0.373575
9797.000000;0.372692
9796.000000;0.371998
9795.000000;0.371249
9794.000000;0.370025
9793.000000;0.368150
9792.000000;0.365987
9791.000000;0.364151
9790.000000;0.362910
9789.000000;0.361990
9788.000000;0.360959
9787.000000;0.359648
9786.000000;0.358159
9785.000000;0.356660
9784.000000;0.355250
9783.000000;0.353951
9782.000000;0.352707
9781.000000;0.351458
9780.000000;0.350224
9779.000000;0.349062
9778.000000;0.347934
9777.000000;0.346739
9776.000000;0.345468
9775.000000;0.344177
9774.000000;0.342806
9773.000000;0.341206
9772.000000;0.339436
9771.000000;0.337824
9770.000000;0.336612
9769.000000;0.335660
9768.000000;0.334637
9767.000000;0.333411
9766.000000;0.332092
9765.000000;0.330771
9764.000000;0.329409
9763.000000;0.327967
9762.000000;0.326508
9761.000000;0.325143
9760.000000;0.323929
9759.000000;0.322807
9758.000000;0.321607
9757.000000;0.320159
9756.000000;0.318468
9755.000000;0.316739
9754.000000;0.315137
9753.000000;0.313609
9752.000000;0.312029
9751.000000;0.310471
9750.000000;0.309201
9749.000000;0.308372
9748.000000;0.307822
9747.000000;0.307175
9746.000000;0.306109
9745.000000;0.304530
9744.000000;0.302598
9743.000000;0.300629
9742.000000;0.298890
9741.000000;0.297420
9740.000000;0.296008
9739.000000;0.294377
9738.000000;0.292435
9737.000000;0.290421
9736.000000;0.288781
9735.000000;0.287800
9734.000000;0.287276
9733.000000;0.286608
9732.000000;0.285278
9731.000000;0.283256
9730.000000;0.280945
9729.000000;0.278811
9728.000000;0.277132
9727.000000;0.275955
9726.000000;0.275088
9725.000000;0.274132
9724.000000;0.272716
9723.000000;0.270818
9722.000000;0.268820
9721.000000;0.267156
9720.000000;0.265940
9719.000000;0.264933
9718.000000;0.263834
9717.000000;0.262535
9716.000000;0.261119
9715.000000;0.259688
9714.000000;0.258218
9713.000000;0.256609
9712.000000;0.254835
9711.000000;0.253027
9710.000000;0.251346
9709.000000;0.249823
9708.000000;0.248348
9707.000000;0.246832
9706.000000;0.245277
9705.000000;0.243673
9704.000000;0.241923
9703.000000;0.239977
9702.000000;0.237982
9701.000000;0.236184
9700.000000;0.234645
9699.000000;0.233191
9698.000000;0.231684
9697.000000;0.230225
9696.000000;0.228975
9695.000000;0.227824
9694.000000;0.226429
9693.000000;0.224615
9692.000000;0.222593
9691.000000;0.220701
9690.000000;0.219037
9689.000000;0.217416
9688.000000;0.215664
9687.000000;0.213847
9686.000000;0.212195
9685.000000;0.210816
9684.000000;0.209505
9683.000000;0.207871
9682.000000;0.205741
9681.000000;0.203402
9680.000000;0.201359
9679.000000;0.199820
9678.000000;0.198528
9677.000000;0.197133
9676.000000;0.195576
9675.000000;0.194000
9674.000000;0.192441
9673.000000;0.190804
9672.000000;0.189096
9671.000000;0.187467
9670.000000;0.185995
9669.000000;0.184567
9668.000000;0.183007
9667.000000;0.181235
9666.000000;0.179281
9665.000000;0.177251
9664.000000;0.175286
9663.000000;0.173460
9662.000000;0.171708
9661.000000;0.169925
9660.000000;0.168136
9659.000000;0.166444
9658.000000;0.164837
9657.000000;0.163165
9656.000000;0.161338
9655.000000;0.159437
9654.000000;0.157614
9653.000000;0.155969
9652.000000;0.154489
9651.000000;0.153013
9650.000000;0.151275
9649.000000;0.149150
9648.000000;0.146871
9647.000000;0.144823
9646.000000;0.143112
9645.000000;0.141512
9644.000000;0.139834
9643.000000;0.138124
9642.000000;0.136425
9641.000000;0.134602
9640.000000;0.132585
9639.000000;0.130572
9638.000000;0.128780
9637.000000;0.127112
9636.000000;0.125293
9635.000000;0.123259
9634.000000;0.121182
9633.000000;0.119196
9632.000000;0.117304
9631.000000;0.115528
9630.000000;0.113911
9629.000000;0.112324
9628.000000;0.110463
9627.000000;0.108160
9626.000000;0.105613
9625.000000;0.103241
9624.000000;0.101337
9623.000000;0.099867
9622.000000;0.098531
9621.000000;0.096997
9620.000000;0.095162
9619.000000;0.093180
9618.000000;0.091229
9617.000000;0.089332
9616.000000;0.087455
9615.000000;0.085668
9614.000000;0.084033
9613.000000;0.082375
9612.000000;0.080374
9611.000000;0.077932
9610.000000;0.075301
9609.000000;0.072794
9608.000000;0.070524
9607.000000;0.068477
9606.000000;0.066660
9605.000000;0.065044
9604.000000;0.063447
9603.000000;0.061631
9602.000000;0.059519
9601.000000;0.057242
9600.000000;0.054981
9599.000000;0.052831
9598.000000;0.050795
9597.000000;0.048830
9596.000000;0.046899
9595.000000;0.045019
9594.000000;0.043233
9593.000000;0.041512
9592.000000;0.039729
9591.000000;0.037774
9590.000000;0.035672
9589.000000;0.033552
9588.000000;0.031534
9587.000000;0.029655
9586.000000;0.027864
9585.000000;0.026037
9584.000000;0.024043
9583.000000;0.021866
9582.000000;0.019646
9581.000000;0.017561
9580.000000;0.015685
9579.000000;0.013991
9578.000000;0.012413
9577.000000;0.010817
9576.000000;0.008954
9575.000000;0.006621
9574.000000;0.003910
9573.000000;0.001198
9572.000000;-0.001193
9571.000000;-0.003262
9570.000000;-0.005228
9569.000000;-0.007222
9568.000000;-0.009155
9567.000000;-0.010859
9566.000000;-0.012282
9565.000000;-0.013547
9564.000000;-0.014867
9563.000000;-0.016404
9562.000000;-0.018180
9561.000000;-0.020136
9560.000000;-0.022276
9559.000000;-0.024659
9558.000000;-0.027229
9557.000000;-0.029750
9556.000000;-0.032013
9555.000000;-0.034070
9554.000000;-0.036160
9553.000000;-0.038432
9552.000000;-0.040859
9551.000000;-0.043342
9550.000000;-0.045752
9549.000000;-0.047864
9548.000000;-0.049469
9547.000000;-0.050635
9546.000000;-0.051735
9545.000000;-0.053128
9544.000000;-0.054893
9543.000000;-0.056949
9542.000000;-0.059248
9541.000000;-0.061713
9540.000000;-0.064121
9539.000000;-0.066265
9538.000000;-0.068186
9537.000000;-0.070056
9536.000000;-0.071896
9535.000000;-0.073593
9534.000000;-0.075187
9533.000000;-0.076918
9532.000000;-0.078900
9531.000000;-0.080928
9530.000000;-0.082711
9529.000000;-0.084194
9528.000000;-0.085539
9527.000000;-0.086894
9526.000000;-0.088293
9525.000000;-0.089744
9524.000000;-0.091311
9523.000000;-0.093097
9522.000000;-0.095157
9521.000000;-0.097373
9520.000000;-0.099444
9519.000000;-0.101083
9518.000000;-0.102310
9517.000000;-0.103489
9516.000000;-0.104999
9515.000000;-0.106893
9514.000000;-0.108879
9513.000000;-0.110583
9512.000000;-0.111839
9511.000000;-0.112831
9510.000000;-0.114005
9509.000000;-0.115714
9508.000000;-0.117850
9507.000000;-0.119928
9506.000000;-0.121592
9505.000000;-0.122968
9504.000000;-0.124396
9503.000000;-0.125959
9502.000000;-0.127436
9501.000000;-0.128678
9500.000000;-0.129829
9499.000000;-0.131130
9498.000000;-0.132656
9497.000000;-0.134309
9496.000000;-0.135954
9495.000000;-0.137504
9494.000000;-0.138910
9493.000000;-0.140162
9492.000000;-0.141271
9491.000000;-0.142257
9490.000000;-0.143186
9489.000000;-0.144176
9488.000000;-0.145292
9487.000000;-0.146403
9486.000000;-0.147262
9485.000000;-0.147788
9484.000000;-0.148232
9483.000000;-0.148988
9482.000000;-0.150241
9481.000000;-0.151778
9480.000000;-0.153115
9479.000000;-0.153853
9478.000000;-0.153998
9477.000000;-0.153999
9476.000000;-0.154390
9475.000000;-0.155335
9474.000000;-0.156543
9473.000000;-0.157635
9472.000000;-0.158467
9471.000000;-0.159087
9470.000000;-0.159529
9469.000000;-0.159828
9468.000000;-0.160156
9467.000000;-0.160737
9466.000000;-0.161580
9465.000000;-0.162421
9464.000000;-0.162991
9463.000000;-0.163263
9462.000000;-0.163407
9461.000000;-0.163621
9460.000000;-0.164036
9459.000000;-0.164679
9458.000000;-0.165392
9457.000000;-0.165874
9456.000000;-0.165956
9455.000000;-0.165822
9454.000000;-0.165812
9453.000000;-0.166003
9452.000000;-0.166138
9451.000000;-0.166017
9450.000000;-0.165779
9449.000000;-0.165694
9448.000000;-0.165767
9447.000000;-0.165742
9446.000000;-0.165428
9445.000000;-0.164860
9444.000000;-0.164157
9443.000000;-0.163421
9442.000000;-0.162841
9441.000000;-0.162700
9440.000000;-0.163112
9439.000000;-0.163809
9438.000000;-0.164311
9437.000000;-0.164300
9436.000000;-0.163790
9435.000000;-0.163022
9434.000000;-0.162293
9433.000000;-0.161790
9432.000000;-0.161462
9431.000000;-0.161035
9430.000000;-0.160267
9429.000000;-0.159210
9428.000000;-0.158151
9427.000000;-0.157303
9426.000000;-0.156660
9425.000000;-0.156143
9424.000000;-0.155755
9423.000000;-0.155502
9422.000000;-0.155257
9421.000000;-0.154816
9420.000000;-0.154066
9419.000000;-0.153049
9418.000000;-0.151904
9417.000000;-0.150822
9416.000000;-0.150000
9415.000000;-0.149518
9414.000000;-0.149222
9413.000000;-0.148795
9412.000000;-0.148013
9411.000000;-0.146931
9410.000000;-0.145771
9409.000000;-0.144660
9408.000000;-0.143536
9407.000000;-0.142304
9406.000000;-0.141025
9405.000000;-0.139853
9404.000000;-0.138806
9403.000000;-0.137716
9402.000000;-0.136444
9401.000000;-0.135085
9400.000000;-0.133873
9399.000000;-0.132923
9398.000000;-0.132137
9397.000000;-0.131345
9396.000000;-0.130456
9395.000000;-0.129473
9394.000000;-0.128440
9393.000000;-0.127404
9392.000000;-0.126377
9391.000000;-0.125320
9390.000000;-0.124179
9389.000000;-0.122951
9388.000000;-0.121667
9387.000000;-0.120335
9386.000000;-0.118946
9385.000000;-0.117559
9384.000000;-0.116316
9383.000000;-0.115330
9382.000000;-0.114556
9381.000000;-0.113779
9380.000000;-0.112707
9379.000000;-0.111154
9378.000000;-0.109230
9377.000000;-0.107333
9376.000000;-0.105860
9375.000000;-0.104851
9374.000000;-0.103984
9373.000000;-0.102888
9372.000000;-0.101398
9371.000000;-0.099557
9370.000000;-0.097539
9369.000000;-0.095648
9368.000000;-0.094185
9367.000000;-0.093161
9366.000000;-0.092215
9365.000000;-0.090967
9364.000000;-0.089416
9363.000000;-0.087849
9362.000000;-0.086435
9361.000000;-0.085100
9360.000000;-0.083793
9359.000000;-0.082633
9358.000000;-0.081688
9357.000000;-0.080754
9356.000000;-0.079538
9355.000000;-0.077991
9354.000000;-0.076302
9353.000000;-0.074614
9352.000000;-0.072898
9351.000000;-0.071113
9350.000000;-0.069363
9349.000000;-0.067816
9348.000000;-0.066528
9347.000000;-0.065413
9346.000000;-0.064340
9345.000000;-0.063217
9344.000000;-0.061993
9343.000000;-0.060639
9342.000000;-0.059138
9341.000000;-0.057461
9340.000000;-0.055604
9339.000000;-0.053691
9338.000000;-0.052025
9337.000000;-0.050893
9336.000000;-0.050248
9335.000000;-0.049637
9334.000000;-0.048556
9333.000000;-0.046897
9332.000000;-0.044984
9331.000000;-0.043166
9330.000000;-0.041475
9329.000000;-0.039761
9328.000000;-0.038039
9327.000000;-0.036524
9326.000000;-0.035318
9325.000000;-0.034214
9324.000000;-0.032940
9323.000000;-0.031478
9322.000000;-0.030024
9321.000000;-0.028676
9320.000000;-0.027308
9319.000000;-0.025792
9318.000000;-0.024200
9317.000000;-0.022737
9316.000000;-0.021541
9315.000000;-0.020597
9314.000000;-0.019773
9313.000000;-0.018845
9312.000000;-0.017574
9311.000000;-0.015871
9310.000000;-0.013897
9309.000000;-0.011928
9308.000000;-0.010153
9307.000000;-0.008633
9306.000000;-0.007404
9305.000000;-0.006441
9304.000000;-0.005533
9303.000000;-0.004359
9302.000000;-0.002802
9301.000000;-0.001098
9300.000000;0.000413
9299.000000;0.001642
9298.000000;0.002756
9297.000000;0.003913
9296.000000;0.005120
9295.000000;0.006337
9294.000000;0.007602
9293.000000;0.008969
9292.000000;0.010408
9291.000000;0.011819
9290.000000;0.013114
9289.000000;0.014261
9288.000000;0.015299
9287.000000;0.016350
9286.000000;0.017575
9285.000000;0.019033
9284.000000;0.020587
9283.000000;0.021993
9282.000000;0.023127
9281.000000;0.024115
9280.000000;0.025213
9279.000000;0.026569
9278.000000;0.028107
9277.000000;0.029642
9276.000000;0.031080
9275.000000;0.032475
9274.000000;0.033891
9273.000000;0.035278
9272.000000;0.036529
9271.000000;0.037629
9270.000000;0.038671
9269.000000;0.039720
9268.000000;0.040747
9267.000000;0.041720
9266.000000;0.042693
9265.000000;0.043738
9264.000000;0.044857
9263.000000;0.046053
9262.000000;0.047415
9261.000000;0.049009
9260.000000;0.050675
9259.000000;0.052091
9258.000000;0.053112
9257.000000;0.053961
9256.000000;0.054971
9255.000000;0.056207
9254.000000;0.057455
9253.000000;0.058539
9252.000000;0.059505
9251.000000;0.060480
9250.000000;0.061492
9249.000000;0.062509
9248.000000;0.063567
9247.000000;0.064729
9246.000000;0.065944
9245.000000;0.067057
9244.000000;0.067977
9243.000000;0.068802
9242.000000;0.069709
9241.000000;0.070766
9240.000000;0.071883
9239.000000;0.072950
9238.000000;0.073979
9237.000000;0.075067
9236.000000;0.076259
9235.000000;0.077493
9234.000000;0.078698
9233.000000;0.079872
9232.000000;0.081020
9231.000000;0.082092
9230.000000;0.083057
9229.000000;0.084014
9228.000000;0.085088
9227.000000;0.086235
9226.000000;0.087265
9225.000000;0.088096
9224.000000;0.088867
9223.000000;0.089737
9222.000000;0.090673
9221.000000;0.091555
9220.000000;0.092408
9219.000000;0.093399
9218.000000;0.094609
9217.000000;0.095919
9216.000000;0.097171
9215.000000;0.098347
9214.000000;0.099547
9213.000000;0.100811
9212.000000;0.102025
9211.000000;0.103010
9210.000000;0.103710
9209.000000;0.104248
9208.000000;0.104807
9207.000000;0.105460
9206.000000;0.106161
9205.000000;0.106882
9204.000000;0.107682
9203.000000;0.108630
9202.000000;0.109722
9201.000000;0.110906
9200.000000;0.112088
9199.000000;0.113118
9198.000000;0.113856
9197.000000;0.114354
9196.000000;0.114873
9195.000000;0.115616
9194.000000;0.116510
9193.000000;0.117354
9192.000000;0.118131
9191.000000;0.119038
9190.000000;0.120203
9189.000000;0.121505
9188.000000;0.122707
9187.000000;0.123672
9186.000000;0.124409
9185.000000;0.125018
9184.000000;0.125637
9183.000000;0.126377
9182.000000;0.127262
9181.000000;0.128245
9180.000000;0.129286
9179.000000;0.130386
9178.000000;0.131507
9177.000000;0.132509
9176.000000;0.133229
9175.000000;0.133622
9174.000000;0.133824
9173.000000;0.134093
9172.000000;0.134646
9171.000000;0.135522
9170.000000;0.136580
9169.000000;0.137658
9168.000000;0.138687
9167.000000;0.139636
9166.000000;0.140427
9165.000000;0.141022
9164.000000;0.141555
9163.000000;0.142249
9162.000000;0.143163
9161.000000;0.144120
9160.000000;0.144930
9159.000000;0.145613
9158.000000;0.146320
9157.000000;0.147115
9156.000000;0.147903
9155.000000;0.148583
9154.000000;0.149199
9153.000000;0.149857
9152.000000;0.150544
9151.000000;0.151112
9150.000000;0.151520
9149.000000;0.152007
9148.000000;0.152848
9147.000000;0.153955
9146.000000;0.154909
9145.000000;0.155461
9144.000000;0.155827
9143.000000;0.156370
9142.000000;0.157169
9141.000000;0.158115
9140.000000;0.159236
9139.000000;0.160599
9138.000000;0.161939
9137.000000;0.162755
9136.000000;0.162904
9135.000000;0.162828
9134.000000;0.163072
9133.000000;0.163750
9132.000000;0.164606
9131.000000;0.165380
9130.000000;0.165977
9129.000000;0.166435
9128.000000;0.166917
9127.000000;0.167627
9126.000000;0.168579
9125.000000;0.169521
9124.000000;0.170207
9123.000000;0.170672
9122.000000;0.171125
9121.000000;0.171681
9120.000000;0.172325
9119.000000;0.173042
9118.000000;0.173798
9117.000000;0.174474
9116.000000;0.174985
9115.000000;0.175468
9114.000000;0.176178
9113.000000;0.177181
9112.000000;0.178275
9111.000000;0.179192
9110.000000;0.179799
9109.000000;0.180119
9108.000000;0.180279
9107.000000;0.180457
9106.000000;0.180772
9105.000000;0.181213
9104.000000;0.181719
9103.000000;0.182282
9102.000000;0.182889
9101.000000;0.183443
9100.000000;0.183866
9099.000000;0.184256
9098.000000;0.184781
9097.000000;0.185436
9096.000000;0.186053
9095.000000;0.186566
9094.000000;0.187110
9093.000000;0.187784
9092.000000;0.188481
9091.000000;0.189034
9090.000000;0.189440
9089.000000;0.189855
9088.000000;0.190423
9087.000000;0.191187
9086.000000;0.192068
9085.000000;0.192874
9084.000000;0.193387
9083.000000;0.193562
9082.000000;0.193624
9081.000000;0.193858
9080.000000;0.194344
9079.000000;0.194931
9078.000000;0.195470
9077.000000;0.195974
9076.000000;0.196553
9075.000000;0.197262
9074.000000;0.198050
9073.000000;0.198809
9072.000000;0.199437
9071.000000;0.199901
9070.000000;0.200280
9069.000000;0.200720
9068.000000;0.201297
9067.000000;0.201904
9066.000000;0.202333
