Criado como novo conjunto de dados;"0307_DANIEL.spp","61565.0 Secs"
cm-1;Abs
10000.000000;0.543609
9999.000000;0.543087
9998.000000;0.542820
9997.000000;0.542458
9996.000000;0.541800
9995.000000;0.540890
9994.000000;0.539915
9993.000000;0.539124
9992.000000;0.538738
9991.000000;0.538731
9990.000000;0.538731
9989.000000;0.538287
9988.000000;0.537313
9987.000000;0.536147
9986.000000;0.535145
9985.000000;0.534339
9984.000000;0.533525
9983.000000;0.532590
9982.000000;0.531631
9981.000000;0.530807
9980.000000;0.530149
9979.000000;0.529513
9978.000000;0.528686
9977.000000;0.527568
9976.000000;0.526275
9975.000000;0.525037
9974.000000;0.523995
9973.000000;0.523106
9972.000000;0.522252
9971.000000;0.521384
9970.000000;0.520554
9969.000000;0.519855
9968.000000;0.519314
9967.000000;0.518839
9966.000000;0.518277
9965.000000;0.517535
9964.000000;0.516639
9963.000000;0.515647
9962.000000;0.514604
9961.000000;0.513635
9960.000000;0.512968
9959.000000;0.512711
9958.000000;0.512613
9957.000000;0.512209
9956.000000;0.511237
9955.000000;0.509823
9954.000000;0.508271
9953.000000;0.506819
9952.000000;0.505616
9951.000000;0.504729
9950.000000;0.504062
9949.000000;0.503370
9948.000000;0.502503
9947.000000;0.501575
9946.000000;0.500820
9945.000000;0.500308
9944.000000;0.499868
9943.000000;0.499247
9942.000000;0.498315
9941.000000;0.497169
9940.000000;0.496054
9939.000000;0.495144
9938.000000;0.494356
9937.000000;0.493467
9936.000000;0.492435
9935.000000;0.491486
9934.000000;0.490824
9933.000000;0.490375
9932.000000;0.489873
9931.000000;0.489118
9930.000000;0.488089
9929.000000;0.486920
9928.000000;0.485844
9927.000000;0.485031
9926.000000;0.484361
9925.000000;0.483458
9924.000000;0.482115
9923.000000;0.480628
9922.000000;0.479522
9921.000000;0.478962
9920.000000;0.478607
9919.000000;0.478026
9918.000000;0.477084
9917.000000;0.475893
9916.000000;0.474565
9915.000000;0.473174
9914.000000;0.471840
9913.000000;0.470710
9912.000000;0.469823
9911.000000;0.469089
9910.000000;0.468395
9909.000000;0.467677
9908.000000;0.466870
9907.000000;0.465875
9906.000000;0.464647
9905.000000;0.463326
9904.000000;0.462191
9903.000000;0.461396
9902.000000;0.460758
9901.000000;0.459908
9900.000000;0.458678
9899.000000;0.457296
9898.000000;0.456154
9897.000000;0.455432
9896.000000;0.454987
9895.000000;0.454525
9894.000000;0.453845
9893.000000;0.452956
9892.000000;0.452018
9891.000000;0.451160
9890.000000;0.450322
9889.000000;0.449319
9888.000000;0.448093
9887.000000;0.446829
9886.000000;0.445735
9885.000000;0.444777
9884.000000;0.443716
9883.000000;0.442419
9882.000000;0.441024
9881.000000;0.439805
9880.000000;0.438921
9879.000000;0.438330
9878.000000;0.437852
9877.000000;0.437307
9876.000000;0.436600
9875.000000;0.435739
9874.000000;0.434770
9873.000000;0.433723
9872.000000;0.432613
9871.000000;0.431451
9870.000000;0.430246
9869.000000;0.429008
9868.000000;0.427768
9867.000000;0.426567
9866.000000;0.425417
9865.000000;0.424334
9864.000000;0.423359
9863.000000;0.422499
9862.000000;0.421630
9861.000000;0.420566
9860.000000;0.419284
9859.000000;0.417996
9858.000000;0.416928
9857.000000;0.416076
9856.000000;0.415255
9855.000000;0.414319
9854.000000;0.413288
9853.000000;0.412275
9852.000000;0.411360
9851.000000;0.410497
9850.000000;0.409516
9849.000000;0.408281
9848.000000;0.406870
9847.000000;0.405547
9846.000000;0.404505
9845.000000;0.403690
9844.000000;0.402895
9843.000000;0.401948
9842.000000;0.400774
9841.000000;0.399404
9840.000000;0.398012
9839.000000;0.396822
9838.000000;0.395873
9837.000000;0.394975
9836.000000;0.393981
9835.000000;0.392981
9834.000000;0.392075
9833.000000;0.391098
9832.000000;0.389812
9831.000000;0.388311
9830.000000;0.386978
9829.000000;0.386019
9828.000000;0.385252
9827.000000;0.384383
9826.000000;0.383293
9825.000000;0.381995
9824.000000;0.380521
9823.000000;0.378987
9822.000000;0.377622
9821.000000;0.376577
9820.000000;0.375739
9819.000000;0.374829
9818.000000;0.373657
9817.000000;0.372246
9816.000000;0.370766
9815.000000;0.369379
9814.000000;0.368115
9813.000000;0.366840
9812.000000;0.365398
9811.000000;0.363815
9810.000000;0.362325
9809.000000;0.361147
9808.000000;0.360278
9807.000000;0.359501
9806.000000;0.358582
9805.000000;0.357428
9804.000000;0.356127
9803.000000;0.354842
9802.000000;0.353657
9801.000000;0.352520
9800.000000;0.351350
9799.000000;0.350135
9798.000000;0.348865
9797.000000;0.347455
9796.000000;0.345870
9795.000000;0.344287
9794.000000;0.342963
9793.000000;0.341948
9792.000000;0.341053
9791.000000;0.340112
9790.000000;0.339115
9789.000000;0.338055
9788.000000;0.336822
9787.000000;0.335365
9786.000000;0.333825
9785.000000;0.332381
9784.000000;0.331026
9783.000000;0.329638
9782.000000;0.328204
9781.000000;0.326871
9780.000000;0.325778
9779.000000;0.324906
9778.000000;0.324062
9777.000000;0.322977
9776.000000;0.321478
9775.000000;0.319658
9774.000000;0.317855
9773.000000;0.316386
9772.000000;0.315299
9771.000000;0.314385
9770.000000;0.313378
9769.000000;0.312130
9768.000000;0.310683
9767.000000;0.309234
9766.000000;0.307978
9765.000000;0.306913
9764.000000;0.305848
9763.000000;0.304645
9762.000000;0.303338
9761.000000;0.301943
9760.000000;0.300285
9759.000000;0.298229
9758.000000;0.296037
9757.000000;0.294272
9756.000000;0.293228
9755.000000;0.292574
9754.000000;0.291676
9753.000000;0.290237
9752.000000;0.288508
9751.000000;0.286896
9750.000000;0.285502
9749.000000;0.284111
9748.000000;0.282574
9747.000000;0.281053
9746.000000;0.279812
9745.000000;0.278859
9744.000000;0.277899
9743.000000;0.276685
9742.000000;0.275289
9741.000000;0.273954
9740.000000;0.272727
9739.000000;0.271351
9738.000000;0.269571
9737.000000;0.267453
9736.000000;0.265376
9735.000000;0.263708
9734.000000;0.262541
9733.000000;0.261667
9732.000000;0.260750
9731.000000;0.259487
9730.000000;0.257747
9729.000000;0.255702
9728.000000;0.253813
9727.000000;0.252498
9726.000000;0.251714
9725.000000;0.250943
9724.000000;0.249712
9723.000000;0.248039
9722.000000;0.246285
9721.000000;0.244667
9720.000000;0.243131
9719.000000;0.241614
9718.000000;0.240125
9717.000000;0.238546
9716.000000;0.236650
9715.000000;0.234509
9714.000000;0.232610
9713.000000;0.231297
9712.000000;0.230248
9711.000000;0.228806
9710.000000;0.226787
9709.000000;0.224659
9708.000000;0.222895
9707.000000;0.221450
9706.000000;0.220020
9705.000000;0.218557
9704.000000;0.217241
9703.000000;0.216068
9702.000000;0.214721
9701.000000;0.212933
9700.000000;0.210836
9699.000000;0.208832
9698.000000;0.207189
9697.000000;0.205841
9696.000000;0.204575
9695.000000;0.203310
9694.000000;0.202118
9693.000000;0.200991
9692.000000;0.199708
9691.000000;0.198032
9690.000000;0.196006
9689.000000;0.193944
9688.000000;0.192108
9687.000000;0.190451
9686.000000;0.188741
9685.000000;0.186885
9684.000000;0.185046
9683.000000;0.183443
9682.000000;0.182082
9681.000000;0.180733
9680.000000;0.179164
9679.000000;0.177377
9678.000000;0.175593
9677.000000;0.174004
9676.000000;0.172566
9675.000000;0.171064
9674.000000;0.169374
9673.000000;0.167608
9672.000000;0.165988
9671.000000;0.164595
9670.000000;0.163282
9669.000000;0.161785
9668.000000;0.159924
9667.000000;0.157716
9666.000000;0.155374
9665.000000;0.153194
9664.000000;0.151359
9663.000000;0.149803
9662.000000;0.148265
9661.000000;0.146519
9660.000000;0.144557
9659.000000;0.142532
9658.000000;0.140566
9657.000000;0.138639
9656.000000;0.136669
9655.000000;0.134645
9654.000000;0.132675
9653.000000;0.130888
9652.000000;0.129317
9651.000000;0.127860
9650.000000;0.126367
9649.000000;0.124762
9648.000000;0.123054
9647.000000;0.121245
9646.000000;0.119284
9645.000000;0.117163
9644.000000;0.115013
9643.000000;0.113021
9642.000000;0.111267
9641.000000;0.109710
9640.000000;0.108300
9639.000000;0.106990
9638.000000;0.105614
9637.000000;0.103928
9636.000000;0.101869
9635.000000;0.099680
9634.000000;0.097627
9633.000000;0.095662
9632.000000;0.093496
9631.000000;0.091038
9630.000000;0.088620
9629.000000;0.086727
9628.000000;0.085509
9627.000000;0.084606
9626.000000;0.083411
9625.000000;0.081574
9624.000000;0.079290
9623.000000;0.077076
9622.000000;0.075225
9621.000000;0.073532
9620.000000;0.071612
9619.000000;0.069410
9618.000000;0.067226
9617.000000;0.065284
9616.000000;0.063457
9615.000000;0.061499
9614.000000;0.059358
9613.000000;0.057170
9612.000000;0.055050
9611.000000;0.053038
9610.000000;0.051192
9609.000000;0.049565
9608.000000;0.048072
9607.000000;0.046481
9606.000000;0.044584
9605.000000;0.042346
9604.000000;0.039902
9603.000000;0.037455
9602.000000;0.035187
9601.000000;0.033216
9600.000000;0.031548
9599.000000;0.030043
9598.000000;0.028448
9597.000000;0.026547
9596.000000;0.024337
9595.000000;0.022022
9594.000000;0.019797
9593.000000;0.017683
9592.000000;0.015644
9591.000000;0.013749
9590.000000;0.012072
9589.000000;0.010447
9588.000000;0.008534
9587.000000;0.006189
9586.000000;0.003629
9585.000000;0.001183
9584.000000;-0.000984
9583.000000;-0.002863
9582.000000;-0.004536
9581.000000;-0.006235
9580.000000;-0.008258
9579.000000;-0.010633
9578.000000;-0.013000
9577.000000;-0.015032
9576.000000;-0.016838
9575.000000;-0.018743
9574.000000;-0.020752
9573.000000;-0.022548
9572.000000;-0.024036
9571.000000;-0.025582
9570.000000;-0.027603
9569.000000;-0.030090
9568.000000;-0.032666
9567.000000;-0.034985
9566.000000;-0.036963
9565.000000;-0.038760
9564.000000;-0.040622
9563.000000;-0.042646
9562.000000;-0.044621
9561.000000;-0.046222
9560.000000;-0.047427
9559.000000;-0.048656
9558.000000;-0.050369
9557.000000;-0.052609
9556.000000;-0.055047
9555.000000;-0.057380
9554.000000;-0.059554
9553.000000;-0.061655
9552.000000;-0.063740
9551.000000;-0.065808
9550.000000;-0.067840
9549.000000;-0.069822
9548.000000;-0.071751
9547.000000;-0.073641
9546.000000;-0.075499
9545.000000;-0.077318
9544.000000;-0.079097
9543.000000;-0.080849
9542.000000;-0.082584
9541.000000;-0.084347
9540.000000;-0.086262
9539.000000;-0.088428
9538.000000;-0.090752
9537.000000;-0.092980
9536.000000;-0.094975
9535.000000;-0.096856
9534.000000;-0.098799
9533.000000;-0.100766
9532.000000;-0.102576
9531.000000;-0.104164
9530.000000;-0.105649
9529.000000;-0.107158
9528.000000;-0.108714
9527.000000;-0.110317
9526.000000;-0.112015
9525.000000;-0.113862
9524.000000;-0.115839
9523.000000;-0.117856
9522.000000;-0.119798
9521.000000;-0.121567
9520.000000;-0.123156
9519.000000;-0.124667
9518.000000;-0.126213
9517.000000;-0.127816
9516.000000;-0.129440
9515.000000;-0.131105
9514.000000;-0.132866
9513.000000;-0.134694
9512.000000;-0.136463
9511.000000;-0.138068
9510.000000;-0.139480
9509.000000;-0.140703
9508.000000;-0.141760
9507.000000;-0.142764
9506.000000;-0.143929
9505.000000;-0.145421
9504.000000;-0.147221
9503.000000;-0.149144
9502.000000;-0.150949
9501.000000;-0.152465
9500.000000;-0.153716
9499.000000;-0.154935
9498.000000;-0.156356
9497.000000;-0.157934
9496.000000;-0.159381
9495.000000;-0.160527
9494.000000;-0.161537
9493.000000;-0.162652
9492.000000;-0.163824
9491.000000;-0.164771
9490.000000;-0.165391
9489.000000;-0.165949
9488.000000;-0.166793
9487.000000;-0.167998
9486.000000;-0.169371
9485.000000;-0.170721
9484.000000;-0.172031
9483.000000;-0.173372
9482.000000;-0.174728
9481.000000;-0.175942
9480.000000;-0.176823
9479.000000;-0.177309
9478.000000;-0.177528
9477.000000;-0.177705
9476.000000;-0.178022
9475.000000;-0.178550
9474.000000;-0.179250
9473.000000;-0.179982
9472.000000;-0.180561
9471.000000;-0.180928
9470.000000;-0.181296
9469.000000;-0.182023
9468.000000;-0.183249
9467.000000;-0.184698
9466.000000;-0.185898
9465.000000;-0.186574
9464.000000;-0.186813
9463.000000;-0.186898
9462.000000;-0.187066
9461.000000;-0.187380
9460.000000;-0.187740
9459.000000;-0.187989
9458.000000;-0.188063
9457.000000;-0.188038
9456.000000;-0.188010
9455.000000;-0.187975
9454.000000;-0.187886
9453.000000;-0.187807
9452.000000;-0.187897
9451.000000;-0.188225
9450.000000;-0.188664
9449.000000;-0.189029
9448.000000;-0.189242
9447.000000;-0.189332
9446.000000;-0.189331
9445.000000;-0.189248
9444.000000;-0.189104
9443.000000;-0.188952
9442.000000;-0.188827
9441.000000;-0.188668
9440.000000;-0.188298
9439.000000;-0.187537
9438.000000;-0.186445
9437.000000;-0.185424
9436.000000;-0.184935
9435.000000;-0.185029
9434.000000;-0.185230
9433.000000;-0.184995
9432.000000;-0.184240
9431.000000;-0.183357
9430.000000;-0.182763
9429.000000;-0.182514
9428.000000;-0.182329
9427.000000;-0.181872
9426.000000;-0.180989
9425.000000;-0.179789
9424.000000;-0.178576
9423.000000;-0.177670
9422.000000;-0.177204
9421.000000;-0.177069
9420.000000;-0.177010
9419.000000;-0.176794
9418.000000;-0.176303
9417.000000;-0.175539
9416.000000;-0.174556
9415.000000;-0.173436
9414.000000;-0.172310
9413.000000;-0.171378
9412.000000;-0.170774
9411.000000;-0.170389
9410.000000;-0.169882
9409.000000;-0.168958
9408.000000;-0.167621
9407.000000;-0.166139
9406.000000;-0.164781
9405.000000;-0.163640
9404.000000;-0.162692
9403.000000;-0.161896
9402.000000;-0.161181
9401.000000;-0.160380
9400.000000;-0.159295
9399.000000;-0.157899
9398.000000;-0.156441
9397.000000;-0.155259
9396.000000;-0.154427
9395.000000;-0.153636
9394.000000;-0.152511
9393.000000;-0.151013
9392.000000;-0.149431
9391.000000;-0.148001
9390.000000;-0.146694
9389.000000;-0.145427
9388.000000;-0.144298
9387.000000;-0.143441
9386.000000;-0.142735
9385.000000;-0.141850
9384.000000;-0.140583
9383.000000;-0.139042
9382.000000;-0.137441
9381.000000;-0.135846
9380.000000;-0.134175
9379.000000;-0.132391
9378.000000;-0.130629
9377.000000;-0.129128
9376.000000;-0.128022
9375.000000;-0.127188
9374.000000;-0.126331
9373.000000;-0.125228
9372.000000;-0.123862
9371.000000;-0.122324
9370.000000;-0.120676
9369.000000;-0.118992
9368.000000;-0.117427
9367.000000;-0.116094
9366.000000;-0.114911
9365.000000;-0.113682
9364.000000;-0.112342
9363.000000;-0.110997
9362.000000;-0.109699
9361.000000;-0.108331
9360.000000;-0.106775
9359.000000;-0.105093
9358.000000;-0.103474
9357.000000;-0.102060
9356.000000;-0.100869
9355.000000;-0.099818
9354.000000;-0.098745
9353.000000;-0.097460
9352.000000;-0.095865
9351.000000;-0.094061
9350.000000;-0.092279
9349.000000;-0.090706
9348.000000;-0.089348
9347.000000;-0.088052
9346.000000;-0.086653
9345.000000;-0.085130
9344.000000;-0.083617
9343.000000;-0.082254
9342.000000;-0.081013
9341.000000;-0.079730
9340.000000;-0.078286
9339.000000;-0.076726
9338.000000;-0.075185
9337.000000;-0.073747
9336.000000;-0.072379
9335.000000;-0.070992
9334.000000;-0.069550
9333.000000;-0.068131
9332.000000;-0.066827
9331.000000;-0.065592
9330.000000;-0.064254
9329.000000;-0.062741
9328.000000;-0.061219
9327.000000;-0.059881
9326.000000;-0.058663
9325.000000;-0.057324
9324.000000;-0.055801
9323.000000;-0.054288
9322.000000;-0.052948
9321.000000;-0.051689
9320.000000;-0.050352
9319.000000;-0.048943
9318.000000;-0.047571
9317.000000;-0.046233
9316.000000;-0.044825
9315.000000;-0.043299
9314.000000;-0.041701
9313.000000;-0.040091
9312.000000;-0.038534
9311.000000;-0.037123
9310.000000;-0.035894
9309.000000;-0.034717
9308.000000;-0.033418
9307.000000;-0.031992
9306.000000;-0.030593
9305.000000;-0.029305
9304.000000;-0.028031
9303.000000;-0.026657
9302.000000;-0.025203
9301.000000;-0.023750
9300.000000;-0.022330
9299.000000;-0.020943
9298.000000;-0.019638
9297.000000;-0.018458
9296.000000;-0.017329
9295.000000;-0.016082
9294.000000;-0.014618
9293.000000;-0.012996
9292.000000;-0.011370
9291.000000;-0.009868
9290.000000;-0.008544
9289.000000;-0.007391
9288.000000;-0.006358
9287.000000;-0.005354
9286.000000;-0.004299
9285.000000;-0.003179
9284.000000;-0.002010
9283.000000;-0.000788
9282.000000;0.000507
9281.000000;0.001859
9280.000000;0.003221
9279.000000;0.004593
9278.000000;0.006028
9277.000000;0.007500
9276.000000;0.008854
9275.000000;0.009949
9274.000000;0.010822
9273.000000;0.011643
9272.000000;0.012539
9271.000000;0.013584
9270.000000;0.014883
9269.000000;0.016490
9268.000000;0.018222
9267.000000;0.019704
9266.000000;0.020740
9265.000000;0.021536
9264.000000;0.022463
9263.000000;0.023648
9262.000000;0.024930
9261.000000;0.026129
9260.000000;0.027255
9259.000000;0.028436
9258.000000;0.029751
9257.000000;0.031178
9256.000000;0.032623
9255.000000;0.033988
9254.000000;0.035214
9253.000000;0.036315
9252.000000;0.037359
9251.000000;0.038431
9250.000000;0.039581
9249.000000;0.040771
9248.000000;0.041865
9247.000000;0.042750
9246.000000;0.043468
9245.000000;0.044185
9244.000000;0.045006
9243.000000;0.045921
9242.000000;0.046952
9241.000000;0.048200
9240.000000;0.049651
9239.000000;0.051064
9238.000000;0.052196
9237.000000;0.053092
9236.000000;0.053990
9235.000000;0.055003
9234.000000;0.056048
9233.000000;0.057070
9232.000000;0.058162
9231.000000;0.059437
9230.000000;0.060886
9229.000000;0.062414
9228.000000;0.063879
9227.000000;0.065102
9226.000000;0.065979
9225.000000;0.066642
9224.000000;0.067362
9223.000000;0.068243
9222.000000;0.069125
9221.000000;0.069837
9220.000000;0.070426
9219.000000;0.071045
9218.000000;0.071753
9217.000000;0.072555
9216.000000;0.073518
9215.000000;0.074683
9214.000000;0.075900
9213.000000;0.076900
9212.000000;0.077588
9211.000000;0.078163
9210.000000;0.078931
9209.000000;0.080045
9208.000000;0.081418
9207.000000;0.082832
9206.000000;0.084101
9205.000000;0.085210
9204.000000;0.086282
9203.000000;0.087399
9202.000000;0.088457
9201.000000;0.089292
9200.000000;0.089928
9199.000000;0.090615
9198.000000;0.091557
9197.000000;0.092656
9196.000000;0.093647
9195.000000;0.094448
9194.000000;0.095260
9193.000000;0.096261
9192.000000;0.097315
9191.000000;0.098128
9190.000000;0.098658
9189.000000;0.099199
9188.000000;0.099987
9187.000000;0.100870
9186.000000;0.101518
9185.000000;0.101881
9184.000000;0.102268
9183.000000;0.102979
9182.000000;0.103998
9181.000000;0.105119
9180.000000;0.106219
9179.000000;0.107332
9178.000000;0.108509
9177.000000;0.109699
9176.000000;0.110762
9175.000000;0.111578
9174.000000;0.112197
9173.000000;0.112864
9172.000000;0.113818
9171.000000;0.115033
9170.000000;0.116220
9169.000000;0.117118
9168.000000;0.117710
9167.000000;0.118111
9166.000000;0.118374
9165.000000;0.118526
9164.000000;0.118737
9163.000000;0.119295
9162.000000;0.120357
9161.000000;0.121765
9160.000000;0.123150
9159.000000;0.124220
9158.000000;0.124953
9157.000000;0.125542
9156.000000;0.126155
9155.000000;0.126801
9154.000000;0.127436
9153.000000;0.128117
9152.000000;0.128927
9151.000000;0.129779
9150.000000;0.130458
9149.000000;0.130925
9148.000000;0.131440
9147.000000;0.132275
9146.000000;0.133395
9145.000000;0.134526
9144.000000;0.135474
9143.000000;0.136249
9142.000000;0.136922
9141.000000;0.137522
9140.000000;0.138077
9139.000000;0.138660
9138.000000;0.139318
9137.000000;0.140048
9136.000000;0.140844
9135.000000;0.141701
9134.000000;0.142534
9133.000000;0.143172
9132.000000;0.143514
9131.000000;0.143665
9130.000000;0.143869
9129.000000;0.144310
9128.000000;0.144984
9127.000000;0.145756
9126.000000;0.146513
9125.000000;0.147231
9124.000000;0.147935
9123.000000;0.148638
9122.000000;0.149357
9121.000000;0.150136
9120.000000;0.150981
9119.000000;0.151792
9118.000000;0.152447
9117.000000;0.152961
9116.000000;0.153481
9115.000000;0.154083
9114.000000;0.154654
9113.000000;0.155036
9112.000000;0.155238
9111.000000;0.155453
9110.000000;0.155917
9109.000000;0.156758
9108.000000;0.157895
9107.000000;0.159017
9106.000000;0.159789
9105.000000;0.160178
9104.000000;0.160499
9103.000000;0.161047
9102.000000;0.161735
9101.000000;0.162266
9100.000000;0.162581
9099.000000;0.162955
9098.000000;0.163630
9097.000000;0.164531
9096.000000;0.165421
9095.000000;0.166174
9094.000000;0.166790
9093.000000;0.167250
9092.000000;0.167508
9091.000000;0.167641
9090.000000;0.167858
9089.000000;0.168312
9088.000000;0.168940
9087.000000;0.169535
9086.000000;0.169974
9085.000000;0.170343
9084.000000;0.170821
9083.000000;0.171457
9082.000000;0.172104
9081.000000;0.172593
9080.000000;0.172912
9079.000000;0.173192
9078.000000;0.173531
9077.000000;0.173929
9076.000000;0.174365
9075.000000;0.174882
9074.000000;0.175524
9073.000000;0.176242
9072.000000;0.176922
9071.000000;0.177491
9070.000000;0.177984
9069.000000;0.178498
9068.000000;0.179139
9067.000000;0.179975
