Criado como novo conjunto de dados;"0307_DANIEL.spp","31323.4 Secs"
cm-1;Abs
10000.000000;1.088676
9999.000000;1.087760
9998.000000;1.086990
9997.000000;1.085975
9996.000000;1.084654
9995.000000;1.083350
9994.000000;1.082387
9993.000000;1.081692
9992.000000;1.080908
9991.000000;1.079881
9990.000000;1.078790
9989.000000;1.077774
9988.000000;1.076738
9987.000000;1.075649
9986.000000;1.074717
9985.000000;1.074050
9984.000000;1.073324
9983.000000;1.072097
9982.000000;1.070346
9981.000000;1.068484
9980.000000;1.066935
9979.000000;1.065885
9978.000000;1.065274
9977.000000;1.064787
9976.000000;1.063936
9975.000000;1.062486
9974.000000;1.060787
9973.000000;1.059444
9972.000000;1.058629
9971.000000;1.057918
9970.000000;1.056784
9969.000000;1.055011
9968.000000;1.052706
9967.000000;1.050209
9966.000000;1.048095
9965.000000;1.046886
9964.000000;1.046532
9963.000000;1.046309
9962.000000;1.045414
9961.000000;1.043660
9960.000000;1.041546
9959.000000;1.039733
9958.000000;1.038532
9957.000000;1.037734
9956.000000;1.036864
9955.000000;1.035655
9954.000000;1.034287
9953.000000;1.033059
9952.000000;1.031911
9951.000000;1.030507
9950.000000;1.028804
9949.000000;1.027211
9948.000000;1.026027
9947.000000;1.025021
9946.000000;1.023823
9945.000000;1.022492
9944.000000;1.021375
9943.000000;1.020511
9942.000000;1.019530
9941.000000;1.018232
9940.000000;1.016960
9939.000000;1.016197
9938.000000;1.015903
9937.000000;1.015412
9936.000000;1.014017
9935.000000;1.011639
9934.000000;1.008936
9933.000000;1.006746
9932.000000;1.005409
9931.000000;1.004604
9930.000000;1.003822
9929.000000;1.002884
9928.000000;1.001961
9927.000000;1.001192
9926.000000;1.000442
9925.000000;0.999447
9924.000000;0.998078
9923.000000;0.996433
9922.000000;0.994717
9921.000000;0.993083
9920.000000;0.991589
9919.000000;0.990238
9918.000000;0.989001
9917.000000;0.987760
9916.000000;0.986352
9915.000000;0.984792
9914.000000;0.983396
9913.000000;0.982477
9912.000000;0.981850
9911.000000;0.980822
9910.000000;0.978878
9909.000000;0.976284
9908.000000;0.973873
9907.000000;0.972282
9906.000000;0.971501
9905.000000;0.971060
9904.000000;0.970437
9903.000000;0.969304
9902.000000;0.967621
9901.000000;0.965628
9900.000000;0.963651
9899.000000;0.961827
9898.000000;0.960070
9897.000000;0.958354
9896.000000;0.956912
9895.000000;0.956006
9894.000000;0.955548
9893.000000;0.955071
9892.000000;0.954143
9891.000000;0.952719
9890.000000;0.951064
9889.000000;0.949399
9888.000000;0.947739
9887.000000;0.946049
9886.000000;0.944421
9885.000000;0.943015
9884.000000;0.941891
9883.000000;0.940976
9882.000000;0.940169
9881.000000;0.939397
9880.000000;0.938553
9879.000000;0.937495
9878.000000;0.936161
9877.000000;0.934631
9876.000000;0.933038
9875.000000;0.931464
9874.000000;0.929968
9873.000000;0.928647
9872.000000;0.927549
9871.000000;0.926513
9870.000000;0.925204
9869.000000;0.923415
9868.000000;0.921333
9867.000000;0.919429
9866.000000;0.918001
9865.000000;0.916865
9864.000000;0.915555
9863.000000;0.913851
9862.000000;0.911977
9861.000000;0.910265
9860.000000;0.908751
9859.000000;0.907278
9858.000000;0.905861
9857.000000;0.904708
9856.000000;0.903807
9855.000000;0.902724
9854.000000;0.901028
9853.000000;0.898875
9852.000000;0.896985
9851.000000;0.895976
9850.000000;0.895755
9849.000000;0.895560
9848.000000;0.894598
9847.000000;0.892703
9846.000000;0.890399
9845.000000;0.888348
9844.000000;0.886780
9843.000000;0.885431
9842.000000;0.883985
9841.000000;0.882432
9840.000000;0.880984
9839.000000;0.879715
9838.000000;0.878424
9837.000000;0.876840
9836.000000;0.874917
9835.000000;0.872900
9834.000000;0.871083
9833.000000;0.869505
9832.000000;0.867944
9831.000000;0.866245
9830.000000;0.864583
9829.000000;0.863266
9828.000000;0.862307
9827.000000;0.861341
9826.000000;0.860026
9825.000000;0.858368
9824.000000;0.856610
9823.000000;0.854921
9822.000000;0.853315
9821.000000;0.851734
9820.000000;0.850111
9819.000000;0.848431
9818.000000;0.846802
9817.000000;0.845377
9816.000000;0.844099
9815.000000;0.842672
9814.000000;0.840921
9813.000000;0.839034
9812.000000;0.837284
9811.000000;0.835643
9810.000000;0.833896
9809.000000;0.832065
9808.000000;0.830428
9807.000000;0.829098
9806.000000;0.827838
9805.000000;0.826384
9804.000000;0.824700
9803.000000;0.822843
9802.000000;0.820812
9801.000000;0.818702
9800.000000;0.816828
9799.000000;0.815450
9798.000000;0.814452
9797.000000;0.813457
9796.000000;0.812247
9795.000000;0.810933
9794.000000;0.809727
9793.000000;0.808676
9792.000000;0.807624
9791.000000;0.806319
9790.000000;0.804585
9789.000000;0.802457
9788.000000;0.800169
9787.000000;0.797969
9786.000000;0.795978
9785.000000;0.794225
9784.000000;0.792684
9783.000000;0.791187
9782.000000;0.789418
9781.000000;0.787224
9780.000000;0.784898
9779.000000;0.782947
9778.000000;0.781556
9777.000000;0.780439
9776.000000;0.779269
9775.000000;0.778050
9774.000000;0.776943
9773.000000;0.775876
9772.000000;0.774520
9771.000000;0.772637
9770.000000;0.770317
9769.000000;0.767870
9768.000000;0.765603
9767.000000;0.763692
9766.000000;0.762122
9765.000000;0.760710
9764.000000;0.759240
9763.000000;0.757677
9762.000000;0.756200
9761.000000;0.754967
9760.000000;0.753858
9759.000000;0.752518
9758.000000;0.750700
9757.000000;0.748541
9756.000000;0.746417
9755.000000;0.744530
9754.000000;0.742693
9753.000000;0.740586
9752.000000;0.738187
9751.000000;0.735865
9750.000000;0.734010
9749.000000;0.732661
9748.000000;0.731484
9747.000000;0.730067
9746.000000;0.728219
9745.000000;0.726077
9744.000000;0.723953
9743.000000;0.722036
9742.000000;0.720202
9741.000000;0.718169
9740.000000;0.715862
9739.000000;0.713531
9738.000000;0.711458
9737.000000;0.709669
9736.000000;0.708046
9735.000000;0.706607
9734.000000;0.705466
9733.000000;0.704518
9732.000000;0.703374
9731.000000;0.701723
9730.000000;0.699663
9729.000000;0.697578
9728.000000;0.695709
9727.000000;0.693952
9726.000000;0.692043
9725.000000;0.689895
9724.000000;0.687705
9723.000000;0.685749
9722.000000;0.684102
9721.000000;0.682596
9720.000000;0.681021
9719.000000;0.679265
9718.000000;0.677246
9717.000000;0.674876
9716.000000;0.672227
9715.000000;0.669637
9714.000000;0.667432
9713.000000;0.665592
9712.000000;0.663881
9711.000000;0.662328
9710.000000;0.661286
9709.000000;0.660884
9708.000000;0.660604
9707.000000;0.659638
9706.000000;0.657574
9705.000000;0.654604
9704.000000;0.651196
9703.000000;0.647821
9702.000000;0.644897
9701.000000;0.642657
9700.000000;0.640932
9699.000000;0.639259
9698.000000;0.637359
9697.000000;0.635405
9696.000000;0.633700
9695.000000;0.632241
9694.000000;0.630760
9693.000000;0.629098
9692.000000;0.627330
9691.000000;0.625497
9690.000000;0.623423
9689.000000;0.620948
9688.000000;0.618232
9687.000000;0.615678
9686.000000;0.613552
9685.000000;0.611809
9684.000000;0.610237
9683.000000;0.608614
9682.000000;0.606714
9681.000000;0.604371
9680.000000;0.601717
9679.000000;0.599219
9678.000000;0.597284
9677.000000;0.595812
9676.000000;0.594281
9675.000000;0.592269
9674.000000;0.589775
9673.000000;0.587068
9672.000000;0.584443
9671.000000;0.582169
9670.000000;0.580415
9669.000000;0.579049
9668.000000;0.577631
9667.000000;0.575826
9666.000000;0.573762
9665.000000;0.571815
9664.000000;0.570086
9663.000000;0.568278
9662.000000;0.566096
9661.000000;0.563601
9660.000000;0.561100
9659.000000;0.558808
9658.000000;0.556687
9657.000000;0.554555
9656.000000;0.552270
9655.000000;0.549841
9654.000000;0.547411
9653.000000;0.545136
9652.000000;0.543074
9651.000000;0.541172
9650.000000;0.539307
9649.000000;0.537318
9648.000000;0.535077
9647.000000;0.532642
9646.000000;0.530307
9645.000000;0.528358
9644.000000;0.526750
9643.000000;0.525089
9642.000000;0.523002
9641.000000;0.520527
9640.000000;0.518089
9639.000000;0.516098
9638.000000;0.514568
9637.000000;0.513118
9636.000000;0.511331
9635.000000;0.509127
9634.000000;0.506731
9633.000000;0.504306
9632.000000;0.501766
9631.000000;0.499041
9630.000000;0.496380
9629.000000;0.494165
9628.000000;0.492412
9627.000000;0.490672
9626.000000;0.488528
9625.000000;0.486035
9624.000000;0.483549
9623.000000;0.481253
9622.000000;0.479005
9621.000000;0.476594
9620.000000;0.473973
9619.000000;0.471243
9618.000000;0.468560
9617.000000;0.466077
9616.000000;0.463864
9615.000000;0.461822
9614.000000;0.459769
9613.000000;0.457649
9612.000000;0.455568
9611.000000;0.453551
9610.000000;0.451410
9609.000000;0.448984
9608.000000;0.446434
9607.000000;0.444097
9606.000000;0.442035
9605.000000;0.439947
9604.000000;0.437579
9603.000000;0.435040
9602.000000;0.432570
9601.000000;0.430140
9600.000000;0.427520
9599.000000;0.424684
9598.000000;0.421939
9597.000000;0.419593
9596.000000;0.417654
9595.000000;0.415897
9594.000000;0.414087
9593.000000;0.412095
9592.000000;0.409917
9591.000000;0.407687
9590.000000;0.405594
9589.000000;0.403718
9588.000000;0.401947
9587.000000;0.400047
9586.000000;0.397768
9585.000000;0.394936
9584.000000;0.391655
9583.000000;0.388414
9582.000000;0.385767
9581.000000;0.383765
9580.000000;0.381887
9579.000000;0.379664
9578.000000;0.377206
9577.000000;0.374882
9576.000000;0.372695
9575.000000;0.370274
9574.000000;0.367462
9573.000000;0.364545
9572.000000;0.361860
9571.000000;0.359440
9570.000000;0.357156
9569.000000;0.354976
9568.000000;0.352901
9567.000000;0.350810
9566.000000;0.348563
9565.000000;0.346207
9564.000000;0.343928
9563.000000;0.341826
9562.000000;0.339810
9561.000000;0.337711
9560.000000;0.335407
9559.000000;0.332880
9558.000000;0.330234
9557.000000;0.327665
9556.000000;0.325340
9555.000000;0.323276
9554.000000;0.321322
9553.000000;0.319272
9552.000000;0.317012
9551.000000;0.314581
9550.000000;0.312106
9549.000000;0.309654
9548.000000;0.307189
9547.000000;0.304692
9546.000000;0.302269
9545.000000;0.300050
9544.000000;0.297996
9543.000000;0.295932
9542.000000;0.293798
9541.000000;0.291748
9540.000000;0.289921
9539.000000;0.288194
9538.000000;0.286242
9537.000000;0.283839
9536.000000;0.281075
9535.000000;0.278287
9534.000000;0.275801
9533.000000;0.273670
9532.000000;0.271627
9531.000000;0.269353
9530.000000;0.266827
9529.000000;0.264367
9528.000000;0.262295
9527.000000;0.260604
9526.000000;0.258993
9525.000000;0.257149
9524.000000;0.254945
9523.000000;0.252449
9522.000000;0.249867
9521.000000;0.247458
9520.000000;0.245389
9519.000000;0.243648
9518.000000;0.242148
9517.000000;0.240874
9516.000000;0.239812
9515.000000;0.238718
9514.000000;0.237161
9513.000000;0.234948
9512.000000;0.232414
9511.000000;0.230098
9510.000000;0.228166
9509.000000;0.226304
9508.000000;0.224204
9507.000000;0.221954
9506.000000;0.219855
9505.000000;0.218011
9504.000000;0.216307
9503.000000;0.214694
9502.000000;0.213264
9501.000000;0.212025
9500.000000;0.210776
9499.000000;0.209274
9498.000000;0.207454
9497.000000;0.205404
9496.000000;0.203286
9495.000000;0.201316
9494.000000;0.199734
9493.000000;0.198646
9492.000000;0.197913
9491.000000;0.197217
9490.000000;0.196260
9489.000000;0.194924
9488.000000;0.193316
9487.000000;0.191689
9486.000000;0.190216
9485.000000;0.188856
9484.000000;0.187484
9483.000000;0.186127
9482.000000;0.184931
9481.000000;0.183921
9480.000000;0.182948
9479.000000;0.181926
9478.000000;0.180912
9477.000000;0.179908
9476.000000;0.178788
9475.000000;0.177540
9474.000000;0.176382
9473.000000;0.175465
9472.000000;0.174612
9471.000000;0.173565
9470.000000;0.172349
9469.000000;0.171190
9468.000000;0.170171
9467.000000;0.169190
9466.000000;0.168187
9465.000000;0.167203
9464.000000;0.166270
9463.000000;0.165452
9462.000000;0.164927
9461.000000;0.164784
9460.000000;0.164752
9459.000000;0.164397
9458.000000;0.163643
9457.000000;0.162874
9456.000000;0.162445
9455.000000;0.162292
9454.000000;0.162098
9453.000000;0.161659
9452.000000;0.160978
9451.000000;0.160152
9450.000000;0.159331
9449.000000;0.158731
9448.000000;0.158564
9447.000000;0.158890
9446.000000;0.159516
9445.000000;0.160036
9444.000000;0.160058
9443.000000;0.159516
9442.000000;0.158739
9441.000000;0.158152
9440.000000;0.157945
9439.000000;0.158089
9438.000000;0.158494
9437.000000;0.158982
9436.000000;0.159247
9435.000000;0.159118
9434.000000;0.158834
9433.000000;0.158803
9432.000000;0.159071
9431.000000;0.159300
9430.000000;0.159312
9429.000000;0.159380
9428.000000;0.159835
9427.000000;0.160617
9426.000000;0.161373
9425.000000;0.161859
9424.000000;0.162107
9423.000000;0.162321
9422.000000;0.162743
9421.000000;0.163501
9420.000000;0.164454
9419.000000;0.165270
9418.000000;0.165735
9417.000000;0.165943
9416.000000;0.166120
9415.000000;0.166394
9414.000000;0.166774
9413.000000;0.167214
9412.000000;0.167634
9411.000000;0.168003
9410.000000;0.168466
9409.000000;0.169220
9408.000000;0.170216
9407.000000;0.171143
9406.000000;0.171818
9405.000000;0.172410
9404.000000;0.173148
9403.000000;0.173975
9402.000000;0.174694
9401.000000;0.175324
9400.000000;0.176091
9399.000000;0.177131
9398.000000;0.178362
9397.000000;0.179619
9396.000000;0.180761
9395.000000;0.181722
9394.000000;0.182575
9393.000000;0.183529
9392.000000;0.184685
9391.000000;0.185819
9390.000000;0.186576
9389.000000;0.186889
9388.000000;0.187097
9387.000000;0.187630
9386.000000;0.188669
9385.000000;0.190064
9384.000000;0.191500
9383.000000;0.192734
9382.000000;0.193761
9381.000000;0.194769
9380.000000;0.195899
9379.000000;0.197084
9378.000000;0.198174
9377.000000;0.199148
9376.000000;0.200098
9375.000000;0.201063
9374.000000;0.201993
9373.000000;0.202873
9372.000000;0.203772
9371.000000;0.204786
9370.000000;0.205978
9369.000000;0.207349
9368.000000;0.208773
9367.000000;0.210002
9366.000000;0.210887
9365.000000;0.211584
9364.000000;0.212449
9363.000000;0.213695
9362.000000;0.215225
9361.000000;0.216774
9360.000000;0.218122
9359.000000;0.219177
9358.000000;0.219983
9357.000000;0.220715
9356.000000;0.221584
9355.000000;0.222698
9354.000000;0.224023
9353.000000;0.225461
9352.000000;0.226924
9351.000000;0.228353
9350.000000;0.229717
9349.000000;0.231003
9348.000000;0.232174
9347.000000;0.233196
9346.000000;0.234176
9345.000000;0.235391
9344.000000;0.237023
9343.000000;0.238865
9342.000000;0.240446
9341.000000;0.241503
9340.000000;0.242208
9339.000000;0.242889
9338.000000;0.243662
9337.000000;0.244435
9336.000000;0.245180
9335.000000;0.246053
9334.000000;0.247246
9333.000000;0.248793
9332.000000;0.250496
9331.000000;0.252030
9330.000000;0.253192
9329.000000;0.254099
9328.000000;0.255078
9327.000000;0.256300
9326.000000;0.257582
9325.000000;0.258651
9324.000000;0.259505
9323.000000;0.260401
9322.000000;0.261519
9321.000000;0.262793
9320.000000;0.264075
9319.000000;0.265319
9318.000000;0.266540
9317.000000;0.267724
9316.000000;0.268864
9315.000000;0.269989
9314.000000;0.271073
9313.000000;0.271998
9312.000000;0.272738
9311.000000;0.273518
9310.000000;0.274659
9309.000000;0.276229
9308.000000;0.277935
9307.000000;0.279383
9306.000000;0.280431
9305.000000;0.281273
9304.000000;0.282261
9303.000000;0.283610
9302.000000;0.285221
9301.000000;0.286740
9300.000000;0.287879
9299.000000;0.288694
9298.000000;0.289517
9297.000000;0.290631
9296.000000;0.292046
9295.000000;0.293566
9294.000000;0.294937
9293.000000;0.295955
9292.000000;0.296568
9291.000000;0.297003
9290.000000;0.297674
9289.000000;0.298835
9288.000000;0.300356
9287.000000;0.301881
9286.000000;0.303193
9285.000000;0.304327
9284.000000;0.305400
9283.000000;0.306434
9282.000000;0.307353
9281.000000;0.308088
9280.000000;0.308660
9279.000000;0.309206
9278.000000;0.309916
9277.000000;0.310873
9276.000000;0.311972
9275.000000;0.313036
9274.000000;0.313997
9273.000000;0.314893
9272.000000;0.315761
9271.000000;0.316598
9270.000000;0.317441
9269.000000;0.318373
9268.000000;0.319424
9267.000000;0.320530
9266.000000;0.321590
9265.000000;0.322539
9264.000000;0.323377
9263.000000;0.324181
9262.000000;0.325059
9261.000000;0.326033
9260.000000;0.326990
9259.000000;0.327829
9258.000000;0.328638
9257.000000;0.329596
9256.000000;0.330728
9255.000000;0.331865
9254.000000;0.332878
9253.000000;0.333825
9252.000000;0.334799
9251.000000;0.335751
9250.000000;0.336572
9249.000000;0.337286
9248.000000;0.338056
9247.000000;0.338997
9246.000000;0.340039
9245.000000;0.340992
9244.000000;0.341729
9243.000000;0.342326
9242.000000;0.343009
9241.000000;0.343950
9240.000000;0.345078
9239.000000;0.346171
9238.000000;0.347110
9237.000000;0.347997
9236.000000;0.348969
9235.000000;0.349979
9234.000000;0.350847
9233.000000;0.351488
9232.000000;0.352021
9231.000000;0.352649
9230.000000;0.353469
9229.000000;0.354399
9228.000000;0.355297
9227.000000;0.356119
9226.000000;0.356966
9225.000000;0.357933
9224.000000;0.358954
9223.000000;0.359868
9222.000000;0.360631
9221.000000;0.361358
9220.000000;0.362126
9219.000000;0.362845
9218.000000;0.363408
9217.000000;0.363882
9216.000000;0.364448
9215.000000;0.365184
9214.000000;0.366012
9213.000000;0.366830
9212.000000;0.367591
9211.000000;0.368253
9210.000000;0.368773
9209.000000;0.369209
9208.000000;0.369755
9207.000000;0.370600
9206.000000;0.371752
9205.000000;0.373040
9204.000000;0.374256
9203.000000;0.375267
9202.000000;0.376025
9201.000000;0.376550
9200.000000;0.376938
9199.000000;0.377349
9198.000000;0.377902
9197.000000;0.378583
9196.000000;0.379280
9195.000000;0.379929
9194.000000;0.380579
9193.000000;0.381302
9192.000000;0.382067
9191.000000;0.382778
9190.000000;0.383419
9189.000000;0.384060
9188.000000;0.384716
9187.000000;0.385282
9186.000000;0.385704
9185.000000;0.386148
9184.000000;0.386855
9183.000000;0.387838
9182.000000;0.388833
9181.000000;0.389616
9180.000000;0.390255
9179.000000;0.390940
9178.000000;0.391660
9177.000000;0.392221
9176.000000;0.392591
9175.000000;0.393025
9174.000000;0.393739
9173.000000;0.394591
9172.000000;0.395264
9171.000000;0.395705
9170.000000;0.396206
9169.000000;0.397010
9168.000000;0.398015
9167.000000;0.398906
9166.000000;0.399488
9165.000000;0.399802
9164.000000;0.400033
9163.000000;0.400368
9162.000000;0.400884
9161.000000;0.401454
9160.000000;0.401845
9159.000000;0.401991
9158.000000;0.402126
9157.000000;0.402544
9156.000000;0.403273
9155.000000;0.404087
9154.000000;0.404783
9153.000000;0.405344
9152.000000;0.405858
9151.000000;0.406410
9150.000000;0.407073
9149.000000;0.407885
9148.000000;0.408782
9147.000000;0.409620
9146.000000;0.410298
9145.000000;0.410811
9144.000000;0.411182
9143.000000;0.411406
9142.000000;0.411509
9141.000000;0.411603
9140.000000;0.411862
9139.000000;0.412424
9138.000000;0.413277
9137.000000;0.414214
9136.000000;0.414963
9135.000000;0.415429
9134.000000;0.415767
9133.000000;0.416156
9132.000000;0.416548
9131.000000;0.416772
9130.000000;0.416831
9129.000000;0.416938
9128.000000;0.417233
9127.000000;0.417634
9126.000000;0.418021
9125.000000;0.418424
9124.000000;0.418942
9123.000000;0.419559
9122.000000;0.420165
9121.000000;0.420718
9120.000000;0.421286
9119.000000;0.421907
9118.000000;0.422492
9117.000000;0.422897
9116.000000;0.423113
9115.000000;0.423344
9114.000000;0.423829
9113.000000;0.424545
9112.000000;0.425185
9111.000000;0.425492
9110.000000;0.425566
9109.000000;0.425716
9108.000000;0.426091
9107.000000;0.426587
9106.000000;0.427096
9105.000000;0.427636
9104.000000;0.428214
9103.000000;0.428745
9102.000000;0.429189
9101.000000;0.429627
9100.000000;0.430108
9099.000000;0.430549
9098.000000;0.430862
9097.000000;0.431076
9096.000000;0.431261
9095.000000;0.431458
9094.000000;0.431757
9093.000000;0.432314
9092.000000;0.433128
9091.000000;0.433948
9090.000000;0.434526
9089.000000;0.434888
9088.000000;0.435211
9087.000000;0.435512
9086.000000;0.435661
9085.000000;0.435659
9084.000000;0.435687
9083.000000;0.435888
9082.000000;0.436226
9081.000000;0.436596
9080.000000;0.436936
9079.000000;0.437210
9078.000000;0.437389
9077.000000;0.437503
9076.000000;0.437624
9075.000000;0.437759
9074.000000;0.437844
9073.000000;0.437883
9072.000000;0.438013
9071.000000;0.438375
9070.000000;0.438962
9069.000000;0.439633
9068.000000;0.440231
9067.000000;0.440682
9066.000000;0.440999
9065.000000;0.441253
9064.000000;0.441536
9063.000000;0.441913
9062.000000;0.442377
9061.000000;0.442839
9060.000000;0.443190
9059.000000;0.443413
9058.000000;0.443623
9057.000000;0.443930
9056.000000;0.444286
9055.000000;0.444562
9054.000000;0.444777
9053.000000;0.445126
