Criado como novo conjunto de dados;"0307_DANIEL.spp","51304.7 Secs"
cm-1;Abs
10000.000000;0.472235
9999.000000;0.471415
9998.000000;0.470798
9997.000000;0.470169
9996.000000;0.469351
9995.000000;0.468258
9994.000000;0.466911
9993.000000;0.465443
9992.000000;0.464036
9991.000000;0.462818
9990.000000;0.461787
9989.000000;0.460846
9988.000000;0.459885
9987.000000;0.458839
9986.000000;0.457693
9985.000000;0.456478
9984.000000;0.455250
9983.000000;0.454076
9982.000000;0.452999
9981.000000;0.451994
9980.000000;0.450977
9979.000000;0.449876
9978.000000;0.448709
9977.000000;0.447552
9976.000000;0.446437
9975.000000;0.445315
9974.000000;0.444156
9973.000000;0.443015
9972.000000;0.441967
9971.000000;0.440968
9970.000000;0.439883
9969.000000;0.438642
9968.000000;0.437342
9967.000000;0.436171
9966.000000;0.435238
9965.000000;0.434482
9964.000000;0.433707
9963.000000;0.432694
9962.000000;0.431335
9961.000000;0.429707
9960.000000;0.428026
9959.000000;0.426527
9958.000000;0.425352
9957.000000;0.424501
9956.000000;0.423819
9955.000000;0.423057
9954.000000;0.422039
9953.000000;0.420815
9952.000000;0.419582
9951.000000;0.418431
9950.000000;0.417242
9949.000000;0.415885
9948.000000;0.414455
9947.000000;0.413190
9946.000000;0.412160
9945.000000;0.411175
9944.000000;0.410025
9943.000000;0.408735
9942.000000;0.407480
9941.000000;0.406332
9940.000000;0.405176
9939.000000;0.403882
9938.000000;0.402433
9937.000000;0.400887
9936.000000;0.399303
9935.000000;0.397774
9934.000000;0.396455
9933.000000;0.395454
9932.000000;0.394675
9931.000000;0.393865
9930.000000;0.392841
9929.000000;0.391653
9928.000000;0.390466
9927.000000;0.389344
9926.000000;0.388213
9925.000000;0.387032
9924.000000;0.385882
9923.000000;0.384835
9922.000000;0.383791
9921.000000;0.382555
9920.000000;0.381061
9919.000000;0.379446
9918.000000;0.377894
9917.000000;0.376505
9916.000000;0.375320
9915.000000;0.374366
9914.000000;0.373562
9913.000000;0.372676
9912.000000;0.371486
9911.000000;0.370003
9910.000000;0.368438
9909.000000;0.366982
9908.000000;0.365668
9907.000000;0.364448
9906.000000;0.363265
9905.000000;0.362040
9904.000000;0.360700
9903.000000;0.359281
9902.000000;0.357926
9901.000000;0.356709
9900.000000;0.355519
9899.000000;0.354185
9898.000000;0.352679
9897.000000;0.351140
9896.000000;0.349739
9895.000000;0.348548
9894.000000;0.347520
9893.000000;0.346543
9892.000000;0.345512
9891.000000;0.344388
9890.000000;0.343173
9889.000000;0.341854
9888.000000;0.340431
9887.000000;0.338987
9886.000000;0.337651
9885.000000;0.336450
9884.000000;0.335250
9883.000000;0.333923
9882.000000;0.332497
9881.000000;0.331101
9880.000000;0.329826
9879.000000;0.328677
9878.000000;0.327596
9877.000000;0.326450
9876.000000;0.325072
9875.000000;0.323434
9874.000000;0.321734
9873.000000;0.320221
9872.000000;0.318953
9871.000000;0.317785
9870.000000;0.316569
9869.000000;0.315275
9868.000000;0.313970
9867.000000;0.312763
9866.000000;0.311716
9865.000000;0.310723
9864.000000;0.309521
9863.000000;0.307938
9862.000000;0.306105
9861.000000;0.304305
9860.000000;0.302687
9859.000000;0.301239
9858.000000;0.299981
9857.000000;0.298951
9856.000000;0.298019
9855.000000;0.296918
9854.000000;0.295533
9853.000000;0.294000
9852.000000;0.292460
9851.000000;0.290872
9850.000000;0.289192
9849.000000;0.287559
9848.000000;0.286161
9847.000000;0.285001
9846.000000;0.283910
9845.000000;0.282727
9844.000000;0.281369
9843.000000;0.279805
9842.000000;0.278092
9841.000000;0.276407
9840.000000;0.274920
9839.000000;0.273637
9838.000000;0.272409
9837.000000;0.271086
9836.000000;0.269610
9835.000000;0.268014
9834.000000;0.266408
9833.000000;0.264928
9832.000000;0.263621
9831.000000;0.262393
9830.000000;0.261125
9829.000000;0.259802
9828.000000;0.258495
9827.000000;0.257242
9826.000000;0.256004
9825.000000;0.254690
9824.000000;0.253192
9823.000000;0.251458
9822.000000;0.249600
9821.000000;0.247854
9820.000000;0.246369
9819.000000;0.245059
9818.000000;0.243741
9817.000000;0.242348
9816.000000;0.240931
9815.000000;0.239508
9814.000000;0.238031
9813.000000;0.236473
9812.000000;0.234844
9811.000000;0.233139
9810.000000;0.231375
9809.000000;0.229684
9808.000000;0.228235
9807.000000;0.227031
9806.000000;0.225867
9805.000000;0.224536
9804.000000;0.223013
9803.000000;0.221420
9802.000000;0.219862
9801.000000;0.218345
9800.000000;0.216805
9799.000000;0.215178
9798.000000;0.213465
9797.000000;0.211758
9796.000000;0.210175
9795.000000;0.208748
9794.000000;0.207392
9793.000000;0.206001
9792.000000;0.204555
9791.000000;0.203105
9790.000000;0.201659
9789.000000;0.200154
9788.000000;0.198530
9787.000000;0.196839
9786.000000;0.195217
9785.000000;0.193732
9784.000000;0.192307
9783.000000;0.190811
9782.000000;0.189224
9781.000000;0.187653
9780.000000;0.186176
9779.000000;0.184731
9778.000000;0.183180
9777.000000;0.181454
9776.000000;0.179628
9775.000000;0.177860
9774.000000;0.176263
9773.000000;0.174804
9772.000000;0.173323
9771.000000;0.171701
9770.000000;0.169998
9769.000000;0.168364
9768.000000;0.166828
9767.000000;0.165257
9766.000000;0.163551
9765.000000;0.161757
9764.000000;0.159971
9763.000000;0.158211
9762.000000;0.156485
9761.000000;0.154868
9760.000000;0.153402
9759.000000;0.151977
9758.000000;0.150406
9757.000000;0.148633
9756.000000;0.146768
9755.000000;0.144966
9754.000000;0.143326
9753.000000;0.141856
9752.000000;0.140440
9751.000000;0.138880
9750.000000;0.137072
9749.000000;0.135148
9748.000000;0.133336
9747.000000;0.131695
9746.000000;0.130067
9745.000000;0.128299
9744.000000;0.126411
9743.000000;0.124524
9742.000000;0.122727
9741.000000;0.121033
9740.000000;0.119403
9739.000000;0.117759
9738.000000;0.116046
9737.000000;0.114283
9736.000000;0.112523
9735.000000;0.110779
9734.000000;0.109043
9733.000000;0.107364
9732.000000;0.105791
9731.000000;0.104260
9730.000000;0.102620
9729.000000;0.100822
9728.000000;0.098973
9727.000000;0.097157
9726.000000;0.095326
9725.000000;0.093424
9724.000000;0.091537
9723.000000;0.089795
9722.000000;0.088186
9721.000000;0.086564
9720.000000;0.084840
9719.000000;0.083063
9718.000000;0.081301
9717.000000;0.079541
9716.000000;0.077724
9715.000000;0.075842
9714.000000;0.073955
9713.000000;0.072122
9712.000000;0.070341
9711.000000;0.068565
9710.000000;0.066759
9709.000000;0.064938
9708.000000;0.063115
9707.000000;0.061235
9706.000000;0.059208
9705.000000;0.057057
9704.000000;0.054971
9703.000000;0.053135
9702.000000;0.051517
9701.000000;0.049868
9700.000000;0.047988
9699.000000;0.045938
9698.000000;0.043978
9697.000000;0.042294
9696.000000;0.040824
9695.000000;0.039325
9694.000000;0.037592
9693.000000;0.035598
9692.000000;0.033482
9691.000000;0.031423
9690.000000;0.029520
9689.000000;0.027748
9688.000000;0.026004
9687.000000;0.024198
9686.000000;0.022315
9685.000000;0.020392
9684.000000;0.018445
9683.000000;0.016453
9682.000000;0.014399
9681.000000;0.012335
9680.000000;0.010361
9679.000000;0.008537
9678.000000;0.006794
9677.000000;0.004971
9676.000000;0.002955
9675.000000;0.000808
9674.000000;-0.001307
9673.000000;-0.003305
9672.000000;-0.005267
9671.000000;-0.007293
9670.000000;-0.009356
9669.000000;-0.011342
9668.000000;-0.013227
9667.000000;-0.015100
9666.000000;-0.017019
9665.000000;-0.018939
9664.000000;-0.020819
9663.000000;-0.022704
9662.000000;-0.024654
9661.000000;-0.026657
9660.000000;-0.028674
9659.000000;-0.030726
9658.000000;-0.032864
9657.000000;-0.035100
9656.000000;-0.037412
9655.000000;-0.039784
9654.000000;-0.042166
9653.000000;-0.044438
9652.000000;-0.046487
9651.000000;-0.048330
9650.000000;-0.050105
9649.000000;-0.051953
9648.000000;-0.053927
9647.000000;-0.055998
9646.000000;-0.058081
9645.000000;-0.060089
9644.000000;-0.062022
9643.000000;-0.063993
9642.000000;-0.066115
9641.000000;-0.068377
9640.000000;-0.070671
9639.000000;-0.072933
9638.000000;-0.075176
9637.000000;-0.077414
9636.000000;-0.079622
9635.000000;-0.081792
9634.000000;-0.083942
9633.000000;-0.086067
9632.000000;-0.088127
9631.000000;-0.090115
9630.000000;-0.092080
9629.000000;-0.094079
9628.000000;-0.096147
9627.000000;-0.098325
9626.000000;-0.100643
9625.000000;-0.103049
9624.000000;-0.105390
9623.000000;-0.107539
9622.000000;-0.109486
9621.000000;-0.111312
9620.000000;-0.113098
9619.000000;-0.114914
9618.000000;-0.116848
9617.000000;-0.118981
9616.000000;-0.121319
9615.000000;-0.123783
9614.000000;-0.126256
9613.000000;-0.128658
9612.000000;-0.130978
9611.000000;-0.133261
9610.000000;-0.135549
9609.000000;-0.137839
9608.000000;-0.140099
9607.000000;-0.142313
9606.000000;-0.144484
9605.000000;-0.146603
9604.000000;-0.148658
9603.000000;-0.150690
9602.000000;-0.152786
9601.000000;-0.154988
9600.000000;-0.157244
9599.000000;-0.159493
9598.000000;-0.161764
9597.000000;-0.164139
9596.000000;-0.166614
9595.000000;-0.169063
9594.000000;-0.171373
9593.000000;-0.173558
9592.000000;-0.175725
9591.000000;-0.177938
9590.000000;-0.180167
9589.000000;-0.182366
9588.000000;-0.184551
9587.000000;-0.186768
9586.000000;-0.189028
9585.000000;-0.191287
9584.000000;-0.193506
9583.000000;-0.195693
9582.000000;-0.197898
9581.000000;-0.200168
9580.000000;-0.202501
9579.000000;-0.204815
9578.000000;-0.206989
9577.000000;-0.208989
9576.000000;-0.210932
9575.000000;-0.212998
9574.000000;-0.215278
9573.000000;-0.217736
9572.000000;-0.220274
9571.000000;-0.222782
9570.000000;-0.225152
9569.000000;-0.227355
9568.000000;-0.229507
9567.000000;-0.231771
9566.000000;-0.234144
9565.000000;-0.236439
9564.000000;-0.238539
9563.000000;-0.240575
9562.000000;-0.242775
9561.000000;-0.245189
9560.000000;-0.247674
9559.000000;-0.250083
9558.000000;-0.252374
9557.000000;-0.254556
9556.000000;-0.256648
9555.000000;-0.258713
9554.000000;-0.260830
9553.000000;-0.263026
9552.000000;-0.265288
9551.000000;-0.267655
9550.000000;-0.270178
9549.000000;-0.272779
9548.000000;-0.275227
9547.000000;-0.277334
9546.000000;-0.279134
9545.000000;-0.280837
9544.000000;-0.282637
9543.000000;-0.284604
9542.000000;-0.286700
9541.000000;-0.288854
9540.000000;-0.291006
9539.000000;-0.293135
9538.000000;-0.295264
9537.000000;-0.297427
9536.000000;-0.299631
9535.000000;-0.301830
9534.000000;-0.303947
9533.000000;-0.305939
9532.000000;-0.307853
9531.000000;-0.309799
9530.000000;-0.311834
9529.000000;-0.313903
9528.000000;-0.315916
9527.000000;-0.317860
9526.000000;-0.319790
9525.000000;-0.321749
9524.000000;-0.323756
9523.000000;-0.325837
9522.000000;-0.327991
9521.000000;-0.330127
9520.000000;-0.332124
9519.000000;-0.333983
9518.000000;-0.335839
9517.000000;-0.337774
9516.000000;-0.339698
9515.000000;-0.341455
9514.000000;-0.343027
9513.000000;-0.344560
9512.000000;-0.346212
9511.000000;-0.348023
9510.000000;-0.349936
9509.000000;-0.351896
9508.000000;-0.353869
9507.000000;-0.355784
9506.000000;-0.357526
9505.000000;-0.359038
9504.000000;-0.360434
9503.000000;-0.361945
9502.000000;-0.363690
9501.000000;-0.365549
9500.000000;-0.367304
9499.000000;-0.368879
9498.000000;-0.370356
9497.000000;-0.371796
9496.000000;-0.373171
9495.000000;-0.374491
9494.000000;-0.375880
9493.000000;-0.377410
9492.000000;-0.378957
9491.000000;-0.380323
9490.000000;-0.381495
9489.000000;-0.382660
9488.000000;-0.383945
9487.000000;-0.385252
9486.000000;-0.386419
9485.000000;-0.387466
9484.000000;-0.388587
9483.000000;-0.389910
9482.000000;-0.391339
9481.000000;-0.392649
9480.000000;-0.393680
9479.000000;-0.394439
9478.000000;-0.395065
9477.000000;-0.395756
9476.000000;-0.396674
9475.000000;-0.397840
9474.000000;-0.399117
9473.000000;-0.400314
9472.000000;-0.401345
9471.000000;-0.402240
9470.000000;-0.403047
9469.000000;-0.403791
9468.000000;-0.404527
9467.000000;-0.405337
9466.000000;-0.406205
9465.000000;-0.406963
9464.000000;-0.407457
9463.000000;-0.407751
9462.000000;-0.408082
9461.000000;-0.408602
9460.000000;-0.409244
9459.000000;-0.409851
9458.000000;-0.410386
9457.000000;-0.410931
9456.000000;-0.411556
9455.000000;-0.412223
9454.000000;-0.412829
9453.000000;-0.413285
9452.000000;-0.413550
9451.000000;-0.413642
9450.000000;-0.413646
9449.000000;-0.413675
9448.000000;-0.413786
9447.000000;-0.413914
9446.000000;-0.413937
9445.000000;-0.413830
9444.000000;-0.413726
9443.000000;-0.413778
9442.000000;-0.413961
9441.000000;-0.414064
9440.000000;-0.413919
9439.000000;-0.413590
9438.000000;-0.413304
9437.000000;-0.413214
9436.000000;-0.413268
9435.000000;-0.413304
9434.000000;-0.413216
9433.000000;-0.413011
9432.000000;-0.412750
9431.000000;-0.412488
9430.000000;-0.412234
9429.000000;-0.411959
9428.000000;-0.411614
9427.000000;-0.411167
9426.000000;-0.410632
9425.000000;-0.410052
9424.000000;-0.409457
9423.000000;-0.408856
9422.000000;-0.408250
9421.000000;-0.407644
9420.000000;-0.407027
9419.000000;-0.406370
9418.000000;-0.405673
9417.000000;-0.405014
9416.000000;-0.404504
9415.000000;-0.404184
9414.000000;-0.403964
9413.000000;-0.403679
9412.000000;-0.403202
9411.000000;-0.402491
9410.000000;-0.401584
9409.000000;-0.400568
9408.000000;-0.399560
9407.000000;-0.398658
9406.000000;-0.397884
9405.000000;-0.397166
9404.000000;-0.396420
9403.000000;-0.395626
9402.000000;-0.394820
9401.000000;-0.394015
9400.000000;-0.393162
9399.000000;-0.392210
9398.000000;-0.391189
9397.000000;-0.390186
9396.000000;-0.389243
9395.000000;-0.388317
9394.000000;-0.387368
9393.000000;-0.386432
9392.000000;-0.385554
9391.000000;-0.384683
9390.000000;-0.383699
9389.000000;-0.382567
9388.000000;-0.381383
9387.000000;-0.380246
9386.000000;-0.379130
9385.000000;-0.377954
9384.000000;-0.376719
9383.000000;-0.375515
9382.000000;-0.374394
9381.000000;-0.373325
9380.000000;-0.372258
9379.000000;-0.371187
9378.000000;-0.370117
9377.000000;-0.369016
9376.000000;-0.367835
9375.000000;-0.366566
9374.000000;-0.365262
9373.000000;-0.363989
9372.000000;-0.362783
9371.000000;-0.361639
9370.000000;-0.360544
9369.000000;-0.359496
9368.000000;-0.358485
9367.000000;-0.357460
9366.000000;-0.356341
9365.000000;-0.355095
9364.000000;-0.353786
9363.000000;-0.352515
9362.000000;-0.351320
9361.000000;-0.350162
9360.000000;-0.348983
9359.000000;-0.347756
9358.000000;-0.346474
9357.000000;-0.345141
9356.000000;-0.343781
9355.000000;-0.342429
9354.000000;-0.341106
9353.000000;-0.339805
9352.000000;-0.338521
9351.000000;-0.337273
9350.000000;-0.336093
9349.000000;-0.334991
9348.000000;-0.333937
9347.000000;-0.332858
9346.000000;-0.331661
9345.000000;-0.330296
9344.000000;-0.328815
9343.000000;-0.327348
9342.000000;-0.325997
9341.000000;-0.324756
9340.000000;-0.323528
9339.000000;-0.322235
9338.000000;-0.320889
9337.000000;-0.319586
9336.000000;-0.318403
9335.000000;-0.317332
9334.000000;-0.316277
9333.000000;-0.315139
9332.000000;-0.313895
9331.000000;-0.312608
9330.000000;-0.311357
9329.000000;-0.310166
9328.000000;-0.308992
9327.000000;-0.307765
9326.000000;-0.306442
9325.000000;-0.305042
9324.000000;-0.303627
9323.000000;-0.302282
9322.000000;-0.301084
9321.000000;-0.300064
9320.000000;-0.299171
9319.000000;-0.298286
9318.000000;-0.297282
9317.000000;-0.296108
9316.000000;-0.294805
9315.000000;-0.293454
9314.000000;-0.292121
9313.000000;-0.290836
9312.000000;-0.289594
9311.000000;-0.288369
9310.000000;-0.287146
9309.000000;-0.285927
9308.000000;-0.284699
9307.000000;-0.283419
9306.000000;-0.282066
9305.000000;-0.280690
9304.000000;-0.279387
9303.000000;-0.278201
9302.000000;-0.277100
9301.000000;-0.276056
9300.000000;-0.275085
9299.000000;-0.274176
9298.000000;-0.273243
9297.000000;-0.272181
9296.000000;-0.270969
9295.000000;-0.269681
9294.000000;-0.268417
9293.000000;-0.267230
9292.000000;-0.266088
9291.000000;-0.264900
9290.000000;-0.263611
9289.000000;-0.262292
9288.000000;-0.261095
9287.000000;-0.260086
9286.000000;-0.259173
9285.000000;-0.258223
9284.000000;-0.257204
9283.000000;-0.256161
9282.000000;-0.255096
9281.000000;-0.253958
9280.000000;-0.252732
9279.000000;-0.251479
9278.000000;-0.250272
9277.000000;-0.249153
9276.000000;-0.248123
9275.000000;-0.247146
9274.000000;-0.246145
9273.000000;-0.245062
9272.000000;-0.243918
9271.000000;-0.242791
9270.000000;-0.241710
9269.000000;-0.240631
9268.000000;-0.239504
9267.000000;-0.238333
9266.000000;-0.237161
9265.000000;-0.236051
9264.000000;-0.235067
9263.000000;-0.234238
9262.000000;-0.233494
9261.000000;-0.232687
9260.000000;-0.231710
9259.000000;-0.230578
9258.000000;-0.229391
9257.000000;-0.228238
9256.000000;-0.227171
9255.000000;-0.226224
9254.000000;-0.225408
9253.000000;-0.224659
9252.000000;-0.223845
9251.000000;-0.222862
9250.000000;-0.221749
9249.000000;-0.220677
9248.000000;-0.219789
9247.000000;-0.219048
9246.000000;-0.218282
9245.000000;-0.217360
9244.000000;-0.216305
9243.000000;-0.215221
9242.000000;-0.214153
9241.000000;-0.213067
9240.000000;-0.211936
9239.000000;-0.210807
9238.000000;-0.209773
9237.000000;-0.208894
9236.000000;-0.208146
9235.000000;-0.207451
9234.000000;-0.206755
9233.000000;-0.206057
9232.000000;-0.205339
9231.000000;-0.204491
9230.000000;-0.203402
9229.000000;-0.202141
9228.000000;-0.200950
9227.000000;-0.200013
9226.000000;-0.199276
9225.000000;-0.198563
9224.000000;-0.197790
9223.000000;-0.196986
9222.000000;-0.196159
9221.000000;-0.195262
9220.000000;-0.194303
9219.000000;-0.193361
9218.000000;-0.192487
9217.000000;-0.191650
9216.000000;-0.190810
9215.000000;-0.189968
9214.000000;-0.189126
9213.000000;-0.188263
9212.000000;-0.187385
9211.000000;-0.186555
9210.000000;-0.185825
9209.000000;-0.185173
9208.000000;-0.184515
9207.000000;-0.183777
9206.000000;-0.182935
9205.000000;-0.182029
9204.000000;-0.181128
9203.000000;-0.180268
9202.000000;-0.179415
9201.000000;-0.178535
9200.000000;-0.177665
9199.000000;-0.176866
9198.000000;-0.176126
9197.000000;-0.175393
9196.000000;-0.174666
9195.000000;-0.173995
9194.000000;-0.173360
9193.000000;-0.172671
9192.000000;-0.171895
9191.000000;-0.171115
9190.000000;-0.170402
9189.000000;-0.169727
9188.000000;-0.169033
9187.000000;-0.168340
9186.000000;-0.167700
9185.000000;-0.167105
9184.000000;-0.166511
9183.000000;-0.165901
9182.000000;-0.165266
9181.000000;-0.164550
9180.000000;-0.163692
9179.000000;-0.162725
9178.000000;-0.161764
9177.000000;-0.160912
9176.000000;-0.160207
9175.000000;-0.159660
9174.000000;-0.159249
9173.000000;-0.158878
9172.000000;-0.158396
9171.000000;-0.157712
9170.000000;-0.156872
9169.000000;-0.156001
9168.000000;-0.155183
9167.000000;-0.154424
9166.000000;-0.153713
9165.000000;-0.153069
9164.000000;-0.152490
9163.000000;-0.151915
9162.000000;-0.151271
9161.000000;-0.150571
9160.000000;-0.149895
9159.000000;-0.149266
9158.000000;-0.148612
9157.000000;-0.147889
9156.000000;-0.147185
9155.000000;-0.146606
9154.000000;-0.146107
9153.000000;-0.145531
9152.000000;-0.144821
9151.000000;-0.144089
9150.000000;-0.143461
9149.000000;-0.142928
9148.000000;-0.142400
9147.000000;-0.141828
9146.000000;-0.141222
9145.000000;-0.140600
9144.000000;-0.139971
9143.000000;-0.139348
9142.000000;-0.138736
9141.000000;-0.138129
9140.000000;-0.137554
9139.000000;-0.137061
9138.000000;-0.136646
9137.000000;-0.136221
9136.000000;-0.135702
9135.000000;-0.135097
9134.000000;-0.134465
9133.000000;-0.133851
9132.000000;-0.133280
9131.000000;-0.132780
9130.000000;-0.132347
9129.000000;-0.131908
9128.000000;-0.131386
9127.000000;-0.130794
9126.000000;-0.130215
9125.000000;-0.129694
9124.000000;-0.129198
9123.000000;-0.128684
9122.000000;-0.128152
9121.000000;-0.127628
9120.000000;-0.127129
9119.000000;-0.126645
9118.000000;-0.126154
9117.000000;-0.125637
9116.000000;-0.125091
9115.000000;-0.124532
9114.000000;-0.123978
9113.000000;-0.123447
9112.000000;-0.122960
9111.000000;-0.122521
9110.000000;-0.122082
9109.000000;-0.121580
9108.000000;-0.121027
9107.000000;-0.120528
9106.000000;-0.120157
9105.000000;-0.119845
9104.000000;-0.119443
9103.000000;-0.118880
9102.000000;-0.118216
9101.000000;-0.117569
9100.000000;-0.117014
9099.000000;-0.116550
9098.000000;-0.116112
9097.000000;-0.115638
9096.000000;-0.115130
9095.000000;-0.114666
9094.000000;-0.114313
9093.000000;-0.114065
9092.000000;-0.113855
9091.000000;-0.113614
9090.000000;-0.113279
9089.000000;-0.112810
9088.000000;-0.112250
9087.000000;-0.111730
9086.000000;-0.111342
9085.000000;-0.111028
9084.000000;-0.110644
9083.000000;-0.110138
9082.000000;-0.109601
9081.000000;-0.109143
