Criado como novo conjunto de dados;"0307_DANIEL.spp","70565.5 Secs"
cm-1;Abs
10000.000000;0.593795
9999.000000;0.593207
9998.000000;0.592385
9997.000000;0.591388
9996.000000;0.590461
9995.000000;0.589646
9994.000000;0.588794
9993.000000;0.587890
9992.000000;0.587236
9991.000000;0.587092
9990.000000;0.587267
9989.000000;0.587205
9988.000000;0.586503
9987.000000;0.585249
9986.000000;0.583871
9985.000000;0.582765
9984.000000;0.582090
9983.000000;0.581774
9982.000000;0.581580
9981.000000;0.581199
9980.000000;0.580445
9979.000000;0.579388
9978.000000;0.578250
9977.000000;0.577137
9976.000000;0.575965
9975.000000;0.574669
9974.000000;0.573360
9973.000000;0.572233
9972.000000;0.571371
9971.000000;0.570708
9970.000000;0.570129
9969.000000;0.569518
9968.000000;0.568772
9967.000000;0.567867
9966.000000;0.566890
9965.000000;0.565950
9964.000000;0.565078
9963.000000;0.564286
9962.000000;0.563640
9961.000000;0.563156
9960.000000;0.562662
9959.000000;0.561908
9958.000000;0.560858
9957.000000;0.559742
9956.000000;0.558797
9955.000000;0.558074
9954.000000;0.557521
9953.000000;0.557071
9952.000000;0.556545
9951.000000;0.555648
9950.000000;0.554258
9949.000000;0.552654
9948.000000;0.551265
9947.000000;0.550224
9946.000000;0.549313
9945.000000;0.548369
9944.000000;0.547514
9943.000000;0.546909
9942.000000;0.546413
9941.000000;0.545694
9940.000000;0.544654
9939.000000;0.543600
9938.000000;0.542884
9937.000000;0.542452
9936.000000;0.541886
9935.000000;0.540908
9934.000000;0.539713
9933.000000;0.538674
9932.000000;0.537830
9931.000000;0.536852
9930.000000;0.535571
9929.000000;0.534295
9928.000000;0.533448
9927.000000;0.533012
9926.000000;0.532552
9925.000000;0.531739
9924.000000;0.530638
9923.000000;0.529461
9922.000000;0.528255
9921.000000;0.526962
9920.000000;0.525647
9919.000000;0.524510
9918.000000;0.523696
9917.000000;0.523148
9916.000000;0.522628
9915.000000;0.521852
9914.000000;0.520705
9913.000000;0.519375
9912.000000;0.518196
9911.000000;0.517320
9910.000000;0.516616
9909.000000;0.515925
9908.000000;0.515255
9907.000000;0.514603
9906.000000;0.513784
9905.000000;0.512646
9904.000000;0.511359
9903.000000;0.510253
9902.000000;0.509386
9901.000000;0.508524
9900.000000;0.507566
9899.000000;0.506703
9898.000000;0.506068
9897.000000;0.505451
9896.000000;0.504566
9895.000000;0.503430
9894.000000;0.502276
9893.000000;0.501155
9892.000000;0.499869
9891.000000;0.498291
9890.000000;0.496616
9889.000000;0.495218
9888.000000;0.494342
9887.000000;0.493906
9886.000000;0.493535
9885.000000;0.492819
9884.000000;0.491642
9883.000000;0.490285
9882.000000;0.489173
9881.000000;0.488510
9880.000000;0.488175
9879.000000;0.487859
9878.000000;0.487227
9877.000000;0.486078
9876.000000;0.484533
9875.000000;0.483014
9874.000000;0.481860
9873.000000;0.480935
9872.000000;0.479805
9871.000000;0.478306
9870.000000;0.476764
9869.000000;0.475558
9868.000000;0.474682
9867.000000;0.473868
9866.000000;0.472979
9865.000000;0.472075
9864.000000;0.471172
9863.000000;0.470176
9862.000000;0.469084
9861.000000;0.468056
9860.000000;0.467208
9859.000000;0.466427
9858.000000;0.465486
9857.000000;0.464284
9856.000000;0.462907
9855.000000;0.461493
9854.000000;0.460114
9853.000000;0.458783
9852.000000;0.457526
9851.000000;0.456417
9850.000000;0.455531
9849.000000;0.454823
9848.000000;0.454084
9847.000000;0.453094
9846.000000;0.451841
9845.000000;0.450550
9844.000000;0.449434
9843.000000;0.448455
9842.000000;0.447400
9841.000000;0.446187
9840.000000;0.444987
9839.000000;0.443981
9838.000000;0.443077
9837.000000;0.441980
9836.000000;0.440552
9835.000000;0.439001
9834.000000;0.437650
9833.000000;0.436620
9832.000000;0.435773
9831.000000;0.434910
9830.000000;0.433915
9829.000000;0.432745
9828.000000;0.431399
9827.000000;0.429941
9826.000000;0.428465
9825.000000;0.427028
9824.000000;0.425646
9823.000000;0.424358
9822.000000;0.423190
9821.000000;0.422061
9820.000000;0.420827
9819.000000;0.419455
9818.000000;0.418068
9817.000000;0.416752
9816.000000;0.415454
9815.000000;0.414135
9814.000000;0.412926
9813.000000;0.411986
9812.000000;0.411258
9811.000000;0.410505
9810.000000;0.409565
9809.000000;0.408473
9808.000000;0.407303
9807.000000;0.406049
9806.000000;0.404685
9805.000000;0.403258
9804.000000;0.401842
9803.000000;0.400476
9802.000000;0.399215
9801.000000;0.398166
9800.000000;0.397390
9799.000000;0.396776
9798.000000;0.396068
9797.000000;0.395037
9796.000000;0.393646
9795.000000;0.392054
9794.000000;0.390494
9793.000000;0.389098
9792.000000;0.387799
9791.000000;0.386400
9790.000000;0.384783
9789.000000;0.383058
9788.000000;0.381478
9787.000000;0.380214
9786.000000;0.379227
9785.000000;0.378359
9784.000000;0.377471
9783.000000;0.376490
9782.000000;0.375362
9781.000000;0.374039
9780.000000;0.372556
9779.000000;0.371045
9778.000000;0.369592
9777.000000;0.368090
9776.000000;0.366331
9775.000000;0.364316
9774.000000;0.362413
9773.000000;0.361100
9772.000000;0.360512
9771.000000;0.360252
9770.000000;0.359674
9769.000000;0.358369
9768.000000;0.356415
9767.000000;0.354262
9766.000000;0.352372
9765.000000;0.350942
9764.000000;0.349832
9763.000000;0.348753
9762.000000;0.347508
9761.000000;0.346088
9760.000000;0.344580
9759.000000;0.343034
9758.000000;0.341477
9757.000000;0.339979
9756.000000;0.338651
9755.000000;0.337519
9754.000000;0.336453
9753.000000;0.335231
9752.000000;0.333709
9751.000000;0.331928
9750.000000;0.330089
9749.000000;0.328404
9748.000000;0.326972
9747.000000;0.325758
9746.000000;0.324663
9745.000000;0.323602
9744.000000;0.322499
9743.000000;0.321254
9742.000000;0.319742
9741.000000;0.317926
9740.000000;0.316004
9739.000000;0.314344
9738.000000;0.313154
9737.000000;0.312177
9736.000000;0.310865
9735.000000;0.308961
9734.000000;0.306835
9733.000000;0.305100
9732.000000;0.303927
9731.000000;0.302907
9730.000000;0.301607
9729.000000;0.300061
9728.000000;0.298600
9727.000000;0.297313
9726.000000;0.295903
9725.000000;0.294075
9724.000000;0.291921
9723.000000;0.289855
9722.000000;0.288214
9721.000000;0.286973
9720.000000;0.285828
9719.000000;0.284529
9718.000000;0.283102
9717.000000;0.281733
9716.000000;0.280438
9715.000000;0.278979
9714.000000;0.277178
9713.000000;0.275235
9712.000000;0.273579
9711.000000;0.272393
9710.000000;0.271395
9709.000000;0.270137
9708.000000;0.268442
9707.000000;0.266476
9706.000000;0.264518
9705.000000;0.262748
9704.000000;0.261212
9703.000000;0.259844
9702.000000;0.258478
9701.000000;0.256941
9700.000000;0.255215
9699.000000;0.253470
9698.000000;0.251879
9697.000000;0.250429
9696.000000;0.248966
9695.000000;0.247393
9694.000000;0.245749
9693.000000;0.244064
9692.000000;0.242258
9691.000000;0.240296
9690.000000;0.238373
9689.000000;0.236784
9688.000000;0.235583
9687.000000;0.234471
9686.000000;0.233113
9685.000000;0.231460
9684.000000;0.229679
9683.000000;0.227851
9682.000000;0.225877
9681.000000;0.223687
9680.000000;0.221394
9679.000000;0.219227
9678.000000;0.217375
9677.000000;0.215893
9676.000000;0.214637
9675.000000;0.213287
9674.000000;0.211564
9673.000000;0.209505
9672.000000;0.207445
9671.000000;0.205667
9670.000000;0.204143
9669.000000;0.202650
9668.000000;0.201080
9667.000000;0.199525
9666.000000;0.198110
9665.000000;0.196820
9664.000000;0.195487
9663.000000;0.193924
9662.000000;0.192086
9661.000000;0.190113
9660.000000;0.188176
9659.000000;0.186297
9658.000000;0.184404
9657.000000;0.182543
9656.000000;0.180882
9655.000000;0.179424
9654.000000;0.177867
9653.000000;0.175921
9652.000000;0.173651
9651.000000;0.171383
9650.000000;0.169344
9649.000000;0.167557
9648.000000;0.166004
9647.000000;0.164657
9646.000000;0.163327
9645.000000;0.161721
9644.000000;0.159751
9643.000000;0.157631
9642.000000;0.155583
9641.000000;0.153582
9640.000000;0.151463
9639.000000;0.149184
9638.000000;0.146857
9637.000000;0.144612
9636.000000;0.142539
9635.000000;0.140701
9634.000000;0.139072
9633.000000;0.137479
9632.000000;0.135708
9631.000000;0.133687
9630.000000;0.131523
9629.000000;0.129396
9628.000000;0.127444
9627.000000;0.125712
9626.000000;0.124124
9625.000000;0.122526
9624.000000;0.120809
9623.000000;0.118998
9622.000000;0.117160
9621.000000;0.115260
9620.000000;0.113179
9619.000000;0.110875
9618.000000;0.108472
9617.000000;0.106168
9616.000000;0.104083
9615.000000;0.102225
9614.000000;0.100543
9613.000000;0.098950
9612.000000;0.097288
9611.000000;0.095359
9610.000000;0.093096
9609.000000;0.090714
9608.000000;0.088567
9607.000000;0.086788
9606.000000;0.085131
9605.000000;0.083272
9604.000000;0.081179
9603.000000;0.079041
9602.000000;0.076934
9601.000000;0.074786
9600.000000;0.072662
9599.000000;0.070796
9598.000000;0.069209
9597.000000;0.067547
9596.000000;0.065508
9595.000000;0.063285
9594.000000;0.061321
9593.000000;0.059714
9592.000000;0.058097
9591.000000;0.056112
9590.000000;0.053772
9589.000000;0.051346
9588.000000;0.049060
9587.000000;0.047000
9586.000000;0.045125
9585.000000;0.043300
9584.000000;0.041404
9583.000000;0.039437
9582.000000;0.037426
9581.000000;0.035256
9580.000000;0.032756
9579.000000;0.029980
9578.000000;0.027263
9577.000000;0.024916
9576.000000;0.022989
9575.000000;0.021385
9574.000000;0.020027
9573.000000;0.018802
9572.000000;0.017434
9571.000000;0.015600
9570.000000;0.013173
9569.000000;0.010326
9568.000000;0.007421
9567.000000;0.004844
9566.000000;0.002828
9565.000000;0.001323
9564.000000;0.000046
9563.000000;-0.001318
9562.000000;-0.002979
9561.000000;-0.005043
9560.000000;-0.007497
9559.000000;-0.010098
9558.000000;-0.012451
9557.000000;-0.014358
9556.000000;-0.016027
9555.000000;-0.017832
9554.000000;-0.019916
9553.000000;-0.022134
9552.000000;-0.024284
9551.000000;-0.026258
9550.000000;-0.028009
9549.000000;-0.029548
9548.000000;-0.030993
9547.000000;-0.032521
9546.000000;-0.034245
9545.000000;-0.036217
9544.000000;-0.038475
9543.000000;-0.040953
9542.000000;-0.043396
9541.000000;-0.045554
9540.000000;-0.047468
9539.000000;-0.049420
9538.000000;-0.051598
9537.000000;-0.053923
9536.000000;-0.056220
9535.000000;-0.058379
9534.000000;-0.060330
9533.000000;-0.062061
9532.000000;-0.063738
9531.000000;-0.065602
9530.000000;-0.067638
9529.000000;-0.069476
9528.000000;-0.070794
9527.000000;-0.071709
9526.000000;-0.072654
9525.000000;-0.073945
9524.000000;-0.075640
9523.000000;-0.077688
9522.000000;-0.079990
9521.000000;-0.082312
9520.000000;-0.084374
9519.000000;-0.086107
9518.000000;-0.087712
9517.000000;-0.089390
9516.000000;-0.091116
9515.000000;-0.092735
9514.000000;-0.094192
9513.000000;-0.095566
9512.000000;-0.096957
9511.000000;-0.098397
9510.000000;-0.099852
9509.000000;-0.101251
9508.000000;-0.102526
9507.000000;-0.103703
9506.000000;-0.104924
9505.000000;-0.106366
9504.000000;-0.108090
9503.000000;-0.109988
9502.000000;-0.111858
9501.000000;-0.113506
9500.000000;-0.114825
9499.000000;-0.115844
9498.000000;-0.116737
9497.000000;-0.117731
9496.000000;-0.118960
9495.000000;-0.120382
9494.000000;-0.121859
9493.000000;-0.123314
9492.000000;-0.124772
9491.000000;-0.126261
9490.000000;-0.127718
9489.000000;-0.129043
9488.000000;-0.130223
9487.000000;-0.131352
9486.000000;-0.132522
9485.000000;-0.133712
9484.000000;-0.134783
9483.000000;-0.135611
9482.000000;-0.136226
9481.000000;-0.136820
9480.000000;-0.137558
9479.000000;-0.138399
9478.000000;-0.139155
9477.000000;-0.139731
9476.000000;-0.140211
9475.000000;-0.140687
9474.000000;-0.141153
9473.000000;-0.141655
9472.000000;-0.142405
9471.000000;-0.143548
9470.000000;-0.144905
9469.000000;-0.146166
9468.000000;-0.147300
9467.000000;-0.148502
9466.000000;-0.149710
9465.000000;-0.150449
9464.000000;-0.150352
9463.000000;-0.149652
9462.000000;-0.148978
9461.000000;-0.148761
9460.000000;-0.148994
9459.000000;-0.149462
9458.000000;-0.149986
9457.000000;-0.150457
9456.000000;-0.150821
9455.000000;-0.151093
9454.000000;-0.151299
9453.000000;-0.151389
9452.000000;-0.151333
9451.000000;-0.151276
9450.000000;-0.151473
9449.000000;-0.151992
9448.000000;-0.152551
9447.000000;-0.152699
9446.000000;-0.152188
9445.000000;-0.151202
9444.000000;-0.150260
9443.000000;-0.149824
9442.000000;-0.149921
9441.000000;-0.150172
9440.000000;-0.150217
9439.000000;-0.150028
9438.000000;-0.149750
9437.000000;-0.149388
9436.000000;-0.148858
9435.000000;-0.148267
9434.000000;-0.147863
9433.000000;-0.147666
9432.000000;-0.147405
9431.000000;-0.146915
9430.000000;-0.146406
9429.000000;-0.146150
9428.000000;-0.146068
9427.000000;-0.145817
9426.000000;-0.145221
9425.000000;-0.144431
9424.000000;-0.143691
9423.000000;-0.143107
9422.000000;-0.142635
9421.000000;-0.142155
9420.000000;-0.141512
9419.000000;-0.140628
9418.000000;-0.139595
9417.000000;-0.138578
9416.000000;-0.137592
9415.000000;-0.136502
9414.000000;-0.135308
9413.000000;-0.134309
9412.000000;-0.133832
9411.000000;-0.133816
9410.000000;-0.133774
9409.000000;-0.133165
9408.000000;-0.131791
9407.000000;-0.129889
9406.000000;-0.127950
9405.000000;-0.126451
9404.000000;-0.125623
9403.000000;-0.125368
9402.000000;-0.125348
9401.000000;-0.125168
9400.000000;-0.124532
9399.000000;-0.123343
9398.000000;-0.121767
9397.000000;-0.120154
9396.000000;-0.118805
9395.000000;-0.117721
9394.000000;-0.116647
9393.000000;-0.115369
9392.000000;-0.113938
9391.000000;-0.112557
9390.000000;-0.111343
9389.000000;-0.110249
9388.000000;-0.109184
9387.000000;-0.108113
9386.000000;-0.107043
9385.000000;-0.105950
9384.000000;-0.104748
9383.000000;-0.103293
9382.000000;-0.101502
9381.000000;-0.099514
9380.000000;-0.097690
9379.000000;-0.096343
9378.000000;-0.095453
9377.000000;-0.094729
9376.000000;-0.093912
9375.000000;-0.092937
9374.000000;-0.091825
9373.000000;-0.090574
9372.000000;-0.089219
9371.000000;-0.087854
9370.000000;-0.086504
9369.000000;-0.085060
9368.000000;-0.083449
9367.000000;-0.081785
9366.000000;-0.080250
9365.000000;-0.078884
9364.000000;-0.077608
9363.000000;-0.076412
9362.000000;-0.075374
9361.000000;-0.074482
9360.000000;-0.073543
9359.000000;-0.072334
9358.000000;-0.070767
9357.000000;-0.068933
9356.000000;-0.067035
9355.000000;-0.065278
9354.000000;-0.063717
9353.000000;-0.062215
9352.000000;-0.060607
9351.000000;-0.058935
9350.000000;-0.057432
9349.000000;-0.056249
9348.000000;-0.055296
9347.000000;-0.054376
9346.000000;-0.053389
9345.000000;-0.052312
9344.000000;-0.051101
9343.000000;-0.049723
9342.000000;-0.048257
9341.000000;-0.046851
9340.000000;-0.045559
9339.000000;-0.044271
9338.000000;-0.042843
9337.000000;-0.041261
9336.000000;-0.039669
9335.000000;-0.038235
9334.000000;-0.036981
9333.000000;-0.035740
9332.000000;-0.034305
9331.000000;-0.032656
9330.000000;-0.030991
9329.000000;-0.029520
9328.000000;-0.028260
9327.000000;-0.027076
9326.000000;-0.025861
9325.000000;-0.024608
9324.000000;-0.023298
9323.000000;-0.021843
9322.000000;-0.020217
9321.000000;-0.018592
9320.000000;-0.017233
9319.000000;-0.016209
9318.000000;-0.015280
9317.000000;-0.014145
9316.000000;-0.012766
9315.000000;-0.011375
9314.000000;-0.010156
9313.000000;-0.009000
9312.000000;-0.007633
9311.000000;-0.005954
9310.000000;-0.004175
9309.000000;-0.002625
9308.000000;-0.001448
9307.000000;-0.000472
9306.000000;0.000652
9305.000000;0.002164
9304.000000;0.004005
9303.000000;0.005877
9302.000000;0.007488
9301.000000;0.008697
9300.000000;0.009511
9299.000000;0.010073
9298.000000;0.010721
9297.000000;0.011868
9296.000000;0.013641
9295.000000;0.015689
9294.000000;0.017516
9293.000000;0.018988
9292.000000;0.020368
9291.000000;0.021871
9290.000000;0.023394
9289.000000;0.024746
9288.000000;0.025936
9287.000000;0.027101
9286.000000;0.028284
9285.000000;0.029416
9284.000000;0.030469
9283.000000;0.031495
9282.000000;0.032577
9281.000000;0.033786
9280.000000;0.035156
9279.000000;0.036625
9278.000000;0.038052
9277.000000;0.039349
9276.000000;0.040525
9275.000000;0.041580
9274.000000;0.042476
9273.000000;0.043300
9272.000000;0.044329
9271.000000;0.045770
9270.000000;0.047475
9269.000000;0.049055
9268.000000;0.050258
9267.000000;0.051143
9266.000000;0.051934
9265.000000;0.052838
9264.000000;0.053974
9263.000000;0.055299
9262.000000;0.056576
9261.000000;0.057573
9260.000000;0.058350
9259.000000;0.059225
9258.000000;0.060378
9257.000000;0.061629
9256.000000;0.062718
9255.000000;0.063694
9254.000000;0.064859
9253.000000;0.066308
9252.000000;0.067728
9251.000000;0.068766
9250.000000;0.069504
9249.000000;0.070417
9248.000000;0.071804
9247.000000;0.073417
9246.000000;0.074730
9245.000000;0.075540
9244.000000;0.076169
9243.000000;0.077076
9242.000000;0.078380
9241.000000;0.079824
9240.000000;0.081085
9239.000000;0.082043
9238.000000;0.082805
9237.000000;0.083567
9236.000000;0.084458
9235.000000;0.085463
9234.000000;0.086488
9233.000000;0.087495
9232.000000;0.088548
9231.000000;0.089697
9230.000000;0.090880
9229.000000;0.091999
9228.000000;0.093028
9227.000000;0.094008
9226.000000;0.094977
9225.000000;0.095950
9224.000000;0.096927
9223.000000;0.097880
9222.000000;0.098772
9221.000000;0.099655
9220.000000;0.100664
9219.000000;0.101845
9218.000000;0.103030
9217.000000;0.103991
9216.000000;0.104714
9215.000000;0.105409
9214.000000;0.106251
9213.000000;0.107202
9212.000000;0.108108
9211.000000;0.108877
9210.000000;0.109537
9209.000000;0.110159
9208.000000;0.110830
9207.000000;0.111644
9206.000000;0.112680
9205.000000;0.113928
9204.000000;0.115253
9203.000000;0.116489
9202.000000;0.117586
9201.000000;0.118632
9200.000000;0.119716
9199.000000;0.120799
9198.000000;0.121795
9197.000000;0.122718
9196.000000;0.123634
9195.000000;0.124502
9194.000000;0.125181
9193.000000;0.125647
9192.000000;0.126074
9191.000000;0.126651
9190.000000;0.127423
9189.000000;0.128325
9188.000000;0.129265
9187.000000;0.130119
9186.000000;0.130770
9185.000000;0.131251
9184.000000;0.131720
9183.000000;0.132276
9182.000000;0.132901
9181.000000;0.133663
9180.000000;0.134730
9179.000000;0.136081
9178.000000;0.137363
9177.000000;0.138261
9176.000000;0.138874
9175.000000;0.139516
9174.000000;0.140276
9173.000000;0.141024
9172.000000;0.141758
9171.000000;0.142634
9170.000000;0.143647
9169.000000;0.144562
9168.000000;0.145228
9167.000000;0.145770
9166.000000;0.146411
9165.000000;0.147267
9164.000000;0.148366
9163.000000;0.149643
9162.000000;0.150860
9161.000000;0.151724
9160.000000;0.152186
9159.000000;0.152503
9158.000000;0.152931
9157.000000;0.153514
9156.000000;0.154212
9155.000000;0.155030
9154.000000;0.155908
9153.000000;0.156677
9152.000000;0.157280
9151.000000;0.157911
9150.000000;0.158769
9149.000000;0.159741
9148.000000;0.160514
9147.000000;0.160947
9146.000000;0.161199
9145.000000;0.161532
9144.000000;0.162099
9143.000000;0.162897
9142.000000;0.163796
9141.000000;0.164602
9140.000000;0.165204
9139.000000;0.165690
9138.000000;0.166238
9137.000000;0.166910
9136.000000;0.167590
9135.000000;0.168140
9134.000000;0.168537
9133.000000;0.168881
9132.000000;0.169318
9131.000000;0.169974
9130.000000;0.170871
9129.000000;0.171867
9128.000000;0.172715
9127.000000;0.173280
9126.000000;0.173708
9125.000000;0.174319
9124.000000;0.175277
9123.000000;0.176371
9122.000000;0.177206
9121.000000;0.177594
9120.000000;0.177703
9119.000000;0.177813
9118.000000;0.178046
9117.000000;0.178405
9116.000000;0.178938
9115.000000;0.179700
9114.000000;0.180598
9113.000000;0.181412
9112.000000;0.182018
9111.000000;0.182499
9110.000000;0.183008
9109.000000;0.183614
9108.000000;0.184255
9107.000000;0.184776
9106.000000;0.185034
9105.000000;0.185094
9104.000000;0.185283
9103.000000;0.185910
9102.000000;0.186893
9101.000000;0.187823
9100.000000;0.188436
9099.000000;0.188865
9098.000000;0.189349
9097.000000;0.189879
9096.000000;0.190290
9095.000000;0.190610
9094.000000;0.191112
9093.000000;0.191990
9092.000000;0.193111
9091.000000;0.194100
9090.000000;0.194632
9089.000000;0.194666
9088.000000;0.194468
9087.000000;0.194401
9086.000000;0.194665
9085.000000;0.195210
9084.000000;0.195904
9083.000000;0.196710
9082.000000;0.197643
9081.000000;0.198603
9080.000000;0.199368
9079.000000;0.199796
9078.000000;0.199980
9077.000000;0.200164
9076.000000;0.200520
9075.000000;0.201030
9074.000000;0.201573
9073.000000;0.202087
9072.000000;0.202617
9071.000000;0.203230
9070.000000;0.203902
9069.000000;0.204517
9068.000000;0.204963
9067.000000;0.205230
9066.000000;0.205451
9065.000000;0.205821
