Criado como novo conjunto de dados;"0307_DANIEL.spp","35283.8 Secs"
cm-1;Abs
10000.000000;1.144481
9999.000000;1.144161
9998.000000;1.143310
9997.000000;1.141819
9996.000000;1.140036
9995.000000;1.138342
9994.000000;1.136803
9993.000000;1.135243
9992.000000;1.133572
9991.000000;1.131953
9990.000000;1.130682
9989.000000;1.129952
9988.000000;1.129661
9987.000000;1.129358
9986.000000;1.128498
9985.000000;1.126919
9984.000000;1.125079
9983.000000;1.123644
9982.000000;1.122796
9981.000000;1.122099
9980.000000;1.121091
9979.000000;1.119815
9978.000000;1.118633
9977.000000;1.117672
9976.000000;1.116702
9975.000000;1.115498
9974.000000;1.114134
9973.000000;1.112880
9972.000000;1.111936
9971.000000;1.111313
9970.000000;1.110856
9969.000000;1.110340
9968.000000;1.109556
9967.000000;1.108371
9966.000000;1.106720
9965.000000;1.104632
9964.000000;1.102311
9963.000000;1.100117
9962.000000;1.098358
9961.000000;1.097077
9960.000000;1.096076
9959.000000;1.095079
9958.000000;1.093855
9957.000000;1.092283
9956.000000;1.090460
9955.000000;1.088706
9954.000000;1.087321
9953.000000;1.086319
9952.000000;1.085486
9951.000000;1.084663
9950.000000;1.083849
9949.000000;1.083005
9948.000000;1.081951
9947.000000;1.080579
9946.000000;1.079111
9945.000000;1.077974
9944.000000;1.077361
9943.000000;1.076926
9942.000000;1.075963
9941.000000;1.073964
9940.000000;1.071084
9939.000000;1.068111
9938.000000;1.065929
9937.000000;1.064915
9936.000000;1.064713
9935.000000;1.064501
9934.000000;1.063569
9933.000000;1.061819
9932.000000;1.059776
9931.000000;1.058062
9930.000000;1.056821
9929.000000;1.055747
9928.000000;1.054629
9927.000000;1.053657
9926.000000;1.053054
9925.000000;1.052626
9924.000000;1.051909
9923.000000;1.050682
9922.000000;1.049076
9921.000000;1.047220
9920.000000;1.045120
9919.000000;1.042952
9918.000000;1.041183
9917.000000;1.040153
9916.000000;1.039609
9915.000000;1.038838
9914.000000;1.037330
9913.000000;1.035271
9912.000000;1.033379
9911.000000;1.032252
9910.000000;1.031803
9909.000000;1.031295
9908.000000;1.029991
9907.000000;1.027844
9906.000000;1.025506
9905.000000;1.023722
9904.000000;1.022766
9903.000000;1.022352
9902.000000;1.021869
9901.000000;1.020751
9900.000000;1.018896
9899.000000;1.016841
9898.000000;1.015356
9897.000000;1.014724
9896.000000;1.014445
9895.000000;1.013717
9894.000000;1.012119
9893.000000;1.009849
9892.000000;1.007483
9891.000000;1.005629
9890.000000;1.004588
9889.000000;1.004089
9888.000000;1.003407
9887.000000;1.001959
9886.000000;0.999827
9885.000000;0.997601
9884.000000;0.995741
9883.000000;0.994229
9882.000000;0.992764
9881.000000;0.991128
9880.000000;0.989338
9879.000000;0.987564
9878.000000;0.985981
9877.000000;0.984653
9876.000000;0.983546
9875.000000;0.982605
9874.000000;0.981761
9873.000000;0.980873
9872.000000;0.979784
9871.000000;0.978510
9870.000000;0.977237
9869.000000;0.976021
9868.000000;0.974647
9867.000000;0.972952
9866.000000;0.971167
9865.000000;0.969719
9864.000000;0.968715
9863.000000;0.967828
9862.000000;0.966693
9861.000000;0.965209
9860.000000;0.963426
9859.000000;0.961397
9858.000000;0.959269
9857.000000;0.957324
9856.000000;0.955725
9855.000000;0.954295
9854.000000;0.952727
9853.000000;0.950964
9852.000000;0.949227
9851.000000;0.947729
9850.000000;0.946471
9849.000000;0.945323
9848.000000;0.944115
9847.000000;0.942648
9846.000000;0.940796
9845.000000;0.938720
9844.000000;0.936868
9843.000000;0.935618
9842.000000;0.934914
9841.000000;0.934344
9840.000000;0.933568
9839.000000;0.932577
9838.000000;0.931488
9837.000000;0.930229
9836.000000;0.928563
9835.000000;0.926454
9834.000000;0.924240
9833.000000;0.922332
9832.000000;0.920783
9831.000000;0.919259
9830.000000;0.917444
9829.000000;0.915376
9828.000000;0.913370
9827.000000;0.911693
9826.000000;0.910393
9825.000000;0.909350
9824.000000;0.908330
9823.000000;0.907031
9822.000000;0.905247
9821.000000;0.903101
9820.000000;0.901043
9819.000000;0.899483
9818.000000;0.898422
9817.000000;0.897488
9816.000000;0.896324
9815.000000;0.894866
9814.000000;0.893289
9813.000000;0.891784
9812.000000;0.890424
9811.000000;0.889147
9810.000000;0.887809
9809.000000;0.886309
9808.000000;0.884691
9807.000000;0.883093
9806.000000;0.881556
9805.000000;0.879937
9804.000000;0.878088
9803.000000;0.876057
9802.000000;0.874060
9801.000000;0.872292
9800.000000;0.870830
9799.000000;0.869648
9798.000000;0.868611
9797.000000;0.867480
9796.000000;0.866054
9795.000000;0.864338
9794.000000;0.862474
9793.000000;0.860531
9792.000000;0.858453
9791.000000;0.856250
9790.000000;0.854112
9789.000000;0.852284
9788.000000;0.850878
9787.000000;0.849836
9786.000000;0.848959
9785.000000;0.847939
9784.000000;0.846476
9783.000000;0.844518
9782.000000;0.842371
9781.000000;0.840424
9780.000000;0.838749
9779.000000;0.837071
9778.000000;0.835172
9777.000000;0.833237
9776.000000;0.831692
9775.000000;0.830725
9774.000000;0.830043
9773.000000;0.829093
9772.000000;0.827476
9771.000000;0.825189
9770.000000;0.822613
9769.000000;0.820303
9768.000000;0.818660
9767.000000;0.817589
9766.000000;0.816483
9765.000000;0.814715
9764.000000;0.812270
9763.000000;0.809790
9762.000000;0.807934
9761.000000;0.806760
9760.000000;0.805738
9759.000000;0.804269
9758.000000;0.802134
9757.000000;0.799590
9756.000000;0.797169
9755.000000;0.795310
9754.000000;0.794023
9753.000000;0.792894
9752.000000;0.791468
9751.000000;0.789600
9750.000000;0.787412
9749.000000;0.785070
9748.000000;0.782780
9747.000000;0.780866
9746.000000;0.779559
9745.000000;0.778686
9744.000000;0.777766
9743.000000;0.776470
9742.000000;0.774827
9741.000000;0.772972
9740.000000;0.770917
9739.000000;0.768679
9738.000000;0.766396
9737.000000;0.764153
9736.000000;0.761857
9735.000000;0.759434
9734.000000;0.757062
9733.000000;0.755040
9732.000000;0.753502
9731.000000;0.752340
9730.000000;0.751313
9729.000000;0.750114
9728.000000;0.748446
9727.000000;0.746243
9726.000000;0.743742
9725.000000;0.741240
9724.000000;0.738840
9723.000000;0.736544
9722.000000;0.734495
9721.000000;0.732893
9720.000000;0.731701
9719.000000;0.730601
9718.000000;0.729290
9717.000000;0.727664
9716.000000;0.725700
9715.000000;0.723381
9714.000000;0.720834
9713.000000;0.718396
9712.000000;0.716379
9711.000000;0.714801
9710.000000;0.713434
9709.000000;0.712058
9708.000000;0.710574
9707.000000;0.708904
9706.000000;0.706947
9705.000000;0.704700
9704.000000;0.702353
9703.000000;0.700148
9702.000000;0.698138
9701.000000;0.696169
9700.000000;0.694123
9699.000000;0.692094
9698.000000;0.690244
9697.000000;0.688521
9696.000000;0.686690
9695.000000;0.684674
9694.000000;0.682717
9693.000000;0.681065
9692.000000;0.679567
9691.000000;0.677776
9690.000000;0.675487
9689.000000;0.673035
9688.000000;0.670944
9687.000000;0.669350
9686.000000;0.667887
9685.000000;0.666111
9684.000000;0.663930
9683.000000;0.661560
9682.000000;0.659178
9681.000000;0.656803
9680.000000;0.654518
9679.000000;0.652580
9678.000000;0.651140
9677.000000;0.649933
9676.000000;0.648448
9675.000000;0.646424
9674.000000;0.644029
9673.000000;0.641570
9672.000000;0.639191
9671.000000;0.636919
9670.000000;0.634768
9669.000000;0.632673
9668.000000;0.630472
9667.000000;0.628093
9666.000000;0.625691
9665.000000;0.623451
9664.000000;0.621338
9663.000000;0.619180
9662.000000;0.616889
9661.000000;0.614476
9660.000000;0.611918
9659.000000;0.609245
9658.000000;0.606686
9657.000000;0.604532
9656.000000;0.602767
9655.000000;0.601038
9654.000000;0.599042
9653.000000;0.596827
9652.000000;0.594640
9651.000000;0.592624
9650.000000;0.590779
9649.000000;0.589102
9648.000000;0.587605
9647.000000;0.586199
9646.000000;0.584677
9645.000000;0.582844
9644.000000;0.580648
9643.000000;0.578193
9642.000000;0.575650
9641.000000;0.573159
9640.000000;0.570769
9639.000000;0.568453
9638.000000;0.566148
9637.000000;0.563783
9636.000000;0.561319
9635.000000;0.558823
9634.000000;0.556464
9633.000000;0.554340
9632.000000;0.552328
9631.000000;0.550200
9630.000000;0.547911
9629.000000;0.545662
9628.000000;0.543616
9627.000000;0.541653
9626.000000;0.539506
9625.000000;0.537077
9624.000000;0.534530
9623.000000;0.532101
9622.000000;0.529906
9621.000000;0.527939
9620.000000;0.526145
9619.000000;0.524414
9618.000000;0.522579
9617.000000;0.520518
9616.000000;0.518262
9615.000000;0.515957
9614.000000;0.513698
9613.000000;0.511440
9612.000000;0.509076
9611.000000;0.506554
9610.000000;0.503927
9609.000000;0.501326
9608.000000;0.498893
9607.000000;0.496673
9606.000000;0.494518
9605.000000;0.492191
9604.000000;0.489631
9603.000000;0.487043
9602.000000;0.484627
9601.000000;0.482276
9600.000000;0.479734
9599.000000;0.477001
9598.000000;0.474402
9597.000000;0.472164
9596.000000;0.470133
9595.000000;0.468024
9594.000000;0.465772
9593.000000;0.463474
9592.000000;0.461118
9591.000000;0.458617
9590.000000;0.456055
9589.000000;0.453647
9588.000000;0.451428
9587.000000;0.449196
9586.000000;0.446825
9585.000000;0.444455
9584.000000;0.442257
9583.000000;0.440172
9582.000000;0.438017
9581.000000;0.435778
9580.000000;0.433619
9579.000000;0.431621
9578.000000;0.429660
9577.000000;0.427517
9576.000000;0.425072
9575.000000;0.422383
9574.000000;0.419679
9573.000000;0.417219
9572.000000;0.415063
9571.000000;0.412976
9570.000000;0.410654
9569.000000;0.408059
9568.000000;0.405440
9567.000000;0.402999
9566.000000;0.400668
9565.000000;0.398254
9564.000000;0.395688
9563.000000;0.392999
9562.000000;0.390197
9561.000000;0.387369
9560.000000;0.384843
9559.000000;0.382963
9558.000000;0.381600
9557.000000;0.380126
9556.000000;0.378059
9555.000000;0.375568
9554.000000;0.373147
9553.000000;0.370920
9552.000000;0.368577
9551.000000;0.365954
9550.000000;0.363320
9549.000000;0.360994
9548.000000;0.358951
9547.000000;0.356952
9546.000000;0.354874
9545.000000;0.352732
9544.000000;0.350530
9543.000000;0.348271
9542.000000;0.345996
9541.000000;0.343672
9540.000000;0.341165
9539.000000;0.338493
9538.000000;0.335970
9537.000000;0.333873
9536.000000;0.332052
9535.000000;0.330132
9534.000000;0.328020
9533.000000;0.325964
9532.000000;0.324108
9531.000000;0.322280
9530.000000;0.320280
9529.000000;0.318124
9528.000000;0.315901
9527.000000;0.313581
9526.000000;0.311102
9525.000000;0.308516
9524.000000;0.305943
9523.000000;0.303493
9522.000000;0.301319
9521.000000;0.299585
9520.000000;0.298248
9519.000000;0.296962
9518.000000;0.295335
9517.000000;0.293269
9516.000000;0.290982
9515.000000;0.288758
9514.000000;0.286742
9513.000000;0.284927
9512.000000;0.283229
9511.000000;0.281576
9510.000000;0.279924
9509.000000;0.278179
9508.000000;0.276186
9507.000000;0.273952
9506.000000;0.271829
9505.000000;0.270266
9504.000000;0.269282
9503.000000;0.268358
9502.000000;0.266990
9501.000000;0.265216
9500.000000;0.263459
9499.000000;0.261955
9498.000000;0.260529
9497.000000;0.258862
9496.000000;0.256818
9495.000000;0.254529
9494.000000;0.252315
9493.000000;0.250510
9492.000000;0.249231
9491.000000;0.248278
9490.000000;0.247315
9489.000000;0.246158
9488.000000;0.244848
9487.000000;0.243500
9486.000000;0.242192
9485.000000;0.240947
9484.000000;0.239719
9483.000000;0.238385
9482.000000;0.236859
9481.000000;0.235211
9480.000000;0.233628
9479.000000;0.232254
9478.000000;0.231114
9477.000000;0.230136
9476.000000;0.229216
9475.000000;0.228286
9474.000000;0.227410
9473.000000;0.226736
9472.000000;0.226264
9471.000000;0.225732
9470.000000;0.224889
9469.000000;0.223805
9468.000000;0.222774
9467.000000;0.221929
9466.000000;0.221130
9465.000000;0.220258
9464.000000;0.219390
9463.000000;0.218647
9462.000000;0.218018
9461.000000;0.217472
9460.000000;0.217076
9459.000000;0.216856
9458.000000;0.216641
9457.000000;0.216196
9456.000000;0.215473
9455.000000;0.214589
9454.000000;0.213626
9453.000000;0.212644
9452.000000;0.211849
9451.000000;0.211516
9450.000000;0.211637
9449.000000;0.211812
9448.000000;0.211667
9447.000000;0.211291
9446.000000;0.211083
9445.000000;0.211205
9444.000000;0.211379
9443.000000;0.211259
9442.000000;0.210818
9441.000000;0.210265
9440.000000;0.209756
9439.000000;0.209353
9438.000000;0.209185
9437.000000;0.209393
9436.000000;0.209890
9435.000000;0.210347
9434.000000;0.210524
9433.000000;0.210520
9432.000000;0.210608
9431.000000;0.210915
9430.000000;0.211345
9429.000000;0.211757
9428.000000;0.212123
9427.000000;0.212513
9426.000000;0.213018
9425.000000;0.213660
9424.000000;0.214321
9423.000000;0.214805
9422.000000;0.215050
9421.000000;0.215257
9420.000000;0.215705
9419.000000;0.216431
9418.000000;0.217179
9417.000000;0.217693
9416.000000;0.217986
9415.000000;0.218275
9414.000000;0.218714
9413.000000;0.219263
9412.000000;0.219774
9411.000000;0.220188
9410.000000;0.220616
9409.000000;0.221242
9408.000000;0.222107
9407.000000;0.223034
9406.000000;0.223830
9405.000000;0.224522
9404.000000;0.225286
9403.000000;0.226161
9402.000000;0.226962
9401.000000;0.227563
9400.000000;0.228109
9399.000000;0.228823
9398.000000;0.229704
9397.000000;0.230580
9396.000000;0.231404
9395.000000;0.232298
9394.000000;0.233275
9393.000000;0.234138
9392.000000;0.234734
9391.000000;0.235199
9390.000000;0.235854
9389.000000;0.236929
9388.000000;0.238443
9387.000000;0.240226
9386.000000;0.241969
9385.000000;0.243333
9384.000000;0.244198
9383.000000;0.244795
9382.000000;0.245499
9381.000000;0.246494
9380.000000;0.247703
9379.000000;0.248970
9378.000000;0.250198
9377.000000;0.251340
9376.000000;0.252403
9375.000000;0.253473
9374.000000;0.254648
9373.000000;0.255885
9372.000000;0.257036
9371.000000;0.258050
9370.000000;0.259039
9369.000000;0.260099
9368.000000;0.261123
9367.000000;0.261907
9366.000000;0.262389
9365.000000;0.262758
9364.000000;0.263347
9363.000000;0.264413
9362.000000;0.265979
9361.000000;0.267800
9360.000000;0.269526
9359.000000;0.270924
9358.000000;0.271963
9357.000000;0.272751
9356.000000;0.273477
9355.000000;0.274393
9354.000000;0.275683
9353.000000;0.277272
9352.000000;0.278847
9351.000000;0.280145
9350.000000;0.281162
9349.000000;0.282023
9348.000000;0.282802
9347.000000;0.283580
9346.000000;0.284573
9345.000000;0.285958
9344.000000;0.287606
9343.000000;0.289175
9342.000000;0.290512
9341.000000;0.291794
9340.000000;0.293221
9339.000000;0.294723
9338.000000;0.296113
9337.000000;0.297371
9336.000000;0.298609
9335.000000;0.299819
9334.000000;0.300867
9333.000000;0.301765
9332.000000;0.302739
9331.000000;0.303939
9330.000000;0.305185
9329.000000;0.306157
9328.000000;0.306800
9327.000000;0.307417
9326.000000;0.308356
9325.000000;0.309678
9324.000000;0.311160
9323.000000;0.312552
9322.000000;0.313756
9321.000000;0.314822
9320.000000;0.315825
9319.000000;0.316789
9318.000000;0.317715
9317.000000;0.318648
9316.000000;0.319659
9315.000000;0.320741
9314.000000;0.321788
9313.000000;0.322757
9312.000000;0.323817
9311.000000;0.325206
9310.000000;0.326923
9309.000000;0.328654
9308.000000;0.330075
9307.000000;0.331138
9306.000000;0.332014
9305.000000;0.332856
9304.000000;0.333720
9303.000000;0.334603
9302.000000;0.335459
9301.000000;0.336241
9300.000000;0.337030
9299.000000;0.338039
9298.000000;0.339346
9297.000000;0.340694
9296.000000;0.341759
9295.000000;0.342568
9294.000000;0.343472
9293.000000;0.344692
9292.000000;0.346080
9291.000000;0.347360
9290.000000;0.348439
9289.000000;0.349398
9288.000000;0.350360
9287.000000;0.351429
9286.000000;0.352663
9285.000000;0.354013
9284.000000;0.355398
9283.000000;0.356854
9282.000000;0.358451
9281.000000;0.360004
9280.000000;0.361112
9279.000000;0.361595
9278.000000;0.361749
9277.000000;0.362034
9276.000000;0.362633
9275.000000;0.363472
9274.000000;0.364463
9273.000000;0.365546
9272.000000;0.366627
9271.000000;0.367711
9270.000000;0.368978
9269.000000;0.370496
9268.000000;0.371943
9267.000000;0.372893
9266.000000;0.373349
9265.000000;0.373750
9264.000000;0.374454
9263.000000;0.375455
9262.000000;0.376637
9261.000000;0.378002
9260.000000;0.379526
9259.000000;0.381000
9258.000000;0.382220
9257.000000;0.383201
9256.000000;0.384073
9255.000000;0.384858
9254.000000;0.385489
9253.000000;0.385983
9252.000000;0.386466
9251.000000;0.387053
9250.000000;0.387762
9249.000000;0.388516
9248.000000;0.389218
9247.000000;0.389855
9246.000000;0.390566
9245.000000;0.391538
9244.000000;0.392817
9243.000000;0.394270
9242.000000;0.395723
9241.000000;0.397024
9240.000000;0.398005
9239.000000;0.398578
9238.000000;0.398943
9237.000000;0.399523
9236.000000;0.400544
9235.000000;0.401781
9234.000000;0.402839
9233.000000;0.403591
9232.000000;0.404220
9231.000000;0.404902
9230.000000;0.405635
9229.000000;0.406339
9228.000000;0.406963
9227.000000;0.407479
9226.000000;0.407921
9225.000000;0.408437
9224.000000;0.409200
9223.000000;0.410212
9222.000000;0.411281
9221.000000;0.412210
9220.000000;0.412963
9219.000000;0.413621
9218.000000;0.414247
9217.000000;0.414850
9216.000000;0.415443
9215.000000;0.416098
9214.000000;0.416920
9213.000000;0.417951
9212.000000;0.419074
9211.000000;0.420048
9210.000000;0.420716
9209.000000;0.421162
9208.000000;0.421625
9207.000000;0.422267
9206.000000;0.423071
9205.000000;0.423925
9204.000000;0.424738
9203.000000;0.425486
9202.000000;0.426227
9201.000000;0.427071
9200.000000;0.428073
9199.000000;0.429119
9198.000000;0.430006
9197.000000;0.430645
9196.000000;0.431152
9195.000000;0.431711
9194.000000;0.432378
9193.000000;0.433055
9192.000000;0.433604
9191.000000;0.433988
9190.000000;0.434332
9189.000000;0.434845
9188.000000;0.435631
9187.000000;0.436574
9186.000000;0.437446
9185.000000;0.438146
9184.000000;0.438743
9183.000000;0.439324
9182.000000;0.439887
9181.000000;0.440437
9180.000000;0.441050
9179.000000;0.441765
9178.000000;0.442501
9177.000000;0.443185
9176.000000;0.443875
9175.000000;0.444656
9174.000000;0.445458
9173.000000;0.446122
9172.000000;0.446634
9171.000000;0.447135
9170.000000;0.447703
9169.000000;0.448251
9168.000000;0.448705
9167.000000;0.449141
9166.000000;0.449678
9165.000000;0.450320
9164.000000;0.451001
9163.000000;0.451688
9162.000000;0.452351
9161.000000;0.452902
9160.000000;0.453295
9159.000000;0.453665
9158.000000;0.454243
9157.000000;0.455075
9156.000000;0.455940
9155.000000;0.456595
9154.000000;0.457037
9153.000000;0.457460
9152.000000;0.457988
9151.000000;0.458530
9150.000000;0.458926
9149.000000;0.459173
9148.000000;0.459461
9147.000000;0.459975
9146.000000;0.460700
9145.000000;0.461447
9144.000000;0.462072
9143.000000;0.462601
9142.000000;0.463125
9141.000000;0.463646
9140.000000;0.464084
9139.000000;0.464406
9138.000000;0.464687
9137.000000;0.465009
9136.000000;0.465377
9135.000000;0.465730
9134.000000;0.466030
9133.000000;0.466299
9132.000000;0.466600
9131.000000;0.466998
9130.000000;0.467520
9129.000000;0.468155
9128.000000;0.468899
9127.000000;0.469732
9126.000000;0.470547
9125.000000;0.471127
9124.000000;0.471303
9123.000000;0.471164
9122.000000;0.471028
9121.000000;0.471187
9120.000000;0.471707
9119.000000;0.472453
9118.000000;0.473229
9117.000000;0.473861
9116.000000;0.474268
9115.000000;0.474550
9114.000000;0.474953
9113.000000;0.475634
9112.000000;0.476459
9111.000000;0.477112
9110.000000;0.477433
9109.000000;0.477569
9108.000000;0.477789
9107.000000;0.478208
9106.000000;0.478737
9105.000000;0.479240
9104.000000;0.479660
9103.000000;0.480010
9102.000000;0.480321
9101.000000;0.480637
9100.000000;0.481028
9099.000000;0.481521
9098.000000;0.482021
9097.000000;0.482351
9096.000000;0.482438
9095.000000;0.482425
9094.000000;0.482544
9093.000000;0.482874
9092.000000;0.483289
9091.000000;0.483647
9090.000000;0.483956
9089.000000;0.484314
9088.000000;0.484742
9087.000000;0.485166
9086.000000;0.485549
9085.000000;0.485980
9084.000000;0.486580
9083.000000;0.487352
9082.000000;0.488121
9081.000000;0.488635
9080.000000;0.488759
9079.000000;0.488618
9078.000000;0.488506
9077.000000;0.488623
9076.000000;0.488913
9075.000000;0.489222
9074.000000;0.489553
9073.000000;0.490058
9072.000000;0.490756
9071.000000;0.491394
9070.000000;0.491707
9069.000000;0.491739
9068.000000;0.491777
9067.000000;0.491993
9066.000000;0.492283
9065.000000;0.492489
9064.000000;0.492641
9063.000000;0.492883
9062.000000;0.493257
9061.000000;0.493648
9060.000000;0.493943
9059.000000;0.494106
9058.000000;0.494136
9057.000000;0.494065
9056.000000;0.494018
9055.000000;0.494155
9054.000000;0.494489
9053.000000;0.494841
