Criado como novo conjunto de dados;"0307_DANIEL.spp","42844.2 Secs"
cm-1;Abs
10000.000000;1.051360
9999.000000;1.050272
9998.000000;1.049186
9997.000000;1.048103
9996.000000;1.047022
9995.000000;1.045945
9994.000000;1.044870
9993.000000;1.043798
9992.000000;1.042726
9991.000000;1.041718
9990.000000;1.040643
9989.000000;1.039587
9988.000000;1.038633
9987.000000;1.037663
9986.000000;1.036494
9985.000000;1.035124
9984.000000;1.033748
9983.000000;1.032533
9982.000000;1.031442
9981.000000;1.030328
9980.000000;1.029144
9979.000000;1.027986
9978.000000;1.026947
9977.000000;1.025993
9976.000000;1.024999
9975.000000;1.023843
9974.000000;1.022468
9973.000000;1.020878
9972.000000;1.019145
9971.000000;1.017405
9970.000000;1.015842
9969.000000;1.014648
9968.000000;1.013893
9967.000000;1.013366
9966.000000;1.012598
9965.000000;1.011224
9964.000000;1.009385
9963.000000;1.007644
9962.000000;1.006440
9961.000000;1.005652
9960.000000;1.004774
9959.000000;1.003451
9958.000000;1.001802
9957.000000;1.000211
9956.000000;0.998867
9955.000000;0.997537
9954.000000;0.995819
9953.000000;0.993671
9952.000000;0.991589
9951.000000;0.990167
9950.000000;0.989490
9949.000000;0.989089
9948.000000;0.988486
9947.000000;0.987628
9946.000000;0.986732
9945.000000;0.985874
9944.000000;0.984910
9943.000000;0.983709
9942.000000;0.982296
9941.000000;0.980755
9940.000000;0.979117
9939.000000;0.977388
9938.000000;0.975638
9937.000000;0.974006
9936.000000;0.972594
9935.000000;0.971362
9934.000000;0.970168
9933.000000;0.968944
9932.000000;0.967768
9931.000000;0.966698
9930.000000;0.965616
9929.000000;0.964398
9928.000000;0.963198
9927.000000;0.962329
9926.000000;0.961803
9925.000000;0.961192
9924.000000;0.960065
9923.000000;0.958432
9922.000000;0.956636
9921.000000;0.954980
9920.000000;0.953582
9919.000000;0.952431
9918.000000;0.951380
9917.000000;0.950165
9916.000000;0.948625
9915.000000;0.946902
9914.000000;0.945287
9913.000000;0.943926
9912.000000;0.942768
9911.000000;0.941695
9910.000000;0.940565
9909.000000;0.939222
9908.000000;0.937674
9907.000000;0.936213
9906.000000;0.935182
9905.000000;0.934603
9904.000000;0.934165
9903.000000;0.933511
9902.000000;0.932387
9901.000000;0.930633
9900.000000;0.928323
9899.000000;0.925905
9898.000000;0.923938
9897.000000;0.922579
9896.000000;0.921516
9895.000000;0.920396
9894.000000;0.919134
9893.000000;0.917765
9892.000000;0.916291
9891.000000;0.914809
9890.000000;0.913570
9889.000000;0.912704
9888.000000;0.911996
9887.000000;0.911067
9886.000000;0.909663
9885.000000;0.907709
9884.000000;0.905270
9883.000000;0.902627
9882.000000;0.900222
9881.000000;0.898304
9880.000000;0.896724
9879.000000;0.895269
9878.000000;0.894037
9877.000000;0.893236
9876.000000;0.892688
9875.000000;0.891889
9874.000000;0.890604
9873.000000;0.889088
9872.000000;0.887645
9871.000000;0.886252
9870.000000;0.884800
9869.000000;0.883430
9868.000000;0.882345
9867.000000;0.881432
9866.000000;0.880340
9865.000000;0.878926
9864.000000;0.877388
9863.000000;0.875956
9862.000000;0.874630
9861.000000;0.873284
9860.000000;0.871869
9859.000000;0.870433
9858.000000;0.869036
9857.000000;0.867671
9856.000000;0.866219
9855.000000;0.864505
9854.000000;0.862517
9853.000000;0.860544
9852.000000;0.858934
9851.000000;0.857709
9850.000000;0.856574
9849.000000;0.855359
9848.000000;0.854222
9847.000000;0.853280
9846.000000;0.852262
9845.000000;0.850770
9844.000000;0.848798
9843.000000;0.846720
9842.000000;0.844816
9841.000000;0.843061
9840.000000;0.841425
9839.000000;0.840060
9838.000000;0.839027
9837.000000;0.838032
9836.000000;0.836666
9835.000000;0.834868
9834.000000;0.832977
9833.000000;0.831299
9832.000000;0.829759
9831.000000;0.828043
9830.000000;0.826008
9829.000000;0.823884
9828.000000;0.822059
9827.000000;0.820709
9826.000000;0.819669
9825.000000;0.818629
9824.000000;0.817369
9823.000000;0.815800
9822.000000;0.813914
9821.000000;0.811830
9820.000000;0.809833
9819.000000;0.808193
9818.000000;0.806910
9817.000000;0.805754
9816.000000;0.804571
9815.000000;0.803426
9814.000000;0.802406
9813.000000;0.801405
9812.000000;0.800194
9811.000000;0.798617
9810.000000;0.796644
9809.000000;0.794362
9808.000000;0.792008
9807.000000;0.789908
9806.000000;0.788253
9805.000000;0.786973
9804.000000;0.785892
9803.000000;0.784879
9802.000000;0.783754
9801.000000;0.782200
9800.000000;0.780056
9799.000000;0.777661
9798.000000;0.775638
9797.000000;0.774254
9796.000000;0.773180
9795.000000;0.771953
9794.000000;0.770476
9793.000000;0.768897
9792.000000;0.767178
9791.000000;0.765104
9790.000000;0.762717
9789.000000;0.760502
9788.000000;0.758971
9787.000000;0.758140
9786.000000;0.757502
9785.000000;0.756476
9784.000000;0.754832
9783.000000;0.752755
9782.000000;0.750632
9781.000000;0.748798
9780.000000;0.747398
9779.000000;0.746335
9778.000000;0.745320
9777.000000;0.744033
9776.000000;0.742303
9775.000000;0.740167
9774.000000;0.737767
9773.000000;0.735239
9772.000000;0.732743
9771.000000;0.730556
9770.000000;0.728969
9769.000000;0.727984
9768.000000;0.727141
9767.000000;0.725837
9766.000000;0.723892
9765.000000;0.721722
9764.000000;0.719880
9763.000000;0.718491
9762.000000;0.717243
9761.000000;0.715857
9760.000000;0.714379
9759.000000;0.712953
9758.000000;0.711493
9757.000000;0.709754
9756.000000;0.707680
9755.000000;0.705526
9754.000000;0.703584
9753.000000;0.701880
9752.000000;0.700215
9751.000000;0.698429
9750.000000;0.696545
9749.000000;0.694652
9748.000000;0.692737
9747.000000;0.690711
9746.000000;0.688602
9745.000000;0.686627
9744.000000;0.684997
9743.000000;0.683679
9742.000000;0.682424
9741.000000;0.680999
9740.000000;0.679313
9739.000000;0.677313
9738.000000;0.674944
9737.000000;0.672350
9736.000000;0.669980
9735.000000;0.668278
9734.000000;0.667217
9733.000000;0.666234
9732.000000;0.664706
9731.000000;0.662481
9730.000000;0.659943
9729.000000;0.657605
9728.000000;0.655680
9727.000000;0.654032
9726.000000;0.652445
9725.000000;0.650864
9724.000000;0.649313
9723.000000;0.647677
9722.000000;0.645701
9721.000000;0.643301
9720.000000;0.640776
9719.000000;0.638627
9718.000000;0.637186
9717.000000;0.636396
9716.000000;0.635819
9715.000000;0.634811
9714.000000;0.632882
9713.000000;0.630105
9712.000000;0.627093
9711.000000;0.624447
9710.000000;0.622257
9709.000000;0.620233
9708.000000;0.618177
9707.000000;0.616139
9706.000000;0.614189
9705.000000;0.612295
9704.000000;0.610467
9703.000000;0.608786
9702.000000;0.607217
9701.000000;0.605565
9700.000000;0.603719
9699.000000;0.601790
9698.000000;0.599909
9697.000000;0.598041
9696.000000;0.596057
9695.000000;0.593889
9694.000000;0.591540
9693.000000;0.589082
9692.000000;0.586731
9691.000000;0.584735
9690.000000;0.583070
9689.000000;0.581384
9688.000000;0.579396
9687.000000;0.577238
9686.000000;0.575258
9685.000000;0.573583
9684.000000;0.572039
9683.000000;0.570417
9682.000000;0.568608
9681.000000;0.566554
9680.000000;0.564284
9679.000000;0.561995
9678.000000;0.559893
9677.000000;0.557919
9676.000000;0.555818
9675.000000;0.553503
9674.000000;0.551189
9673.000000;0.549084
9672.000000;0.547113
9671.000000;0.545069
9670.000000;0.542908
9669.000000;0.540780
9668.000000;0.538827
9667.000000;0.537040
9666.000000;0.535278
9665.000000;0.533315
9664.000000;0.530975
9663.000000;0.528365
9662.000000;0.525918
9661.000000;0.524010
9660.000000;0.522492
9659.000000;0.520766
9658.000000;0.518405
9657.000000;0.515596
9656.000000;0.512890
9655.000000;0.510624
9654.000000;0.508723
9653.000000;0.506939
9652.000000;0.505058
9651.000000;0.502924
9650.000000;0.500488
9649.000000;0.497936
9648.000000;0.495589
9647.000000;0.493565
9646.000000;0.491628
9645.000000;0.489487
9644.000000;0.487129
9643.000000;0.484743
9642.000000;0.482456
9641.000000;0.480299
9640.000000;0.478335
9639.000000;0.476589
9638.000000;0.474860
9637.000000;0.472831
9636.000000;0.470391
9635.000000;0.467739
9634.000000;0.465136
9633.000000;0.462714
9632.000000;0.460539
9631.000000;0.458633
9630.000000;0.456856
9629.000000;0.454943
9628.000000;0.452803
9627.000000;0.450643
9626.000000;0.448676
9625.000000;0.446803
9624.000000;0.444718
9623.000000;0.442267
9622.000000;0.439605
9621.000000;0.437050
9620.000000;0.434837
9619.000000;0.432941
9618.000000;0.431043
9617.000000;0.428790
9616.000000;0.426197
9615.000000;0.423697
9614.000000;0.421637
9613.000000;0.419845
9612.000000;0.417843
9611.000000;0.415436
9610.000000;0.412861
9609.000000;0.410397
9608.000000;0.408059
9607.000000;0.405726
9606.000000;0.403349
9605.000000;0.400909
9604.000000;0.398318
9603.000000;0.395518
9602.000000;0.392648
9601.000000;0.390006
9600.000000;0.387842
9599.000000;0.386162
9598.000000;0.384696
9597.000000;0.383046
9596.000000;0.380936
9595.000000;0.378373
9594.000000;0.375572
9593.000000;0.372766
9592.000000;0.370131
9591.000000;0.367798
9590.000000;0.365754
9589.000000;0.363766
9588.000000;0.361586
9587.000000;0.359281
9586.000000;0.357153
9585.000000;0.355245
9584.000000;0.353165
9583.000000;0.350558
9582.000000;0.347609
9581.000000;0.344822
9580.000000;0.342375
9579.000000;0.339958
9578.000000;0.337271
9577.000000;0.334440
9576.000000;0.331844
9575.000000;0.329677
9574.000000;0.327819
9573.000000;0.326000
9572.000000;0.323988
9571.000000;0.321664
9570.000000;0.319083
9569.000000;0.316457
9568.000000;0.313981
9567.000000;0.311637
9566.000000;0.309233
9565.000000;0.306648
9564.000000;0.303988
9563.000000;0.301516
9562.000000;0.299414
9561.000000;0.297633
9560.000000;0.295912
9559.000000;0.293968
9558.000000;0.291681
9557.000000;0.289145
9556.000000;0.286531
9555.000000;0.283944
9554.000000;0.281386
9553.000000;0.278808
9552.000000;0.276176
9551.000000;0.273544
9550.000000;0.271079
9549.000000;0.268940
9548.000000;0.267064
9547.000000;0.265143
9546.000000;0.262918
9545.000000;0.260496
9544.000000;0.258250
9543.000000;0.256408
9542.000000;0.254814
9541.000000;0.253119
9540.000000;0.251110
9539.000000;0.248818
9538.000000;0.246378
9537.000000;0.243892
9536.000000;0.241411
9535.000000;0.238994
9534.000000;0.236744
9533.000000;0.234756
9532.000000;0.233000
9531.000000;0.231292
9530.000000;0.229434
9529.000000;0.227390
9528.000000;0.225272
9527.000000;0.223182
9526.000000;0.221138
9525.000000;0.219134
9524.000000;0.217164
9523.000000;0.215178
9522.000000;0.213135
9521.000000;0.211132
9520.000000;0.209298
9519.000000;0.207511
9518.000000;0.205405
9517.000000;0.202838
9516.000000;0.200218
9515.000000;0.198118
9514.000000;0.196583
9513.000000;0.195079
9512.000000;0.193141
9511.000000;0.190882
9510.000000;0.188739
9509.000000;0.186907
9508.000000;0.185190
9507.000000;0.183340
9506.000000;0.181366
9505.000000;0.179483
9504.000000;0.177842
9503.000000;0.176369
9502.000000;0.174844
9501.000000;0.173134
9500.000000;0.171308
9499.000000;0.169520
9498.000000;0.167798
9497.000000;0.166007
9496.000000;0.164036
9495.000000;0.161963
9494.000000;0.160014
9493.000000;0.158399
9492.000000;0.157176
9491.000000;0.156208
9490.000000;0.155232
9489.000000;0.154072
9488.000000;0.152805
9487.000000;0.151649
9486.000000;0.150648
9485.000000;0.149585
9484.000000;0.148264
9483.000000;0.146778
9482.000000;0.145401
9481.000000;0.144278
9480.000000;0.143350
9479.000000;0.142497
9478.000000;0.141616
9477.000000;0.140569
9476.000000;0.139262
9475.000000;0.137821
9474.000000;0.136512
9473.000000;0.135413
9472.000000;0.134319
9471.000000;0.133085
9470.000000;0.131923
9469.000000;0.131141
9468.000000;0.130662
9467.000000;0.130019
9466.000000;0.128906
9465.000000;0.127557
9464.000000;0.126463
9463.000000;0.125819
9462.000000;0.125418
9461.000000;0.124998
9460.000000;0.124531
9459.000000;0.124147
9458.000000;0.123902
9457.000000;0.123709
9456.000000;0.123412
9455.000000;0.122890
9454.000000;0.122150
9453.000000;0.121386
9452.000000;0.120869
9451.000000;0.120699
9450.000000;0.120675
9449.000000;0.120504
9448.000000;0.120121
9447.000000;0.119737
9446.000000;0.119565
9445.000000;0.119580
9444.000000;0.119597
9443.000000;0.119489
9442.000000;0.119304
9441.000000;0.119212
9440.000000;0.119363
9439.000000;0.119737
9438.000000;0.120099
9437.000000;0.120184
9436.000000;0.119992
9435.000000;0.119820
9434.000000;0.119911
9433.000000;0.120148
9432.000000;0.120229
9431.000000;0.120098
9430.000000;0.120035
9429.000000;0.120282
9428.000000;0.120763
9427.000000;0.121276
9426.000000;0.121824
9425.000000;0.122573
9424.000000;0.123519
9423.000000;0.124389
9422.000000;0.124896
9421.000000;0.125013
9420.000000;0.124963
9419.000000;0.125024
9418.000000;0.125368
9417.000000;0.125974
9416.000000;0.126648
9415.000000;0.127175
9414.000000;0.127520
9413.000000;0.127839
9412.000000;0.128248
9411.000000;0.128692
9410.000000;0.129096
9409.000000;0.129554
9408.000000;0.130229
9407.000000;0.131084
9406.000000;0.131898
9405.000000;0.132578
9404.000000;0.133303
9403.000000;0.134259
9402.000000;0.135360
9401.000000;0.136365
9400.000000;0.137209
9399.000000;0.138042
9398.000000;0.138951
9397.000000;0.139801
9396.000000;0.140438
9395.000000;0.140922
9394.000000;0.141469
9393.000000;0.142229
9392.000000;0.143223
9391.000000;0.144436
9390.000000;0.145841
9389.000000;0.147310
9388.000000;0.148624
9387.000000;0.149634
9386.000000;0.150403
9385.000000;0.151136
9384.000000;0.152001
9383.000000;0.153032
9382.000000;0.154160
9381.000000;0.155302
9380.000000;0.156428
9379.000000;0.157561
9378.000000;0.158717
9377.000000;0.159845
9376.000000;0.160867
9375.000000;0.161804
9374.000000;0.162811
9373.000000;0.164037
9372.000000;0.165436
9371.000000;0.166775
9370.000000;0.167859
9369.000000;0.168726
9368.000000;0.169599
9367.000000;0.170650
9366.000000;0.171841
9365.000000;0.172984
9364.000000;0.173948
9363.000000;0.174792
9362.000000;0.175703
9361.000000;0.176836
9360.000000;0.178197
9359.000000;0.179660
9358.000000;0.181034
9357.000000;0.182144
9356.000000;0.182948
9355.000000;0.183631
9354.000000;0.184543
9353.000000;0.185906
9352.000000;0.187548
9351.000000;0.189000
9350.000000;0.189959
9349.000000;0.190618
9348.000000;0.191473
9347.000000;0.192820
9346.000000;0.194500
9345.000000;0.196129
9344.000000;0.197498
9343.000000;0.198686
9342.000000;0.199865
9341.000000;0.201081
9340.000000;0.202256
9339.000000;0.203333
9338.000000;0.204384
9337.000000;0.205551
9336.000000;0.206921
9335.000000;0.208447
9334.000000;0.209979
9333.000000;0.211363
9332.000000;0.212526
9331.000000;0.213502
9330.000000;0.214378
9329.000000;0.215216
9328.000000;0.216016
9327.000000;0.216783
9326.000000;0.217593
9325.000000;0.218552
9324.000000;0.219643
9323.000000;0.220693
9322.000000;0.221542
9321.000000;0.222216
9320.000000;0.222894
9319.000000;0.223735
9318.000000;0.224824
9317.000000;0.226230
9316.000000;0.227957
9315.000000;0.229812
9314.000000;0.231465
9313.000000;0.232742
9312.000000;0.233813
9311.000000;0.234973
9310.000000;0.236293
9309.000000;0.237551
9308.000000;0.238521
9307.000000;0.239235
9306.000000;0.239954
9305.000000;0.240922
9304.000000;0.242172
9303.000000;0.243542
9302.000000;0.244869
9301.000000;0.246150
9300.000000;0.247491
9299.000000;0.248921
9298.000000;0.250292
9297.000000;0.251409
9296.000000;0.252214
9295.000000;0.252817
9294.000000;0.253403
9293.000000;0.254136
9292.000000;0.255096
9291.000000;0.256248
9290.000000;0.257486
9289.000000;0.258735
9288.000000;0.259960
9287.000000;0.261068
9286.000000;0.261903
9285.000000;0.262449
9284.000000;0.262972
9283.000000;0.263821
9282.000000;0.265080
9281.000000;0.266521
9280.000000;0.267879
9279.000000;0.269079
9278.000000;0.270201
9277.000000;0.271335
9276.000000;0.272529
9275.000000;0.273797
9274.000000;0.275083
9273.000000;0.276265
9272.000000;0.277236
9271.000000;0.277991
9270.000000;0.278608
9269.000000;0.279194
9268.000000;0.279847
9267.000000;0.280644
9266.000000;0.281586
9265.000000;0.282594
9264.000000;0.283568
9263.000000;0.284491
9262.000000;0.285445
9261.000000;0.286520
9260.000000;0.287699
9259.000000;0.288848
9258.000000;0.289848
9257.000000;0.290737
9256.000000;0.291644
9255.000000;0.292600
9254.000000;0.293492
9253.000000;0.294260
9252.000000;0.295041
9251.000000;0.296021
9250.000000;0.297207
9249.000000;0.298420
9248.000000;0.299490
9247.000000;0.300337
9246.000000;0.300921
9245.000000;0.301256
9244.000000;0.301502
9243.000000;0.301907
9242.000000;0.302591
9241.000000;0.303473
9240.000000;0.304419
9239.000000;0.305389
9238.000000;0.306395
9237.000000;0.307425
9236.000000;0.308458
9235.000000;0.309474
9234.000000;0.310403
9233.000000;0.311136
9232.000000;0.311692
9231.000000;0.312312
9230.000000;0.313279
9229.000000;0.314620
9228.000000;0.316022
9227.000000;0.317090
9226.000000;0.317700
9225.000000;0.318122
9224.000000;0.318776
9223.000000;0.319831
9222.000000;0.321053
9221.000000;0.322059
9220.000000;0.322681
9219.000000;0.323068
9218.000000;0.323492
9217.000000;0.324158
9216.000000;0.325153
9215.000000;0.326393
9214.000000;0.327604
9213.000000;0.328487
9212.000000;0.328994
9211.000000;0.329330
9210.000000;0.329674
9209.000000;0.330000
9208.000000;0.330283
9207.000000;0.330698
9206.000000;0.331468
9205.000000;0.332565
9204.000000;0.333702
9203.000000;0.334613
9202.000000;0.335245
9201.000000;0.335712
9200.000000;0.336191
9199.000000;0.336868
9198.000000;0.337849
9197.000000;0.339047
9196.000000;0.340193
9195.000000;0.341013
9194.000000;0.341415
9193.000000;0.341528
9192.000000;0.341595
9191.000000;0.341827
9190.000000;0.342300
9189.000000;0.342956
9188.000000;0.343690
9187.000000;0.344423
9186.000000;0.345114
9185.000000;0.345765
9184.000000;0.346439
9183.000000;0.347225
9182.000000;0.348148
9181.000000;0.349148
9180.000000;0.350134
9179.000000;0.351022
9178.000000;0.351716
9177.000000;0.352177
9176.000000;0.352517
9175.000000;0.352939
9174.000000;0.353517
9173.000000;0.354125
9172.000000;0.354655
9171.000000;0.355207
9170.000000;0.355918
9169.000000;0.356708
9168.000000;0.357344
9167.000000;0.357757
9166.000000;0.358141
9165.000000;0.358710
9164.000000;0.359476
9163.000000;0.360292
9162.000000;0.361017
9161.000000;0.361592
9160.000000;0.362036
9159.000000;0.362439
9158.000000;0.362910
9157.000000;0.363497
9156.000000;0.364177
9155.000000;0.364910
9154.000000;0.365647
9153.000000;0.366286
9152.000000;0.366711
9151.000000;0.366921
9150.000000;0.367068
9149.000000;0.367313
9148.000000;0.367705
9147.000000;0.368230
9146.000000;0.368907
9145.000000;0.369747
9144.000000;0.370641
9143.000000;0.371397
9142.000000;0.371920
9141.000000;0.372294
9140.000000;0.372654
9139.000000;0.373026
9138.000000;0.373348
9137.000000;0.373640
9136.000000;0.374062
9135.000000;0.374737
9134.000000;0.375569
9133.000000;0.376309
9132.000000;0.376801
9131.000000;0.377099
9130.000000;0.377325
9129.000000;0.377540
9128.000000;0.377781
9127.000000;0.378138
9126.000000;0.378679
9125.000000;0.379329
9124.000000;0.379942
9123.000000;0.380477
9122.000000;0.380998
9121.000000;0.381523
9120.000000;0.381980
9119.000000;0.382352
9118.000000;0.382740
9117.000000;0.383231
9116.000000;0.383769
9115.000000;0.384235
9114.000000;0.384602
9113.000000;0.384933
9112.000000;0.385296
9111.000000;0.385722
9110.000000;0.386214
9109.000000;0.386733
9108.000000;0.387183
9107.000000;0.387496
9106.000000;0.387702
9105.000000;0.387863
9104.000000;0.387968
9103.000000;0.387984
9102.000000;0.388022
9101.000000;0.388321
9100.000000;0.388996
9099.000000;0.389846
9098.000000;0.390515
9097.000000;0.390844
9096.000000;0.391015
9095.000000;0.391317
9094.000000;0.391838
9093.000000;0.392418
9092.000000;0.392858
9091.000000;0.393115
9090.000000;0.393288
9089.000000;0.393483
9088.000000;0.393744
9087.000000;0.394074
9086.000000;0.394458
9085.000000;0.394861
9084.000000;0.395240
9083.000000;0.395579
9082.000000;0.395893
9081.000000;0.396180
9080.000000;0.396405
9079.000000;0.396580
9078.000000;0.396827
9077.000000;0.397295
9076.000000;0.397986
9075.000000;0.398704
9074.000000;0.399217
9073.000000;0.399464
9072.000000;0.399571
9071.000000;0.399687
9070.000000;0.399841
9069.000000;0.399978
9068.000000;0.400073
9067.000000;0.400167
9066.000000;0.400318
9065.000000;0.400560
9064.000000;0.400918
9063.000000;0.401392
9062.000000;0.401926
9061.000000;0.402412
9060.000000;0.402769
9059.000000;0.402994
9058.000000;0.403123
9057.000000;0.403191
9056.000000;0.403266
9055.000000;0.403458
9054.000000;0.403834
9053.000000;0.404319
