Criado como novo conjunto de dados;"0307_DANIEL.spp","48784.3 Secs"
cm-1;Abs
10000.000000;0.667477
9999.000000;0.666848
9998.000000;0.666220
9997.000000;0.665592
9996.000000;0.664966
9995.000000;0.664341
9994.000000;0.663716
9993.000000;0.663093
9992.000000;0.662468
9991.000000;0.661849
9990.000000;0.661225
9989.000000;0.660583
9988.000000;0.659663
9987.000000;0.658336
9986.000000;0.656855
9985.000000;0.655508
9984.000000;0.654458
9983.000000;0.653653
9982.000000;0.652859
9981.000000;0.651828
9980.000000;0.650573
9979.000000;0.649355
9978.000000;0.648349
9977.000000;0.647433
9976.000000;0.646408
9975.000000;0.645310
9974.000000;0.644302
9973.000000;0.643357
9972.000000;0.642247
9971.000000;0.640823
9970.000000;0.639187
9969.000000;0.637579
9968.000000;0.636211
9967.000000;0.635198
9966.000000;0.634483
9965.000000;0.633811
9964.000000;0.632880
9963.000000;0.631572
9962.000000;0.629992
9961.000000;0.628314
9960.000000;0.626681
9959.000000;0.625224
9958.000000;0.624033
9957.000000;0.623054
9956.000000;0.622123
9955.000000;0.621125
9954.000000;0.620056
9953.000000;0.618924
9952.000000;0.617708
9951.000000;0.616444
9950.000000;0.615253
9949.000000;0.614196
9948.000000;0.613183
9947.000000;0.612102
9946.000000;0.610965
9945.000000;0.609855
9944.000000;0.608771
9943.000000;0.607608
9942.000000;0.606296
9941.000000;0.604875
9940.000000;0.603441
9939.000000;0.602064
9938.000000;0.600780
9937.000000;0.599596
9936.000000;0.598474
9935.000000;0.597356
9934.000000;0.596226
9933.000000;0.595119
9932.000000;0.594038
9931.000000;0.592918
9930.000000;0.591722
9929.000000;0.590526
9928.000000;0.589429
9927.000000;0.588383
9926.000000;0.587225
9925.000000;0.585887
9924.000000;0.584476
9923.000000;0.583116
9922.000000;0.581799
9921.000000;0.580472
9920.000000;0.579166
9919.000000;0.577934
9918.000000;0.576734
9917.000000;0.575508
9916.000000;0.574331
9915.000000;0.573322
9914.000000;0.572418
9913.000000;0.571372
9912.000000;0.570033
9911.000000;0.568495
9910.000000;0.566941
9909.000000;0.565467
9908.000000;0.564119
9907.000000;0.562974
9906.000000;0.562051
9905.000000;0.561192
9904.000000;0.560156
9903.000000;0.558848
9902.000000;0.557394
9901.000000;0.555973
9900.000000;0.554637
9899.000000;0.553281
9898.000000;0.551784
9897.000000;0.550148
9896.000000;0.548512
9895.000000;0.547017
9894.000000;0.545666
9893.000000;0.544344
9892.000000;0.542946
9891.000000;0.541468
9890.000000;0.540008
9889.000000;0.538712
9888.000000;0.537684
9887.000000;0.536873
9886.000000;0.536070
9885.000000;0.535103
9884.000000;0.533997
9883.000000;0.532880
9882.000000;0.531750
9881.000000;0.530488
9880.000000;0.529087
9879.000000;0.527725
9878.000000;0.526532
9877.000000;0.525393
9876.000000;0.524053
9875.000000;0.522387
9874.000000;0.520528
9873.000000;0.518798
9872.000000;0.517478
9871.000000;0.516535
9870.000000;0.515568
9869.000000;0.514150
9868.000000;0.512301
9867.000000;0.510463
9866.000000;0.508963
9865.000000;0.507664
9864.000000;0.506252
9863.000000;0.504697
9862.000000;0.503274
9861.000000;0.502180
9860.000000;0.501327
9859.000000;0.500476
9858.000000;0.499426
9857.000000;0.498078
9856.000000;0.496461
9855.000000;0.494723
9854.000000;0.493017
9853.000000;0.491388
9852.000000;0.489809
9851.000000;0.488323
9850.000000;0.487025
9849.000000;0.485914
9848.000000;0.484843
9847.000000;0.483660
9846.000000;0.482325
9845.000000;0.480877
9844.000000;0.479357
9843.000000;0.477809
9842.000000;0.476286
9841.000000;0.474816
9840.000000;0.473371
9839.000000;0.471911
9838.000000;0.470429
9837.000000;0.468926
9836.000000;0.467352
9835.000000;0.465633
9834.000000;0.463774
9833.000000;0.461925
9832.000000;0.460273
9831.000000;0.458864
9830.000000;0.457557
9829.000000;0.456190
9828.000000;0.454742
9827.000000;0.453287
9826.000000;0.451845
9825.000000;0.450353
9824.000000;0.448791
9823.000000;0.447231
9822.000000;0.445760
9821.000000;0.444422
9820.000000;0.443228
9819.000000;0.442126
9818.000000;0.440945
9817.000000;0.439491
9816.000000;0.437756
9815.000000;0.435946
9814.000000;0.434257
9813.000000;0.432719
9812.000000;0.431283
9811.000000;0.429950
9810.000000;0.428720
9809.000000;0.427517
9808.000000;0.426251
9807.000000;0.424908
9806.000000;0.423494
9805.000000;0.421957
9804.000000;0.420273
9803.000000;0.418544
9802.000000;0.416909
9801.000000;0.415383
9800.000000;0.413877
9799.000000;0.412324
9798.000000;0.410710
9797.000000;0.409027
9796.000000;0.407302
9795.000000;0.405636
9794.000000;0.404103
9793.000000;0.402655
9792.000000;0.401211
9791.000000;0.399814
9790.000000;0.398560
9789.000000;0.397371
9788.000000;0.395986
9787.000000;0.394251
9786.000000;0.392311
9785.000000;0.390455
9784.000000;0.388824
9783.000000;0.387320
9782.000000;0.385766
9781.000000;0.384115
9780.000000;0.382494
9779.000000;0.381053
9778.000000;0.379762
9777.000000;0.378379
9776.000000;0.376673
9775.000000;0.374672
9774.000000;0.372647
9773.000000;0.370846
9772.000000;0.369282
9771.000000;0.367782
9770.000000;0.366186
9769.000000;0.364496
9768.000000;0.362834
9767.000000;0.361275
9766.000000;0.359739
9765.000000;0.358069
9764.000000;0.356232
9763.000000;0.354370
9762.000000;0.352614
9761.000000;0.350930
9760.000000;0.349211
9759.000000;0.347461
9758.000000;0.345788
9757.000000;0.344244
9756.000000;0.342768
9755.000000;0.341308
9754.000000;0.339872
9753.000000;0.338462
9752.000000;0.337026
9751.000000;0.335516
9750.000000;0.333915
9749.000000;0.332186
9748.000000;0.330278
9747.000000;0.328231
9746.000000;0.326211
9745.000000;0.324384
9744.000000;0.322794
9743.000000;0.321359
9742.000000;0.319931
9741.000000;0.318345
9740.000000;0.316530
9739.000000;0.314618
9738.000000;0.312864
9737.000000;0.311356
9736.000000;0.309868
9735.000000;0.308114
9734.000000;0.306091
9733.000000;0.304066
9732.000000;0.302207
9731.000000;0.300398
9730.000000;0.298461
9729.000000;0.296459
9728.000000;0.294639
9727.000000;0.293129
9726.000000;0.291782
9725.000000;0.290334
9724.000000;0.288646
9723.000000;0.286758
9722.000000;0.284798
9721.000000;0.282886
9720.000000;0.281075
9719.000000;0.279338
9718.000000;0.277598
9717.000000;0.275820
9716.000000;0.274050
9715.000000;0.272333
9714.000000;0.270631
9713.000000;0.268844
9712.000000;0.266930
9711.000000;0.264933
9710.000000;0.262917
9709.000000;0.260918
9708.000000;0.258954
9707.000000;0.257021
9706.000000;0.255056
9705.000000;0.252977
9704.000000;0.250810
9703.000000;0.248735
9702.000000;0.246925
9701.000000;0.245349
9700.000000;0.243791
9699.000000;0.242058
9698.000000;0.240132
9697.000000;0.238110
9696.000000;0.236080
9695.000000;0.234094
9694.000000;0.232222
9693.000000;0.230523
9692.000000;0.228946
9691.000000;0.227302
9690.000000;0.225412
9689.000000;0.223285
9688.000000;0.221107
9687.000000;0.219047
9686.000000;0.217100
9685.000000;0.215178
9684.000000;0.213288
9683.000000;0.211543
9682.000000;0.209944
9681.000000;0.208258
9680.000000;0.206217
9679.000000;0.203831
9678.000000;0.201413
9677.000000;0.199260
9676.000000;0.197372
9675.000000;0.195529
9674.000000;0.193562
9673.000000;0.191486
9672.000000;0.189387
9671.000000;0.187320
9670.000000;0.185337
9669.000000;0.183508
9668.000000;0.181830
9667.000000;0.180161
9666.000000;0.178331
9665.000000;0.176296
9664.000000;0.174123
9663.000000;0.171876
9662.000000;0.169605
9661.000000;0.167398
9660.000000;0.165318
9659.000000;0.163306
9658.000000;0.161245
9657.000000;0.159146
9656.000000;0.157141
9655.000000;0.155262
9654.000000;0.153363
9653.000000;0.151320
9652.000000;0.149201
9651.000000;0.147137
9650.000000;0.145139
9649.000000;0.143142
9648.000000;0.141150
9647.000000;0.139193
9646.000000;0.137216
9645.000000;0.135153
9644.000000;0.133070
9643.000000;0.131092
9642.000000;0.129193
9641.000000;0.127185
9640.000000;0.124939
9639.000000;0.122513
9638.000000;0.120065
9637.000000;0.117732
9636.000000;0.115591
9635.000000;0.113610
9634.000000;0.111620
9633.000000;0.109439
9632.000000;0.107060
9631.000000;0.104648
9630.000000;0.102334
9629.000000;0.100126
9628.000000;0.097995
9627.000000;0.095927
9626.000000;0.093865
9625.000000;0.091745
9624.000000;0.089628
9623.000000;0.087646
9622.000000;0.085779
9621.000000;0.083794
9620.000000;0.081533
9619.000000;0.079115
9618.000000;0.076760
9617.000000;0.074509
9616.000000;0.072237
9615.000000;0.069884
9614.000000;0.067534
9613.000000;0.065305
9612.000000;0.063257
9611.000000;0.061378
9610.000000;0.059569
9609.000000;0.057672
9608.000000;0.055576
9607.000000;0.053313
9606.000000;0.050980
9605.000000;0.048627
9604.000000;0.046253
9603.000000;0.043859
9602.000000;0.041422
9601.000000;0.038891
9600.000000;0.036305
9599.000000;0.033860
9598.000000;0.031723
9597.000000;0.029823
9596.000000;0.027910
9595.000000;0.025833
9594.000000;0.023639
9593.000000;0.021418
9592.000000;0.019189
9591.000000;0.016962
9590.000000;0.014784
9589.000000;0.012639
9588.000000;0.010399
9587.000000;0.007966
9586.000000;0.005403
9585.000000;0.002878
9584.000000;0.000501
9583.000000;-0.001729
9582.000000;-0.003879
9581.000000;-0.006019
9580.000000;-0.008194
9579.000000;-0.010379
9578.000000;-0.012515
9577.000000;-0.014614
9576.000000;-0.016784
9575.000000;-0.019112
9574.000000;-0.021534
9573.000000;-0.023931
9572.000000;-0.026291
9571.000000;-0.028712
9570.000000;-0.031219
9569.000000;-0.033692
9568.000000;-0.036008
9567.000000;-0.038172
9566.000000;-0.040251
9565.000000;-0.042245
9564.000000;-0.044142
9563.000000;-0.046076
9562.000000;-0.048295
9561.000000;-0.050920
9560.000000;-0.053777
9559.000000;-0.056545
9558.000000;-0.059028
9557.000000;-0.061258
9556.000000;-0.063364
9555.000000;-0.065426
9554.000000;-0.067468
9553.000000;-0.069509
9552.000000;-0.071588
9551.000000;-0.073728
9550.000000;-0.075907
9549.000000;-0.078062
9548.000000;-0.080147
9547.000000;-0.082196
9546.000000;-0.084301
9545.000000;-0.086497
9544.000000;-0.088703
9543.000000;-0.090822
9542.000000;-0.092870
9541.000000;-0.094952
9540.000000;-0.097131
9539.000000;-0.099385
9538.000000;-0.101689
9537.000000;-0.104047
9536.000000;-0.106425
9535.000000;-0.108721
9534.000000;-0.110861
9533.000000;-0.112875
9532.000000;-0.114860
9531.000000;-0.116883
9530.000000;-0.118959
9529.000000;-0.121044
9528.000000;-0.123026
9527.000000;-0.124802
9526.000000;-0.126433
9525.000000;-0.128175
9524.000000;-0.130253
9523.000000;-0.132603
9522.000000;-0.134920
9521.000000;-0.136957
9520.000000;-0.138736
9519.000000;-0.140466
9518.000000;-0.142312
9517.000000;-0.144267
9516.000000;-0.146202
9515.000000;-0.148011
9514.000000;-0.149700
9513.000000;-0.151338
9512.000000;-0.152973
9511.000000;-0.154637
9510.000000;-0.156427
9509.000000;-0.158436
9508.000000;-0.160564
9507.000000;-0.162490
9506.000000;-0.163992
9505.000000;-0.165258
9504.000000;-0.166718
9503.000000;-0.168564
9502.000000;-0.170547
9501.000000;-0.172301
9500.000000;-0.173767
9499.000000;-0.175197
9498.000000;-0.176834
9497.000000;-0.178668
9496.000000;-0.180489
9495.000000;-0.182100
9494.000000;-0.183471
9493.000000;-0.184722
9492.000000;-0.185986
9491.000000;-0.187294
9490.000000;-0.188610
9489.000000;-0.189927
9488.000000;-0.191266
9487.000000;-0.192571
9486.000000;-0.193719
9485.000000;-0.194687
9484.000000;-0.195650
9483.000000;-0.196828
9482.000000;-0.198256
9481.000000;-0.199766
9480.000000;-0.201143
9479.000000;-0.202267
9478.000000;-0.203137
9477.000000;-0.203859
9476.000000;-0.204601
9475.000000;-0.205469
9474.000000;-0.206427
9473.000000;-0.207361
9472.000000;-0.208214
9471.000000;-0.209008
9470.000000;-0.209774
9469.000000;-0.210549
9468.000000;-0.211431
9467.000000;-0.212504
9466.000000;-0.213664
9465.000000;-0.214638
9464.000000;-0.215242
9463.000000;-0.215591
9462.000000;-0.215965
9461.000000;-0.216503
9460.000000;-0.217093
9459.000000;-0.217552
9458.000000;-0.217846
9457.000000;-0.218123
9456.000000;-0.218565
9455.000000;-0.219219
9454.000000;-0.219950
9453.000000;-0.220536
9452.000000;-0.220827
9451.000000;-0.220842
9450.000000;-0.220755
9449.000000;-0.220777
9448.000000;-0.221008
9447.000000;-0.221372
9446.000000;-0.221678
9445.000000;-0.221794
9444.000000;-0.221760
9443.000000;-0.221729
9442.000000;-0.221801
9441.000000;-0.221936
9440.000000;-0.222012
9439.000000;-0.221934
9438.000000;-0.221695
9437.000000;-0.221392
9436.000000;-0.221169
9435.000000;-0.221093
9434.000000;-0.221052
9433.000000;-0.220845
9432.000000;-0.220407
9431.000000;-0.219913
9430.000000;-0.219588
9429.000000;-0.219462
9428.000000;-0.219351
9427.000000;-0.219092
9426.000000;-0.218701
9425.000000;-0.218297
9424.000000;-0.217918
9423.000000;-0.217476
9422.000000;-0.216885
9421.000000;-0.216197
9420.000000;-0.215553
9419.000000;-0.215018
9418.000000;-0.214518
9417.000000;-0.213973
9416.000000;-0.213430
9415.000000;-0.212999
9414.000000;-0.212668
9413.000000;-0.212266
9412.000000;-0.211634
9411.000000;-0.210763
9410.000000;-0.209723
9409.000000;-0.208582
9408.000000;-0.207450
9407.000000;-0.206511
9406.000000;-0.205861
9405.000000;-0.205337
9404.000000;-0.204651
9403.000000;-0.203716
9402.000000;-0.202717
9401.000000;-0.201841
9400.000000;-0.201032
9399.000000;-0.200107
9398.000000;-0.199026
9397.000000;-0.197938
9396.000000;-0.196985
9395.000000;-0.196174
9394.000000;-0.195424
9393.000000;-0.194668
9392.000000;-0.193861
9391.000000;-0.192963
9390.000000;-0.191953
9389.000000;-0.190858
9388.000000;-0.189736
9387.000000;-0.188635
9386.000000;-0.187572
9385.000000;-0.186514
9384.000000;-0.185409
9383.000000;-0.184244
9382.000000;-0.183077
9381.000000;-0.181977
9380.000000;-0.180926
9379.000000;-0.179825
9378.000000;-0.178609
9377.000000;-0.177317
9376.000000;-0.176017
9375.000000;-0.174719
9374.000000;-0.173433
9373.000000;-0.172251
9372.000000;-0.171263
9371.000000;-0.170394
9370.000000;-0.169418
9369.000000;-0.168219
9368.000000;-0.166942
9367.000000;-0.165807
9366.000000;-0.164821
9365.000000;-0.163767
9364.000000;-0.162480
9363.000000;-0.161021
9362.000000;-0.159569
9361.000000;-0.158253
9360.000000;-0.157102
9359.000000;-0.156092
9358.000000;-0.155150
9357.000000;-0.154158
9356.000000;-0.153030
9355.000000;-0.151757
9354.000000;-0.150373
9353.000000;-0.148919
9352.000000;-0.147498
9351.000000;-0.146273
9350.000000;-0.145316
9349.000000;-0.144491
9348.000000;-0.143561
9347.000000;-0.142414
9346.000000;-0.141089
9345.000000;-0.139642
9344.000000;-0.138096
9343.000000;-0.136533
9342.000000;-0.135088
9341.000000;-0.133804
9340.000000;-0.132597
9339.000000;-0.131420
9338.000000;-0.130338
9337.000000;-0.129377
9336.000000;-0.128381
9335.000000;-0.127154
9334.000000;-0.125700
9333.000000;-0.124229
9332.000000;-0.122947
9331.000000;-0.121895
9330.000000;-0.120981
9329.000000;-0.120057
9328.000000;-0.118982
9327.000000;-0.117699
9326.000000;-0.116280
9325.000000;-0.114844
9324.000000;-0.113441
9323.000000;-0.112077
9322.000000;-0.110819
9321.000000;-0.109783
9320.000000;-0.108972
9319.000000;-0.108197
9318.000000;-0.107215
9317.000000;-0.105931
9316.000000;-0.104446
9315.000000;-0.102941
9314.000000;-0.101546
9313.000000;-0.100295
9312.000000;-0.099154
9311.000000;-0.098066
9310.000000;-0.096953
9309.000000;-0.095711
9308.000000;-0.094281
9307.000000;-0.092732
9306.000000;-0.091255
9305.000000;-0.089998
9304.000000;-0.088940
9303.000000;-0.087965
9302.000000;-0.087010
9301.000000;-0.086100
9300.000000;-0.085237
9299.000000;-0.084355
9298.000000;-0.083377
9297.000000;-0.082270
9296.000000;-0.081028
9295.000000;-0.079677
9294.000000;-0.078301
9293.000000;-0.076983
9292.000000;-0.075711
9291.000000;-0.074400
9290.000000;-0.073037
9289.000000;-0.071725
9288.000000;-0.070571
9287.000000;-0.069572
9286.000000;-0.068677
9285.000000;-0.067854
9284.000000;-0.067045
9283.000000;-0.066108
9282.000000;-0.064922
9281.000000;-0.063528
9280.000000;-0.062101
9279.000000;-0.060778
9278.000000;-0.059589
9277.000000;-0.058547
9276.000000;-0.057695
9275.000000;-0.056993
9274.000000;-0.056248
9273.000000;-0.055276
9272.000000;-0.054095
9271.000000;-0.052909
9270.000000;-0.051861
9269.000000;-0.050892
9268.000000;-0.049882
9267.000000;-0.048843
9266.000000;-0.047890
9265.000000;-0.047044
9264.000000;-0.046163
9263.000000;-0.045119
9262.000000;-0.043948
9261.000000;-0.042789
9260.000000;-0.041717
9259.000000;-0.040717
9258.000000;-0.039784
9257.000000;-0.038935
9256.000000;-0.038138
9255.000000;-0.037298
9254.000000;-0.036360
9253.000000;-0.035370
9252.000000;-0.034388
9251.000000;-0.033390
9250.000000;-0.032299
9249.000000;-0.031114
9248.000000;-0.029949
9247.000000;-0.028943
9246.000000;-0.028121
9245.000000;-0.027356
9244.000000;-0.026481
9243.000000;-0.025444
9242.000000;-0.024350
9241.000000;-0.023351
9240.000000;-0.022493
9239.000000;-0.021712
9238.000000;-0.020930
9237.000000;-0.020111
9236.000000;-0.019217
9235.000000;-0.018209
9234.000000;-0.017114
9233.000000;-0.016063
9232.000000;-0.015184
9231.000000;-0.014448
9230.000000;-0.013683
9229.000000;-0.012753
9228.000000;-0.011719
9227.000000;-0.010793
9226.000000;-0.010116
9225.000000;-0.009606
9224.000000;-0.009039
9223.000000;-0.008283
9222.000000;-0.007397
9221.000000;-0.006508
9220.000000;-0.005640
9219.000000;-0.004730
9218.000000;-0.003761
9217.000000;-0.002819
9216.000000;-0.002008
9215.000000;-0.001337
9214.000000;-0.000731
9213.000000;-0.000089
9212.000000;0.000664
9211.000000;0.001551
9210.000000;0.002525
9209.000000;0.003510
9208.000000;0.004457
9207.000000;0.005370
9206.000000;0.006261
9205.000000;0.007117
9204.000000;0.007917
9203.000000;0.008667
9202.000000;0.009392
9201.000000;0.010114
9200.000000;0.010833
9199.000000;0.011534
9198.000000;0.012217
9197.000000;0.012918
9196.000000;0.013705
9195.000000;0.014612
9194.000000;0.015586
9193.000000;0.016513
9192.000000;0.017319
9191.000000;0.018005
9190.000000;0.018622
9189.000000;0.019226
9188.000000;0.019860
9187.000000;0.020535
9186.000000;0.021224
9185.000000;0.021880
9184.000000;0.022484
9183.000000;0.023053
9182.000000;0.023630
9181.000000;0.024279
9180.000000;0.025052
9179.000000;0.025923
9178.000000;0.026768
9177.000000;0.027475
9176.000000;0.028080
9175.000000;0.028733
9174.000000;0.029514
9173.000000;0.030356
9172.000000;0.031147
9171.000000;0.031851
9170.000000;0.032500
9169.000000;0.033128
9168.000000;0.033757
9167.000000;0.034399
9166.000000;0.035031
9165.000000;0.035621
9164.000000;0.036192
9163.000000;0.036815
9162.000000;0.037494
9161.000000;0.038120
9160.000000;0.038609
9159.000000;0.039047
9158.000000;0.039609
9157.000000;0.040340
9156.000000;0.041096
9155.000000;0.041723
9154.000000;0.042225
9153.000000;0.042728
9152.000000;0.043328
9151.000000;0.044011
9150.000000;0.044692
9149.000000;0.045296
9148.000000;0.045795
9147.000000;0.046212
9146.000000;0.046593
9145.000000;0.046985
9144.000000;0.047436
9143.000000;0.047998
9142.000000;0.048690
9141.000000;0.049441
9140.000000;0.050102
9139.000000;0.050570
9138.000000;0.050909
9137.000000;0.051332
9136.000000;0.052004
9135.000000;0.052861
9134.000000;0.053643
9133.000000;0.054143
9132.000000;0.054398
9131.000000;0.054629
9130.000000;0.055011
9129.000000;0.055546
9128.000000;0.056157
9127.000000;0.056808
9126.000000;0.057494
9125.000000;0.058157
9124.000000;0.058706
9123.000000;0.059126
9122.000000;0.059535
9121.000000;0.060074
9120.000000;0.060754
9119.000000;0.061437
9118.000000;0.061965
9117.000000;0.062304
9116.000000;0.062564
9115.000000;0.062901
9114.000000;0.063383
9113.000000;0.063961
9112.000000;0.064528
9111.000000;0.065007
9110.000000;0.065402
9109.000000;0.065782
9108.000000;0.066224
9107.000000;0.066758
9106.000000;0.067357
9105.000000;0.067976
9104.000000;0.068593
9103.000000;0.069192
9102.000000;0.069727
9101.000000;0.070151
9100.000000;0.070477
9099.000000;0.070787
9098.000000;0.071152
9097.000000;0.071551
9096.000000;0.071899
9095.000000;0.072159
9094.000000;0.072404
9093.000000;0.072761
9092.000000;0.073298
9091.000000;0.073960
9090.000000;0.074617
9089.000000;0.075159
9088.000000;0.075566
9087.000000;0.075881
9086.000000;0.076151
9085.000000;0.076393
9084.000000;0.076641
9083.000000;0.076966
9082.000000;0.077433
9081.000000;0.078010
9080.000000;0.078576
9079.000000;0.079019
9078.000000;0.079350
9077.000000;0.079673
9076.000000;0.080061
9075.000000;0.080469
9074.000000;0.080790
9073.000000;0.080978
9072.000000;0.081101
9071.000000;0.081295
9070.000000;0.081655
