Criado como novo conjunto de dados;"0307_DANIEL.spp","61925.0 Secs"
cm-1;Abs
10000.000000;0.575004
9999.000000;0.574397
9998.000000;0.574045
9997.000000;0.573711
9996.000000;0.573079
9995.000000;0.572022
9994.000000;0.570738
9993.000000;0.569638
9992.000000;0.569006
9991.000000;0.568684
9990.000000;0.568177
9989.000000;0.567184
9988.000000;0.565956
9987.000000;0.564972
9986.000000;0.564356
9985.000000;0.563807
9984.000000;0.563074
9983.000000;0.562232
9982.000000;0.561450
9981.000000;0.560740
9980.000000;0.560050
9979.000000;0.559418
9978.000000;0.558843
9977.000000;0.558148
9976.000000;0.557171
9975.000000;0.556008
9974.000000;0.554898
9973.000000;0.553902
9972.000000;0.552892
9971.000000;0.551843
9970.000000;0.550936
9969.000000;0.550297
9968.000000;0.549761
9967.000000;0.549027
9966.000000;0.548007
9965.000000;0.546920
9964.000000;0.546061
9963.000000;0.545543
9962.000000;0.545247
9961.000000;0.544912
9960.000000;0.544259
9959.000000;0.543162
9958.000000;0.541785
9957.000000;0.540502
9956.000000;0.539536
9955.000000;0.538701
9954.000000;0.537616
9953.000000;0.536199
9952.000000;0.534820
9951.000000;0.533902
9950.000000;0.533500
9949.000000;0.533339
9948.000000;0.533116
9947.000000;0.532668
9946.000000;0.531939
9945.000000;0.531001
9944.000000;0.530060
9943.000000;0.529269
9942.000000;0.528531
9941.000000;0.527623
9940.000000;0.526522
9939.000000;0.525424
9938.000000;0.524440
9937.000000;0.523449
9936.000000;0.522341
9935.000000;0.521251
9934.000000;0.520431
9933.000000;0.519980
9932.000000;0.519775
9931.000000;0.519558
9930.000000;0.519035
9929.000000;0.518024
9928.000000;0.516641
9927.000000;0.515283
9926.000000;0.514270
9925.000000;0.513567
9924.000000;0.512918
9923.000000;0.512184
9922.000000;0.511421
9921.000000;0.510701
9920.000000;0.509985
9919.000000;0.509173
9918.000000;0.508153
9917.000000;0.506845
9916.000000;0.505349
9915.000000;0.504011
9914.000000;0.503160
9913.000000;0.502737
9912.000000;0.502313
9911.000000;0.501535
9910.000000;0.500433
9909.000000;0.499248
9908.000000;0.498097
9907.000000;0.496919
9906.000000;0.495657
9905.000000;0.494363
9904.000000;0.493137
9903.000000;0.492050
9902.000000;0.491094
9901.000000;0.490182
9900.000000;0.489220
9899.000000;0.488233
9898.000000;0.487336
9897.000000;0.486537
9896.000000;0.485654
9895.000000;0.484551
9894.000000;0.483372
9893.000000;0.482406
9892.000000;0.481735
9891.000000;0.481146
9890.000000;0.480389
9889.000000;0.479391
9888.000000;0.478200
9887.000000;0.476878
9886.000000;0.475527
9885.000000;0.474304
9884.000000;0.473289
9883.000000;0.472381
9882.000000;0.471409
9881.000000;0.470323
9880.000000;0.469214
9879.000000;0.468184
9878.000000;0.467270
9877.000000;0.466445
9876.000000;0.465629
9875.000000;0.464711
9874.000000;0.463653
9873.000000;0.462567
9872.000000;0.461613
9871.000000;0.460804
9870.000000;0.459997
9869.000000;0.459075
9868.000000;0.458095
9867.000000;0.457175
9866.000000;0.456289
9865.000000;0.455243
9864.000000;0.453884
9863.000000;0.452330
9862.000000;0.450954
9861.000000;0.450076
9860.000000;0.449660
9859.000000;0.449322
9858.000000;0.448636
9857.000000;0.447431
9856.000000;0.445820
9855.000000;0.444067
9854.000000;0.442477
9853.000000;0.441280
9852.000000;0.440470
9851.000000;0.439760
9850.000000;0.438814
9849.000000;0.437563
9848.000000;0.436198
9847.000000;0.434891
9846.000000;0.433638
9845.000000;0.432401
9844.000000;0.431223
9843.000000;0.430137
9842.000000;0.429055
9841.000000;0.427889
9840.000000;0.426711
9839.000000;0.425684
9838.000000;0.424819
9837.000000;0.423931
9836.000000;0.422829
9835.000000;0.421518
9834.000000;0.420215
9833.000000;0.419195
9832.000000;0.418581
9831.000000;0.418193
9830.000000;0.417601
9829.000000;0.416442
9828.000000;0.414729
9827.000000;0.412832
9826.000000;0.411144
9825.000000;0.409792
9824.000000;0.408661
9823.000000;0.407606
9822.000000;0.406605
9821.000000;0.405720
9820.000000;0.404954
9819.000000;0.404128
9818.000000;0.402933
9817.000000;0.401157
9816.000000;0.398961
9815.000000;0.396867
9814.000000;0.395395
9813.000000;0.394622
9812.000000;0.394125
9811.000000;0.393376
9810.000000;0.392223
9809.000000;0.390968
9808.000000;0.390000
9807.000000;0.389371
9806.000000;0.388740
9805.000000;0.387694
9804.000000;0.386107
9803.000000;0.384226
9802.000000;0.382450
9801.000000;0.381021
9800.000000;0.379900
9799.000000;0.378925
9798.000000;0.378018
9797.000000;0.377198
9796.000000;0.376397
9795.000000;0.375364
9794.000000;0.373880
9793.000000;0.372043
9792.000000;0.370249
9791.000000;0.368857
9790.000000;0.367894
9789.000000;0.367066
9788.000000;0.366022
9787.000000;0.364617
9786.000000;0.363009
9785.000000;0.361487
9784.000000;0.360179
9783.000000;0.358922
9782.000000;0.357489
9781.000000;0.355903
9780.000000;0.354432
9779.000000;0.353256
9778.000000;0.352264
9777.000000;0.351228
9776.000000;0.350066
9775.000000;0.348830
9774.000000;0.347556
9773.000000;0.346250
9772.000000;0.344969
9771.000000;0.343772
9770.000000;0.342581
9769.000000;0.341242
9768.000000;0.339751
9767.000000;0.338299
9766.000000;0.337049
9765.000000;0.335908
9764.000000;0.334605
9763.000000;0.332981
9762.000000;0.331164
9761.000000;0.329492
9760.000000;0.328239
9759.000000;0.327381
9758.000000;0.326589
9757.000000;0.325472
9756.000000;0.323890
9755.000000;0.322060
9754.000000;0.320361
9753.000000;0.319024
9752.000000;0.317981
9751.000000;0.316917
9750.000000;0.315505
9749.000000;0.313648
9748.000000;0.311566
9747.000000;0.309620
9746.000000;0.308019
9745.000000;0.306676
9744.000000;0.305350
9743.000000;0.303892
9742.000000;0.302322
9741.000000;0.300695
9740.000000;0.298982
9739.000000;0.297144
9738.000000;0.295297
9737.000000;0.293678
9736.000000;0.292398
9735.000000;0.291275
9734.000000;0.289990
9733.000000;0.288437
9732.000000;0.286823
9731.000000;0.285403
9730.000000;0.284208
9729.000000;0.283099
9728.000000;0.282018
9727.000000;0.281048
9726.000000;0.280207
9725.000000;0.279312
9724.000000;0.278128
9723.000000;0.276601
9722.000000;0.274889
9721.000000;0.273174
9720.000000;0.271517
9719.000000;0.269884
9718.000000;0.268250
9717.000000;0.266629
9716.000000;0.265024
9715.000000;0.263396
9714.000000;0.261692
9713.000000;0.259901
9712.000000;0.258078
9711.000000;0.256329
9710.000000;0.254731
9709.000000;0.253262
9708.000000;0.251812
9707.000000;0.250295
9706.000000;0.248727
9705.000000;0.247181
9704.000000;0.245681
9703.000000;0.244212
9702.000000;0.242776
9701.000000;0.241343
9700.000000;0.239770
9699.000000;0.237915
9698.000000;0.235923
9697.000000;0.234234
9696.000000;0.233133
9695.000000;0.232333
9694.000000;0.231215
9693.000000;0.229488
9692.000000;0.227443
9691.000000;0.225525
9690.000000;0.223811
9689.000000;0.222031
9688.000000;0.219963
9687.000000;0.217665
9686.000000;0.215395
9685.000000;0.213454
9684.000000;0.212045
9683.000000;0.211122
9682.000000;0.210342
9681.000000;0.209267
9680.000000;0.207686
9679.000000;0.205736
9678.000000;0.203707
9677.000000;0.201773
9676.000000;0.199925
9675.000000;0.198070
9674.000000;0.196191
9673.000000;0.194393
9672.000000;0.192803
9671.000000;0.191413
9670.000000;0.190077
9669.000000;0.188680
9668.000000;0.187242
9667.000000;0.185784
9666.000000;0.184164
9665.000000;0.182195
9664.000000;0.179929
9663.000000;0.177704
9662.000000;0.175840
9661.000000;0.174352
9660.000000;0.172989
9659.000000;0.171486
9658.000000;0.169719
9657.000000;0.167690
9656.000000;0.165468
9655.000000;0.163179
9654.000000;0.160961
9653.000000;0.158918
9652.000000;0.157086
9651.000000;0.155420
9650.000000;0.153797
9649.000000;0.152062
9648.000000;0.150143
9647.000000;0.148148
9646.000000;0.146305
9645.000000;0.144779
9644.000000;0.143541
9643.000000;0.142376
9642.000000;0.140987
9641.000000;0.139133
9640.000000;0.136758
9639.000000;0.134065
9638.000000;0.131430
9637.000000;0.129167
9636.000000;0.127327
9635.000000;0.125697
9634.000000;0.123987
9633.000000;0.122025
9632.000000;0.119820
9631.000000;0.117525
9630.000000;0.115342
9629.000000;0.113409
9628.000000;0.111735
9627.000000;0.110231
9626.000000;0.108809
9625.000000;0.107404
9624.000000;0.105936
9623.000000;0.104322
9622.000000;0.102573
9621.000000;0.100790
9620.000000;0.099016
9619.000000;0.097136
9618.000000;0.095006
9617.000000;0.092668
9616.000000;0.090349
9615.000000;0.088260
9614.000000;0.086428
9613.000000;0.084728
9612.000000;0.082956
9611.000000;0.080926
9610.000000;0.078640
9609.000000;0.076389
9608.000000;0.074546
9607.000000;0.073180
9606.000000;0.071934
9605.000000;0.070377
9604.000000;0.068408
9603.000000;0.066232
9602.000000;0.064067
9601.000000;0.062004
9600.000000;0.060125
9599.000000;0.058500
9598.000000;0.056985
9597.000000;0.055185
9596.000000;0.052828
9595.000000;0.050137
9594.000000;0.047670
9593.000000;0.045731
9592.000000;0.044060
9591.000000;0.042142
9590.000000;0.039770
9589.000000;0.037206
9588.000000;0.034844
9587.000000;0.032831
9586.000000;0.031010
9585.000000;0.029146
9584.000000;0.027135
9583.000000;0.025028
9582.000000;0.022927
9581.000000;0.020879
9580.000000;0.018862
9579.000000;0.016843
9578.000000;0.014807
9577.000000;0.012723
9576.000000;0.010520
9575.000000;0.008174
9574.000000;0.005787
9573.000000;0.003528
9572.000000;0.001518
9571.000000;-0.000169
9570.000000;-0.001491
9569.000000;-0.002590
9568.000000;-0.003934
9567.000000;-0.006044
9566.000000;-0.008933
9565.000000;-0.011979
9564.000000;-0.014503
9563.000000;-0.016368
9562.000000;-0.017909
9561.000000;-0.019423
9560.000000;-0.020942
9559.000000;-0.022449
9558.000000;-0.024059
9557.000000;-0.025925
9556.000000;-0.028103
9555.000000;-0.030522
9554.000000;-0.032981
9553.000000;-0.035203
9552.000000;-0.037065
9551.000000;-0.038801
9550.000000;-0.040814
9549.000000;-0.043243
9548.000000;-0.045823
9547.000000;-0.048213
9546.000000;-0.050288
9545.000000;-0.052074
9544.000000;-0.053581
9543.000000;-0.054852
9542.000000;-0.056071
9541.000000;-0.057507
9540.000000;-0.059337
9539.000000;-0.061531
9538.000000;-0.063824
9537.000000;-0.065835
9536.000000;-0.067378
9535.000000;-0.068725
9534.000000;-0.070396
9533.000000;-0.072602
9532.000000;-0.075031
9531.000000;-0.077274
9530.000000;-0.079293
9529.000000;-0.081281
9528.000000;-0.083243
9527.000000;-0.084965
9526.000000;-0.086375
9525.000000;-0.087706
9524.000000;-0.089233
9523.000000;-0.091005
9522.000000;-0.092871
9521.000000;-0.094666
9520.000000;-0.096325
9519.000000;-0.097922
9518.000000;-0.099628
9517.000000;-0.101566
9516.000000;-0.103665
9515.000000;-0.105695
9514.000000;-0.107479
9513.000000;-0.109013
9512.000000;-0.110386
9511.000000;-0.111653
9510.000000;-0.112843
9509.000000;-0.114035
9508.000000;-0.115349
9507.000000;-0.116834
9506.000000;-0.118422
9505.000000;-0.120021
9504.000000;-0.121631
9503.000000;-0.123277
9502.000000;-0.124846
9501.000000;-0.126136
9500.000000;-0.127165
9499.000000;-0.128310
9498.000000;-0.129927
9497.000000;-0.131867
9496.000000;-0.133582
9495.000000;-0.134778
9494.000000;-0.135719
9493.000000;-0.136807
9492.000000;-0.138051
9491.000000;-0.139174
9490.000000;-0.140089
9489.000000;-0.140999
9488.000000;-0.142053
9487.000000;-0.143140
9486.000000;-0.144092
9485.000000;-0.144932
9484.000000;-0.145827
9483.000000;-0.146900
9482.000000;-0.148099
9481.000000;-0.149203
9480.000000;-0.149938
9479.000000;-0.150215
9478.000000;-0.150297
9477.000000;-0.150643
9476.000000;-0.151499
9475.000000;-0.152662
9474.000000;-0.153698
9473.000000;-0.154367
9472.000000;-0.154831
9471.000000;-0.155478
9470.000000;-0.156565
9469.000000;-0.158007
9468.000000;-0.159472
9467.000000;-0.160623
9466.000000;-0.161263
9465.000000;-0.161346
9464.000000;-0.160995
9463.000000;-0.160553
9462.000000;-0.160440
9461.000000;-0.160839
9460.000000;-0.161561
9459.000000;-0.162283
9458.000000;-0.162848
9457.000000;-0.163236
9456.000000;-0.163393
9455.000000;-0.163266
9454.000000;-0.162962
9453.000000;-0.162693
9452.000000;-0.162558
9451.000000;-0.162528
9450.000000;-0.162646
9449.000000;-0.163033
9448.000000;-0.163642
9447.000000;-0.164160
9446.000000;-0.164261
9445.000000;-0.163875
9444.000000;-0.163189
9443.000000;-0.162508
9442.000000;-0.162125
9441.000000;-0.162145
9440.000000;-0.162335
9439.000000;-0.162286
9438.000000;-0.161825
9437.000000;-0.161142
9436.000000;-0.160482
9435.000000;-0.159914
9434.000000;-0.159501
9433.000000;-0.159432
9432.000000;-0.159688
9431.000000;-0.159787
9430.000000;-0.159212
9429.000000;-0.158074
9428.000000;-0.157021
9427.000000;-0.156444
9426.000000;-0.156068
9425.000000;-0.155452
9424.000000;-0.154579
9423.000000;-0.153737
9422.000000;-0.153056
9421.000000;-0.152453
9420.000000;-0.151901
9419.000000;-0.151461
9418.000000;-0.151052
9417.000000;-0.150440
9416.000000;-0.149544
9415.000000;-0.148571
9414.000000;-0.147765
9413.000000;-0.147145
9412.000000;-0.146556
9411.000000;-0.145857
9410.000000;-0.144969
9409.000000;-0.143860
9408.000000;-0.142625
9407.000000;-0.141502
9406.000000;-0.140658
9405.000000;-0.139971
9404.000000;-0.139137
9403.000000;-0.138024
9402.000000;-0.136807
9401.000000;-0.135722
9400.000000;-0.134791
9399.000000;-0.133874
9398.000000;-0.132884
9397.000000;-0.131842
9396.000000;-0.130758
9395.000000;-0.129567
9394.000000;-0.128214
9393.000000;-0.126720
9392.000000;-0.125138
9391.000000;-0.123525
9390.000000;-0.121977
9389.000000;-0.120626
9388.000000;-0.119504
9387.000000;-0.118456
9386.000000;-0.117256
9385.000000;-0.115831
9384.000000;-0.114347
9383.000000;-0.113044
9382.000000;-0.112014
9381.000000;-0.111127
9380.000000;-0.110153
9379.000000;-0.108970
9378.000000;-0.107623
9377.000000;-0.106205
9376.000000;-0.104691
9375.000000;-0.102972
9374.000000;-0.101066
9373.000000;-0.099205
9372.000000;-0.097668
9371.000000;-0.096553
9370.000000;-0.095757
9369.000000;-0.095092
9368.000000;-0.094332
9367.000000;-0.093229
9366.000000;-0.091666
9365.000000;-0.089809
9364.000000;-0.088010
9363.000000;-0.086478
9362.000000;-0.085150
9361.000000;-0.083868
9360.000000;-0.082561
9359.000000;-0.081218
9358.000000;-0.079816
9357.000000;-0.078395
9356.000000;-0.077071
9355.000000;-0.075845
9354.000000;-0.074498
9353.000000;-0.072873
9352.000000;-0.071171
9351.000000;-0.069775
9350.000000;-0.068759
9349.000000;-0.067786
9348.000000;-0.066567
9347.000000;-0.065214
9346.000000;-0.063993
9345.000000;-0.062855
9344.000000;-0.061430
9343.000000;-0.059492
9342.000000;-0.057266
9341.000000;-0.055248
9340.000000;-0.053778
9339.000000;-0.052787
9338.000000;-0.051896
9337.000000;-0.050737
9336.000000;-0.049230
9335.000000;-0.047570
9334.000000;-0.045963
9333.000000;-0.044421
9332.000000;-0.042874
9331.000000;-0.041404
9330.000000;-0.040208
9329.000000;-0.039293
9328.000000;-0.038353
9327.000000;-0.037063
9326.000000;-0.035454
9325.000000;-0.033884
9324.000000;-0.032625
9323.000000;-0.031572
9322.000000;-0.030398
9321.000000;-0.028944
9320.000000;-0.027357
9319.000000;-0.025883
9318.000000;-0.024590
9317.000000;-0.023354
9316.000000;-0.022029
9315.000000;-0.020556
9314.000000;-0.018920
9313.000000;-0.017130
9312.000000;-0.015270
9311.000000;-0.013483
9310.000000;-0.011847
9309.000000;-0.010335
9308.000000;-0.008948
9307.000000;-0.007788
9306.000000;-0.006908
9305.000000;-0.006136
9304.000000;-0.005190
9303.000000;-0.003959
9302.000000;-0.002571
9301.000000;-0.001159
9300.000000;0.000311
9299.000000;0.001930
9298.000000;0.003647
9297.000000;0.005281
9296.000000;0.006705
9295.000000;0.007942
9294.000000;0.009080
9293.000000;0.010154
9292.000000;0.011154
9291.000000;0.012111
9290.000000;0.013126
9289.000000;0.014293
9288.000000;0.015581
9287.000000;0.016848
9286.000000;0.017998
9285.000000;0.019092
9284.000000;0.020257
9283.000000;0.021522
9282.000000;0.022821
9281.000000;0.024161
9280.000000;0.025654
9279.000000;0.027324
9278.000000;0.028942
9277.000000;0.030203
9276.000000;0.031078
9275.000000;0.031912
9274.000000;0.033102
9273.000000;0.034705
9272.000000;0.036414
9271.000000;0.037888
9270.000000;0.039060
9269.000000;0.040096
9268.000000;0.041133
9267.000000;0.042146
9266.000000;0.043052
9265.000000;0.043860
9264.000000;0.044688
9263.000000;0.045689
9262.000000;0.046980
9261.000000;0.048560
9260.000000;0.050247
9259.000000;0.051761
9258.000000;0.052953
9257.000000;0.053903
9256.000000;0.054760
9255.000000;0.055584
9254.000000;0.056439
9253.000000;0.057515
9252.000000;0.058956
9251.000000;0.060580
9250.000000;0.061963
9249.000000;0.062881
9248.000000;0.063524
9247.000000;0.064198
9246.000000;0.064975
9245.000000;0.065773
9244.000000;0.066673
9243.000000;0.067952
9242.000000;0.069731
9241.000000;0.071710
9240.000000;0.073359
9239.000000;0.074410
9238.000000;0.075110
9237.000000;0.075921
9236.000000;0.076996
9235.000000;0.078023
9234.000000;0.078646
9233.000000;0.078933
9232.000000;0.079309
9231.000000;0.080104
9230.000000;0.081307
9229.000000;0.082730
9228.000000;0.084190
9227.000000;0.085496
9226.000000;0.086470
9225.000000;0.087171
9224.000000;0.087938
9223.000000;0.089044
9222.000000;0.090348
9221.000000;0.091466
9220.000000;0.092278
9219.000000;0.093077
9218.000000;0.094173
9217.000000;0.095490
9216.000000;0.096652
9215.000000;0.097438
9214.000000;0.098048
9213.000000;0.098905
9212.000000;0.100224
9211.000000;0.101836
9210.000000;0.103399
9209.000000;0.104712
9208.000000;0.105752
9207.000000;0.106498
9206.000000;0.106907
9205.000000;0.107101
9204.000000;0.107405
9203.000000;0.108079
9202.000000;0.109070
9201.000000;0.110138
9200.000000;0.111140
9199.000000;0.112086
9198.000000;0.112967
9197.000000;0.113702
9196.000000;0.114269
9195.000000;0.114783
9194.000000;0.115379
9193.000000;0.116111
9192.000000;0.117013
9191.000000;0.118155
9190.000000;0.119547
9189.000000;0.120993
9188.000000;0.122166
9187.000000;0.122891
9186.000000;0.123343
9185.000000;0.123931
9184.000000;0.124919
9183.000000;0.126200
9182.000000;0.127442
9181.000000;0.128439
9180.000000;0.129252
9179.000000;0.130013
9178.000000;0.130710
9177.000000;0.131234
9176.000000;0.131615
9175.000000;0.132082
9174.000000;0.132885
9173.000000;0.134053
9172.000000;0.135350
9171.000000;0.136448
9170.000000;0.137174
9169.000000;0.137620
9168.000000;0.138036
9167.000000;0.138615
9166.000000;0.139392
9165.000000;0.140267
9164.000000;0.141089
9163.000000;0.141723
9162.000000;0.142127
9161.000000;0.142410
9160.000000;0.142771
9159.000000;0.143345
9158.000000;0.144127
9157.000000;0.145021
9156.000000;0.145952
9155.000000;0.146920
9154.000000;0.147972
9153.000000;0.149100
9152.000000;0.150135
9151.000000;0.150790
9150.000000;0.150941
9149.000000;0.150839
9148.000000;0.150951
9147.000000;0.151552
9146.000000;0.152542
9145.000000;0.153652
9144.000000;0.154699
9143.000000;0.155622
9142.000000;0.156415
9141.000000;0.157128
9140.000000;0.157865
9139.000000;0.158686
9138.000000;0.159555
9137.000000;0.160411
9136.000000;0.161219
9135.000000;0.161901
9134.000000;0.162324
9133.000000;0.162466
9132.000000;0.162530
9131.000000;0.162821
9130.000000;0.163480
9129.000000;0.164378
9128.000000;0.165223
9127.000000;0.165770
9126.000000;0.166028
9125.000000;0.166290
9124.000000;0.166882
9123.000000;0.167824
9122.000000;0.168812
9121.000000;0.169563
9120.000000;0.170077
9119.000000;0.170529
9118.000000;0.171060
9117.000000;0.171771
9116.000000;0.172742
9115.000000;0.173894
9114.000000;0.174908
9113.000000;0.175470
9112.000000;0.175577
9111.000000;0.175516
9110.000000;0.175597
9109.000000;0.176018
9108.000000;0.176846
9107.000000;0.177969
9106.000000;0.179082
9105.000000;0.179917
9104.000000;0.180478
9103.000000;0.180924
9102.000000;0.181285
9101.000000;0.181487
9100.000000;0.181648
9099.000000;0.182107
9098.000000;0.183083
9097.000000;0.184429
9096.000000;0.185758
9095.000000;0.186722
9094.000000;0.187163
9093.000000;0.187153
9092.000000;0.186997
9091.000000;0.187065
9090.000000;0.187522
9089.000000;0.188233
9088.000000;0.188948
9087.000000;0.189513
9086.000000;0.189920
9085.000000;0.190253
9084.000000;0.190661
9083.000000;0.191246
9082.000000;0.191907
9081.000000;0.192395
9080.000000;0.192609
9079.000000;0.192795
9078.000000;0.193306
9077.000000;0.194203
9076.000000;0.195170
9075.000000;0.195850
9074.000000;0.196180
9073.000000;0.196360
9072.000000;0.196572
9071.000000;0.196817
9070.000000;0.197017
9069.000000;0.197178
9068.000000;0.197384
9067.000000;0.197711
9066.000000;0.198199
