Criado como novo conjunto de dados;"0307_DANIEL.spp","25383.4 Secs"
cm-1;Abs
10000.000000;1.136549
9999.000000;1.134454
9998.000000;1.132369
9997.000000;1.130295
9996.000000;1.128229
9995.000000;1.126175
9994.000000;1.124127
9993.000000;1.122096
9992.000000;1.120053
9991.000000;1.118675
9990.000000;1.117979
9989.000000;1.117684
9988.000000;1.117495
9987.000000;1.117053
9986.000000;1.116047
9985.000000;1.114514
9984.000000;1.112838
9983.000000;1.111292
9982.000000;1.109797
9981.000000;1.108268
9980.000000;1.106964
9979.000000;1.106199
9978.000000;1.105805
9977.000000;1.105180
9976.000000;1.103891
9975.000000;1.102038
9974.000000;1.100044
9973.000000;1.098283
9972.000000;1.096933
9971.000000;1.095906
9970.000000;1.094791
9969.000000;1.093088
9968.000000;1.090754
9967.000000;1.088433
9966.000000;1.086976
9965.000000;1.086678
9964.000000;1.087057
9963.000000;1.087318
9962.000000;1.086919
9961.000000;1.085733
9960.000000;1.083900
9959.000000;1.081744
9958.000000;1.079741
9957.000000;1.078303
9956.000000;1.077434
9955.000000;1.076679
9954.000000;1.075579
9953.000000;1.074162
9952.000000;1.072847
9951.000000;1.071860
9950.000000;1.070957
9949.000000;1.069822
9948.000000;1.068544
9947.000000;1.067473
9946.000000;1.066674
9945.000000;1.065829
9944.000000;1.064707
9943.000000;1.063456
9942.000000;1.062272
9941.000000;1.060995
9940.000000;1.059326
9939.000000;1.057333
9938.000000;1.055487
9937.000000;1.054162
9936.000000;1.053264
9935.000000;1.052432
9934.000000;1.051437
9933.000000;1.050296
9932.000000;1.049107
9931.000000;1.047888
9930.000000;1.046583
9929.000000;1.045124
9928.000000;1.043501
9927.000000;1.041787
9926.000000;1.040104
9925.000000;1.038570
9924.000000;1.037294
9923.000000;1.036368
9922.000000;1.035741
9921.000000;1.035109
9920.000000;1.034093
9919.000000;1.032602
9918.000000;1.030936
9917.000000;1.029459
9916.000000;1.028216
9915.000000;1.026950
9914.000000;1.025438
9913.000000;1.023746
9912.000000;1.022142
9911.000000;1.020803
9910.000000;1.019596
9909.000000;1.018210
9908.000000;1.016556
9907.000000;1.014932
9906.000000;1.013656
9905.000000;1.012590
9904.000000;1.011307
9903.000000;1.009779
9902.000000;1.008588
9901.000000;1.008164
9900.000000;1.008073
9899.000000;1.007384
9898.000000;1.005746
9897.000000;1.003715
9896.000000;1.001969
9895.000000;1.000528
9894.000000;0.998955
9893.000000;0.997084
9892.000000;0.995263
9891.000000;0.993915
9890.000000;0.993040
9889.000000;0.992220
9888.000000;0.991048
9887.000000;0.989477
9886.000000;0.987762
9885.000000;0.986103
9884.000000;0.984458
9883.000000;0.982731
9882.000000;0.981031
9881.000000;0.979578
9880.000000;0.978387
9879.000000;0.977258
9878.000000;0.976080
9877.000000;0.974950
9876.000000;0.973932
9875.000000;0.972896
9874.000000;0.971730
9873.000000;0.970518
9872.000000;0.969318
9871.000000;0.967906
9870.000000;0.966026
9869.000000;0.963844
9868.000000;0.961866
9867.000000;0.960351
9866.000000;0.959039
9865.000000;0.957565
9864.000000;0.955973
9863.000000;0.954606
9862.000000;0.953581
9861.000000;0.952607
9860.000000;0.951346
9859.000000;0.949779
9858.000000;0.948101
9857.000000;0.946427
9856.000000;0.944765
9855.000000;0.943227
9854.000000;0.942008
9853.000000;0.941076
9852.000000;0.940019
9851.000000;0.938385
9850.000000;0.936177
9849.000000;0.933865
9848.000000;0.931925
9847.000000;0.930468
9846.000000;0.929336
9845.000000;0.928365
9844.000000;0.927440
9843.000000;0.926414
9842.000000;0.925158
9841.000000;0.923717
9840.000000;0.922246
9839.000000;0.920746
9838.000000;0.918994
9837.000000;0.916866
9836.000000;0.914662
9835.000000;0.912906
9834.000000;0.911791
9833.000000;0.910929
9832.000000;0.909747
9831.000000;0.908055
9830.000000;0.906126
9829.000000;0.904296
9828.000000;0.902653
9827.000000;0.901099
9826.000000;0.899525
9825.000000;0.897844
9824.000000;0.896034
9823.000000;0.894253
9822.000000;0.892792
9821.000000;0.891767
9820.000000;0.890927
9819.000000;0.889903
9818.000000;0.888587
9817.000000;0.887137
9816.000000;0.885661
9815.000000;0.884102
9814.000000;0.882433
9813.000000;0.880742
9812.000000;0.879044
9811.000000;0.877227
9810.000000;0.875298
9809.000000;0.873514
9808.000000;0.872103
9807.000000;0.870939
9806.000000;0.869649
9805.000000;0.868020
9804.000000;0.866184
9803.000000;0.864437
9802.000000;0.862974
9801.000000;0.861786
9800.000000;0.860671
9799.000000;0.859342
9798.000000;0.857643
9797.000000;0.855740
9796.000000;0.854015
9795.000000;0.852708
9794.000000;0.851684
9793.000000;0.850577
9792.000000;0.849139
9791.000000;0.847390
9790.000000;0.845475
9789.000000;0.843434
9788.000000;0.841190
9787.000000;0.838723
9786.000000;0.836218
9785.000000;0.833963
9784.000000;0.832122
9783.000000;0.830607
9782.000000;0.829204
9781.000000;0.827801
9780.000000;0.826442
9779.000000;0.825183
9778.000000;0.823943
9777.000000;0.822593
9776.000000;0.821127
9775.000000;0.819635
9774.000000;0.818072
9773.000000;0.816181
9772.000000;0.813792
9771.000000;0.811128
9770.000000;0.808650
9769.000000;0.806632
9768.000000;0.805016
9767.000000;0.803699
9766.000000;0.802713
9765.000000;0.802018
9764.000000;0.801293
9763.000000;0.800121
9762.000000;0.798328
9761.000000;0.796036
9760.000000;0.793511
9759.000000;0.791114
9758.000000;0.789245
9757.000000;0.788031
9756.000000;0.787054
9755.000000;0.785683
9754.000000;0.783742
9753.000000;0.781642
9752.000000;0.779753
9751.000000;0.777922
9750.000000;0.775815
9749.000000;0.773517
9748.000000;0.771498
9747.000000;0.769996
9746.000000;0.768732
9745.000000;0.767288
9744.000000;0.765563
9743.000000;0.763741
9742.000000;0.761955
9741.000000;0.760165
9740.000000;0.758311
9739.000000;0.756411
9738.000000;0.754462
9737.000000;0.752419
9736.000000;0.750328
9735.000000;0.748385
9734.000000;0.746722
9733.000000;0.745175
9732.000000;0.743405
9731.000000;0.741290
9730.000000;0.739093
9729.000000;0.737215
9728.000000;0.735842
9727.000000;0.734850
9726.000000;0.733925
9725.000000;0.732695
9724.000000;0.730870
9723.000000;0.728413
9722.000000;0.725618
9721.000000;0.722945
9720.000000;0.720736
9719.000000;0.719043
9718.000000;0.717645
9717.000000;0.716214
9716.000000;0.714577
9715.000000;0.712880
9714.000000;0.711372
9713.000000;0.709953
9712.000000;0.708102
9711.000000;0.705435
9710.000000;0.702253
9709.000000;0.699327
9708.000000;0.697206
9707.000000;0.695879
9706.000000;0.694983
9705.000000;0.694047
9704.000000;0.692551
9703.000000;0.690153
9702.000000;0.687091
9701.000000;0.684155
9700.000000;0.682032
9699.000000;0.680688
9698.000000;0.679507
9697.000000;0.677930
9696.000000;0.675861
9695.000000;0.673528
9694.000000;0.671165
9693.000000;0.668884
9692.000000;0.666753
9691.000000;0.664864
9690.000000;0.663232
9689.000000;0.661673
9688.000000;0.659892
9687.000000;0.657805
9686.000000;0.655709
9685.000000;0.653960
9684.000000;0.652510
9683.000000;0.650910
9682.000000;0.648816
9681.000000;0.646356
9680.000000;0.643938
9679.000000;0.641827
9678.000000;0.640028
9677.000000;0.638432
9676.000000;0.636905
9675.000000;0.635249
9674.000000;0.633264
9673.000000;0.630912
9672.000000;0.628401
9671.000000;0.626050
9670.000000;0.624039
9669.000000;0.622266
9668.000000;0.620496
9667.000000;0.618646
9666.000000;0.616847
9665.000000;0.615140
9664.000000;0.613262
9663.000000;0.610924
9662.000000;0.608255
9661.000000;0.605719
9660.000000;0.603589
9659.000000;0.601705
9658.000000;0.599782
9657.000000;0.597706
9656.000000;0.595451
9655.000000;0.592957
9654.000000;0.590292
9653.000000;0.587726
9652.000000;0.585438
9651.000000;0.583307
9650.000000;0.581173
9649.000000;0.579151
9648.000000;0.577435
9647.000000;0.575897
9646.000000;0.574169
9645.000000;0.572113
9644.000000;0.569943
9643.000000;0.567869
9642.000000;0.565849
9641.000000;0.563756
9640.000000;0.561560
9639.000000;0.559244
9638.000000;0.556716
9637.000000;0.553938
9636.000000;0.551060
9635.000000;0.548323
9634.000000;0.545853
9633.000000;0.543615
9632.000000;0.541528
9631.000000;0.539567
9630.000000;0.537785
9629.000000;0.536227
9628.000000;0.534772
9627.000000;0.533062
9626.000000;0.530722
9625.000000;0.527744
9624.000000;0.524585
9623.000000;0.521787
9622.000000;0.519534
9621.000000;0.517598
9620.000000;0.515666
9619.000000;0.513597
9618.000000;0.511359
9617.000000;0.508908
9616.000000;0.506263
9615.000000;0.503643
9614.000000;0.501356
9613.000000;0.499470
9612.000000;0.497721
9611.000000;0.495817
9610.000000;0.493749
9609.000000;0.491663
9608.000000;0.489554
9607.000000;0.487255
9606.000000;0.484741
9605.000000;0.482228
9604.000000;0.479905
9603.000000;0.477735
9602.000000;0.475581
9601.000000;0.473374
9600.000000;0.471062
9599.000000;0.468545
9598.000000;0.465857
9597.000000;0.463306
9596.000000;0.461205
9595.000000;0.459452
9594.000000;0.457553
9593.000000;0.455105
9592.000000;0.452198
9591.000000;0.449278
9590.000000;0.446715
9589.000000;0.444525
9588.000000;0.442443
9587.000000;0.440222
9586.000000;0.437857
9585.000000;0.435525
9584.000000;0.433335
9583.000000;0.431216
9582.000000;0.429084
9581.000000;0.426985
9580.000000;0.424967
9579.000000;0.422905
9578.000000;0.420610
9577.000000;0.418085
9576.000000;0.415517
9575.000000;0.413028
9574.000000;0.410555
9573.000000;0.408006
9572.000000;0.405389
9571.000000;0.402752
9570.000000;0.400116
9569.000000;0.397521
9568.000000;0.395034
9567.000000;0.392666
9566.000000;0.390338
9565.000000;0.387996
9564.000000;0.385660
9563.000000;0.383324
9562.000000;0.380873
9561.000000;0.378211
9560.000000;0.375432
9559.000000;0.372777
9558.000000;0.370417
9557.000000;0.368286
9556.000000;0.366145
9555.000000;0.363820
9554.000000;0.361410
9553.000000;0.359226
9552.000000;0.357476
9551.000000;0.355998
9550.000000;0.354370
9549.000000;0.352290
9548.000000;0.349786
9547.000000;0.347071
9546.000000;0.344354
9545.000000;0.341828
9544.000000;0.339676
9543.000000;0.337895
9542.000000;0.336194
9541.000000;0.334244
9540.000000;0.332029
9539.000000;0.329799
9538.000000;0.327677
9537.000000;0.325496
9536.000000;0.323088
9535.000000;0.320560
9534.000000;0.318125
9533.000000;0.315781
9532.000000;0.313355
9531.000000;0.310861
9530.000000;0.308608
9529.000000;0.306866
9528.000000;0.305542
9527.000000;0.304256
9526.000000;0.302643
9525.000000;0.300522
9524.000000;0.297890
9523.000000;0.294955
9522.000000;0.292137
9521.000000;0.289870
9520.000000;0.288248
9519.000000;0.286906
9518.000000;0.285335
9517.000000;0.283334
9516.000000;0.281139
9515.000000;0.279115
9514.000000;0.277379
9513.000000;0.275751
9512.000000;0.274044
9511.000000;0.272314
9510.000000;0.270754
9509.000000;0.269388
9508.000000;0.267981
9507.000000;0.266297
9506.000000;0.264374
9505.000000;0.262457
9504.000000;0.260720
9503.000000;0.259136
9502.000000;0.257603
9501.000000;0.256080
9500.000000;0.254582
9499.000000;0.253088
9498.000000;0.251525
9497.000000;0.249847
9496.000000;0.248095
9495.000000;0.246361
9494.000000;0.244686
9493.000000;0.243054
9492.000000;0.241478
9491.000000;0.240041
9490.000000;0.238754
9489.000000;0.237423
9488.000000;0.235808
9487.000000;0.233940
9486.000000;0.232145
9485.000000;0.230661
9484.000000;0.229380
9483.000000;0.228070
9482.000000;0.226748
9481.000000;0.225655
9480.000000;0.224923
9479.000000;0.224394
9478.000000;0.223767
9477.000000;0.222812
9476.000000;0.221492
9475.000000;0.219991
9474.000000;0.218625
9473.000000;0.217595
9472.000000;0.216853
9471.000000;0.216255
9470.000000;0.215750
9469.000000;0.215271
9468.000000;0.214556
9467.000000;0.213363
9466.000000;0.211850
9465.000000;0.210521
9464.000000;0.209711
9463.000000;0.209273
9462.000000;0.208819
9461.000000;0.208095
9460.000000;0.207095
9459.000000;0.206039
9458.000000;0.205314
9457.000000;0.205213
9456.000000;0.205562
9455.000000;0.205734
9454.000000;0.205229
9453.000000;0.204194
9452.000000;0.203243
9451.000000;0.202823
9450.000000;0.202833
9449.000000;0.202792
9448.000000;0.202309
9447.000000;0.201477
9446.000000;0.200874
9445.000000;0.201071
9444.000000;0.202055
9443.000000;0.203185
9442.000000;0.203800
9441.000000;0.203767
9440.000000;0.203406
9439.000000;0.203031
9438.000000;0.202752
9437.000000;0.202612
9436.000000;0.202675
9435.000000;0.202920
9434.000000;0.203185
9433.000000;0.203269
9432.000000;0.203066
9431.000000;0.202630
9430.000000;0.202171
9429.000000;0.201946
9428.000000;0.202076
9427.000000;0.202470
9426.000000;0.202976
9425.000000;0.203547
9424.000000;0.204189
9423.000000;0.204812
9422.000000;0.205280
9421.000000;0.205609
9420.000000;0.206023
9419.000000;0.206732
9418.000000;0.207700
9417.000000;0.208661
9416.000000;0.209365
9415.000000;0.209791
9414.000000;0.210126
9413.000000;0.210558
9412.000000;0.211102
9411.000000;0.211646
9410.000000;0.212135
9409.000000;0.212631
9408.000000;0.213228
9407.000000;0.213965
9406.000000;0.214835
9405.000000;0.215771
9404.000000;0.216628
9403.000000;0.217282
9402.000000;0.217820
9401.000000;0.218534
9400.000000;0.219628
9399.000000;0.220973
9398.000000;0.222210
9397.000000;0.223103
9396.000000;0.223744
9395.000000;0.224441
9394.000000;0.225403
9393.000000;0.226525
9392.000000;0.227494
9391.000000;0.228139
9390.000000;0.228623
9389.000000;0.229212
9388.000000;0.229939
9387.000000;0.230655
9386.000000;0.231395
9385.000000;0.232442
9384.000000;0.233939
9383.000000;0.235628
9382.000000;0.237137
9381.000000;0.238388
9380.000000;0.239557
9379.000000;0.240739
9378.000000;0.241839
9377.000000;0.242765
9376.000000;0.243556
9375.000000;0.244291
9374.000000;0.245019
9373.000000;0.245784
9372.000000;0.246655
9371.000000;0.247685
9370.000000;0.248889
9369.000000;0.250236
9368.000000;0.251628
9367.000000;0.252930
9366.000000;0.254087
9365.000000;0.255175
9364.000000;0.256281
9363.000000;0.257386
9362.000000;0.258450
9361.000000;0.259542
9360.000000;0.260749
9359.000000;0.262010
9358.000000;0.263161
9357.000000;0.264129
9356.000000;0.264994
9355.000000;0.265848
9354.000000;0.266735
9353.000000;0.267713
9352.000000;0.268895
9351.000000;0.270334
9350.000000;0.271952
9349.000000;0.273587
9348.000000;0.275106
9347.000000;0.276467
9346.000000;0.277740
9345.000000;0.279044
9344.000000;0.280420
9343.000000;0.281771
9342.000000;0.282973
9341.000000;0.284011
9340.000000;0.284979
9339.000000;0.285991
9338.000000;0.287132
9337.000000;0.288415
9336.000000;0.289727
9335.000000;0.290890
9334.000000;0.291904
9333.000000;0.293024
9332.000000;0.294442
9331.000000;0.295937
9330.000000;0.297077
9329.000000;0.297777
9328.000000;0.298444
9327.000000;0.299474
9326.000000;0.300792
9325.000000;0.302006
9324.000000;0.302916
9323.000000;0.303705
9322.000000;0.304680
9321.000000;0.305950
9320.000000;0.307353
9319.000000;0.308633
9318.000000;0.309682
9317.000000;0.310629
9316.000000;0.311674
9315.000000;0.312851
9314.000000;0.314047
9313.000000;0.315237
9312.000000;0.316531
9311.000000;0.317907
9310.000000;0.319072
9309.000000;0.319799
9308.000000;0.320316
9307.000000;0.321145
9306.000000;0.322536
9305.000000;0.324234
9304.000000;0.325830
9303.000000;0.327194
9302.000000;0.328458
9301.000000;0.329727
9300.000000;0.330961
9299.000000;0.332076
9298.000000;0.333050
9297.000000;0.333917
9296.000000;0.334769
9295.000000;0.335751
9294.000000;0.336983
9293.000000;0.338434
9292.000000;0.339916
9291.000000;0.341214
9290.000000;0.342224
9289.000000;0.343000
9288.000000;0.343704
9287.000000;0.344504
9286.000000;0.345454
9285.000000;0.346461
9284.000000;0.347400
9283.000000;0.348278
9282.000000;0.349214
9281.000000;0.350273
9280.000000;0.351374
9279.000000;0.352387
9278.000000;0.353277
9277.000000;0.354129
9276.000000;0.355082
9275.000000;0.356259
9274.000000;0.357682
9273.000000;0.359200
9272.000000;0.360565
9271.000000;0.361645
9270.000000;0.362552
9269.000000;0.363491
9268.000000;0.364532
9267.000000;0.365577
9266.000000;0.366527
9265.000000;0.367369
9264.000000;0.368133
9263.000000;0.368869
9262.000000;0.369676
9261.000000;0.370655
9260.000000;0.371765
9259.000000;0.372792
9258.000000;0.373557
9257.000000;0.374107
9256.000000;0.374665
9255.000000;0.375404
9254.000000;0.376317
9253.000000;0.377272
9252.000000;0.378145
9251.000000;0.378879
9250.000000;0.379464
9249.000000;0.379916
9248.000000;0.380325
9247.000000;0.380906
9246.000000;0.381924
9245.000000;0.383450
9244.000000;0.385192
9243.000000;0.386661
9242.000000;0.387595
9241.000000;0.388193
9240.000000;0.388884
9239.000000;0.389886
9238.000000;0.391035
9237.000000;0.392037
9236.000000;0.392813
9235.000000;0.393561
9234.000000;0.394511
9233.000000;0.395660
9232.000000;0.396785
9231.000000;0.397691
9230.000000;0.398400
9229.000000;0.399088
9228.000000;0.399868
9227.000000;0.400707
9226.000000;0.401535
9225.000000;0.402352
9224.000000;0.403188
9223.000000;0.404004
9222.000000;0.404716
9221.000000;0.405319
9220.000000;0.405936
9219.000000;0.406711
9218.000000;0.407638
9217.000000;0.408543
9216.000000;0.409250
9215.000000;0.409752
9214.000000;0.410223
9213.000000;0.410851
9212.000000;0.411674
9211.000000;0.412568
9210.000000;0.413377
9209.000000;0.414042
9208.000000;0.414657
9207.000000;0.415369
9206.000000;0.416205
9205.000000;0.416995
9204.000000;0.417554
9203.000000;0.417946
9202.000000;0.418471
9201.000000;0.419327
9200.000000;0.420401
9199.000000;0.421466
9198.000000;0.422465
9197.000000;0.423445
9196.000000;0.424288
9195.000000;0.424748
9194.000000;0.424809
9193.000000;0.424811
9192.000000;0.425112
9191.000000;0.425744
9190.000000;0.426512
9189.000000;0.427300
9188.000000;0.428147
9187.000000;0.429080
9186.000000;0.430050
9185.000000;0.431013
9184.000000;0.431945
9183.000000;0.432756
9182.000000;0.433320
9181.000000;0.433649
9180.000000;0.433960
9179.000000;0.434468
9178.000000;0.435152
9177.000000;0.435783
9176.000000;0.436205
9175.000000;0.436518
9174.000000;0.436975
9173.000000;0.437736
9172.000000;0.438743
9171.000000;0.439783
9170.000000;0.440648
9169.000000;0.441272
9168.000000;0.441783
9167.000000;0.442405
9166.000000;0.443242
9165.000000;0.444155
9164.000000;0.444903
9163.000000;0.445403
9162.000000;0.445766
9161.000000;0.446105
9160.000000;0.446435
9159.000000;0.446804
9158.000000;0.447355
9157.000000;0.448140
9156.000000;0.448967
9155.000000;0.449596
9154.000000;0.450030
9153.000000;0.450465
9152.000000;0.450991
9151.000000;0.451489
9150.000000;0.451841
9149.000000;0.452093
9148.000000;0.452397
9147.000000;0.452892
9146.000000;0.453635
9145.000000;0.454522
9144.000000;0.455282
9143.000000;0.455710
9142.000000;0.455913
9141.000000;0.456213
9140.000000;0.456751
9139.000000;0.457347
9138.000000;0.457768
9137.000000;0.458000
9136.000000;0.458203
9135.000000;0.458523
9134.000000;0.459028
9133.000000;0.459685
9132.000000;0.460339
9131.000000;0.460845
9130.000000;0.461285
9129.000000;0.461888
9128.000000;0.462655
9127.000000;0.463255
9126.000000;0.463461
9125.000000;0.463540
9124.000000;0.463979
9123.000000;0.464890
9122.000000;0.465903
9121.000000;0.466600
9120.000000;0.466886
9119.000000;0.466928
9118.000000;0.466918
9117.000000;0.466962
9116.000000;0.467081
9115.000000;0.467267
9114.000000;0.467568
9113.000000;0.468100
9112.000000;0.468875
9111.000000;0.469664
9110.000000;0.470178
9109.000000;0.470383
9108.000000;0.470553
9107.000000;0.470975
9106.000000;0.471706
9105.000000;0.472596
9104.000000;0.473428
9103.000000;0.474023
9102.000000;0.474306
9101.000000;0.474339
9100.000000;0.474243
9099.000000;0.474110
9098.000000;0.474027
9097.000000;0.474158
9096.000000;0.474650
9095.000000;0.475419
9094.000000;0.476180
9093.000000;0.476749
9092.000000;0.477245
9091.000000;0.477872
9090.000000;0.478584
9089.000000;0.479086
9088.000000;0.479178
9087.000000;0.479022
9086.000000;0.479005
9085.000000;0.479378
9084.000000;0.480056
9083.000000;0.480761
9082.000000;0.481311
9081.000000;0.481741
9080.000000;0.482163
9079.000000;0.482585
9078.000000;0.482920
9077.000000;0.483111
9076.000000;0.483193
9075.000000;0.483237
9074.000000;0.483295
9073.000000;0.483407
9072.000000;0.483604
9071.000000;0.483895
9070.000000;0.484249
9069.000000;0.484593
9068.000000;0.484838
9067.000000;0.484947
9066.000000;0.485006
9065.000000;0.485164
9064.000000;0.485491
9063.000000;0.485929
9062.000000;0.486425
9061.000000;0.487010
9060.000000;0.487680
9059.000000;0.488261
9058.000000;0.488540
9057.000000;0.488517
9056.000000;0.488423
9055.000000;0.488478
9054.000000;0.488709
9053.000000;0.489013
