Criado como novo conjunto de dados;"0307_DANIEL.spp","54365.2 Secs"
cm-1;Abs
10000.000000;0.438456
9999.000000;0.437221
9998.000000;0.435990
9997.000000;0.434762
9996.000000;0.433538
9995.000000;0.432317
9994.000000;0.431101
9993.000000;0.429885
9992.000000;0.428677
9991.000000;0.427464
9990.000000;0.426273
9989.000000;0.425008
9988.000000;0.423676
9987.000000;0.422434
9986.000000;0.421326
9985.000000;0.420308
9984.000000;0.419278
9983.000000;0.418182
9982.000000;0.417015
9981.000000;0.415783
9980.000000;0.414508
9979.000000;0.413257
9978.000000;0.412127
9977.000000;0.411162
9976.000000;0.410274
9975.000000;0.409261
9974.000000;0.407951
9973.000000;0.406370
9972.000000;0.404797
9971.000000;0.403561
9970.000000;0.402730
9969.000000;0.402042
9968.000000;0.401175
9967.000000;0.400045
9966.000000;0.398789
9965.000000;0.397533
9964.000000;0.396280
9963.000000;0.395031
9962.000000;0.393855
9961.000000;0.392786
9960.000000;0.391737
9959.000000;0.390576
9958.000000;0.389279
9957.000000;0.387959
9956.000000;0.386765
9955.000000;0.385759
9954.000000;0.384859
9953.000000;0.383881
9952.000000;0.382683
9951.000000;0.381281
9950.000000;0.379813
9949.000000;0.378405
9948.000000;0.377117
9947.000000;0.375978
9946.000000;0.374974
9945.000000;0.373988
9944.000000;0.372850
9943.000000;0.371522
9942.000000;0.370135
9941.000000;0.368811
9940.000000;0.367511
9939.000000;0.366168
9938.000000;0.364862
9937.000000;0.363750
9936.000000;0.362840
9935.000000;0.361960
9934.000000;0.360945
9933.000000;0.359782
9932.000000;0.358572
9931.000000;0.357409
9930.000000;0.356324
9929.000000;0.355246
9928.000000;0.354038
9927.000000;0.352637
9926.000000;0.351153
9925.000000;0.349769
9924.000000;0.348520
9923.000000;0.347279
9922.000000;0.345969
9921.000000;0.344684
9920.000000;0.343531
9919.000000;0.342454
9918.000000;0.341308
9917.000000;0.340071
9916.000000;0.338875
9915.000000;0.337836
9914.000000;0.336913
9913.000000;0.335945
9912.000000;0.334768
9911.000000;0.333312
9910.000000;0.331649
9909.000000;0.329968
9908.000000;0.328455
9907.000000;0.327171
9906.000000;0.326035
9905.000000;0.324933
9904.000000;0.323799
9903.000000;0.322602
9902.000000;0.321296
9901.000000;0.319817
9900.000000;0.318153
9899.000000;0.316417
9898.000000;0.314814
9897.000000;0.313497
9896.000000;0.312432
9895.000000;0.311429
9894.000000;0.310327
9893.000000;0.309123
9892.000000;0.307896
9891.000000;0.306659
9890.000000;0.305369
9889.000000;0.304033
9888.000000;0.302711
9887.000000;0.301400
9886.000000;0.300019
9885.000000;0.298556
9884.000000;0.297130
9883.000000;0.295848
9882.000000;0.294657
9881.000000;0.293422
9880.000000;0.292125
9879.000000;0.290873
9878.000000;0.289718
9877.000000;0.288561
9876.000000;0.287287
9875.000000;0.285911
9874.000000;0.284538
9873.000000;0.283216
9872.000000;0.281882
9871.000000;0.280460
9870.000000;0.278962
9869.000000;0.277478
9868.000000;0.276099
9867.000000;0.274841
9866.000000;0.273627
9865.000000;0.272339
9864.000000;0.270926
9863.000000;0.269458
9862.000000;0.268063
9861.000000;0.266784
9860.000000;0.265517
9859.000000;0.264117
9858.000000;0.262565
9857.000000;0.260995
9856.000000;0.259531
9855.000000;0.258160
9854.000000;0.256787
9853.000000;0.255411
9852.000000;0.254143
9851.000000;0.253039
9850.000000;0.251955
9849.000000;0.250674
9848.000000;0.249151
9847.000000;0.247576
9846.000000;0.246159
9845.000000;0.244924
9844.000000;0.243729
9843.000000;0.242440
9842.000000;0.241043
9841.000000;0.239593
9840.000000;0.238125
9839.000000;0.236626
9838.000000;0.235068
9837.000000;0.233444
9836.000000;0.231787
9835.000000;0.230170
9834.000000;0.228675
9833.000000;0.227339
9832.000000;0.226107
9831.000000;0.224859
9830.000000;0.223484
9829.000000;0.221958
9828.000000;0.220350
9827.000000;0.218755
9826.000000;0.217228
9825.000000;0.215763
9824.000000;0.214334
9823.000000;0.212931
9822.000000;0.211541
9821.000000;0.210143
9820.000000;0.208704
9819.000000;0.207213
9818.000000;0.205683
9817.000000;0.204130
9816.000000;0.202576
9815.000000;0.201073
9814.000000;0.199685
9813.000000;0.198415
9812.000000;0.197153
9811.000000;0.195745
9810.000000;0.194150
9809.000000;0.192501
9808.000000;0.190957
9807.000000;0.189500
9806.000000;0.187934
9805.000000;0.186113
9804.000000;0.184155
9803.000000;0.182373
9802.000000;0.180987
9801.000000;0.179892
9800.000000;0.178741
9799.000000;0.177250
9798.000000;0.175457
9797.000000;0.173677
9796.000000;0.172191
9795.000000;0.170992
9794.000000;0.169817
9793.000000;0.168414
9792.000000;0.166731
9791.000000;0.164891
9790.000000;0.163041
9789.000000;0.161283
9788.000000;0.159665
9787.000000;0.158178
9786.000000;0.156749
9785.000000;0.155285
9784.000000;0.153745
9783.000000;0.152163
9782.000000;0.150583
9781.000000;0.148993
9780.000000;0.147341
9779.000000;0.145612
9778.000000;0.143891
9777.000000;0.142316
9776.000000;0.140924
9775.000000;0.139563
9774.000000;0.137996
9773.000000;0.136144
9772.000000;0.134189
9771.000000;0.132421
9770.000000;0.130981
9769.000000;0.129752
9768.000000;0.128480
9767.000000;0.126988
9766.000000;0.125292
9765.000000;0.123548
9764.000000;0.121892
9763.000000;0.120323
9762.000000;0.118759
9761.000000;0.117153
9760.000000;0.115519
9759.000000;0.113853
9758.000000;0.112109
9757.000000;0.110273
9756.000000;0.108406
9755.000000;0.106567
9754.000000;0.104766
9753.000000;0.103000
9752.000000;0.101290
9751.000000;0.099620
9750.000000;0.097906
9749.000000;0.096091
9748.000000;0.094250
9747.000000;0.092517
9746.000000;0.090928
9745.000000;0.089404
9744.000000;0.087853
9743.000000;0.086260
9742.000000;0.084658
9741.000000;0.083069
9740.000000;0.081467
9739.000000;0.079772
9738.000000;0.077929
9737.000000;0.075994
9736.000000;0.074108
9735.000000;0.072334
9734.000000;0.070600
9733.000000;0.068846
9732.000000;0.067136
9731.000000;0.065531
9730.000000;0.063946
9729.000000;0.062260
9728.000000;0.060519
9727.000000;0.058852
9726.000000;0.057227
9725.000000;0.055443
9724.000000;0.053404
9723.000000;0.051248
9722.000000;0.049179
9721.000000;0.047288
9720.000000;0.045569
9719.000000;0.043975
9718.000000;0.042388
9717.000000;0.040649
9716.000000;0.038714
9715.000000;0.036701
9714.000000;0.034752
9713.000000;0.032897
9712.000000;0.031112
9711.000000;0.029398
9710.000000;0.027734
9709.000000;0.026042
9708.000000;0.024263
9707.000000;0.022422
9706.000000;0.020549
9705.000000;0.018614
9704.000000;0.016603
9703.000000;0.014598
9702.000000;0.012697
9701.000000;0.010910
9700.000000;0.009196
9699.000000;0.007533
9698.000000;0.005885
9697.000000;0.004150
9696.000000;0.002250
9695.000000;0.000241
9694.000000;-0.001740
9693.000000;-0.003633
9692.000000;-0.005513
9691.000000;-0.007474
9690.000000;-0.009517
9689.000000;-0.011553
9688.000000;-0.013501
9687.000000;-0.015378
9686.000000;-0.017294
9685.000000;-0.019329
9684.000000;-0.021414
9683.000000;-0.023389
9682.000000;-0.025198
9681.000000;-0.026944
9680.000000;-0.028742
9679.000000;-0.030592
9678.000000;-0.032445
9677.000000;-0.034321
9676.000000;-0.036289
9675.000000;-0.038387
9674.000000;-0.040605
9673.000000;-0.042912
9672.000000;-0.045229
9671.000000;-0.047439
9670.000000;-0.049494
9669.000000;-0.051457
9668.000000;-0.053399
9667.000000;-0.055299
9666.000000;-0.057130
9665.000000;-0.058959
9664.000000;-0.060887
9663.000000;-0.062915
9662.000000;-0.064963
9661.000000;-0.066986
9660.000000;-0.068978
9659.000000;-0.070907
9658.000000;-0.072743
9657.000000;-0.074557
9656.000000;-0.076485
9655.000000;-0.078582
9654.000000;-0.080756
9653.000000;-0.082866
9652.000000;-0.084837
9651.000000;-0.086705
9650.000000;-0.088586
9649.000000;-0.090588
9648.000000;-0.092708
9647.000000;-0.094841
9646.000000;-0.096922
9645.000000;-0.099017
9644.000000;-0.101200
9643.000000;-0.103416
9642.000000;-0.105566
9641.000000;-0.107675
9640.000000;-0.109849
9639.000000;-0.112090
9638.000000;-0.114278
9637.000000;-0.116372
9636.000000;-0.118487
9635.000000;-0.120738
9634.000000;-0.123090
9633.000000;-0.125421
9632.000000;-0.127651
9631.000000;-0.129769
9630.000000;-0.131803
9629.000000;-0.133827
9628.000000;-0.135936
9627.000000;-0.138165
9626.000000;-0.140443
9625.000000;-0.142673
9624.000000;-0.144812
9623.000000;-0.146856
9622.000000;-0.148816
9621.000000;-0.150741
9620.000000;-0.152726
9619.000000;-0.154847
9618.000000;-0.157103
9617.000000;-0.159437
9616.000000;-0.161783
9615.000000;-0.164070
9614.000000;-0.166233
9613.000000;-0.168286
9612.000000;-0.170363
9611.000000;-0.172632
9610.000000;-0.175130
9609.000000;-0.177708
9608.000000;-0.180130
9607.000000;-0.182259
9606.000000;-0.184165
9605.000000;-0.186079
9604.000000;-0.188217
9603.000000;-0.190621
9602.000000;-0.193137
9601.000000;-0.195548
9600.000000;-0.197732
9599.000000;-0.199733
9598.000000;-0.201723
9597.000000;-0.203880
9596.000000;-0.206255
9595.000000;-0.208742
9594.000000;-0.211178
9593.000000;-0.213469
9592.000000;-0.215632
9591.000000;-0.217746
9590.000000;-0.219910
9589.000000;-0.222199
9588.000000;-0.224582
9587.000000;-0.226910
9586.000000;-0.229047
9585.000000;-0.231046
9584.000000;-0.233121
9583.000000;-0.235419
9582.000000;-0.237873
9581.000000;-0.240322
9580.000000;-0.242698
9579.000000;-0.245046
9578.000000;-0.247406
9577.000000;-0.249769
9576.000000;-0.252130
9575.000000;-0.254507
9574.000000;-0.256890
9573.000000;-0.259212
9572.000000;-0.261416
9571.000000;-0.263521
9570.000000;-0.265596
9569.000000;-0.267715
9568.000000;-0.269929
9567.000000;-0.272245
9566.000000;-0.274583
9565.000000;-0.276807
9564.000000;-0.278859
9563.000000;-0.280860
9562.000000;-0.283024
9561.000000;-0.285452
9560.000000;-0.288035
9559.000000;-0.290561
9558.000000;-0.292890
9557.000000;-0.295021
9556.000000;-0.297058
9555.000000;-0.299123
9554.000000;-0.301275
9553.000000;-0.303483
9552.000000;-0.305688
9551.000000;-0.307897
9550.000000;-0.310174
9549.000000;-0.312527
9548.000000;-0.314865
9547.000000;-0.317099
9546.000000;-0.319221
9545.000000;-0.321264
9544.000000;-0.323230
9543.000000;-0.325136
9542.000000;-0.327071
9541.000000;-0.329126
9540.000000;-0.331284
9539.000000;-0.333459
9538.000000;-0.335626
9537.000000;-0.337831
9536.000000;-0.340096
9535.000000;-0.342377
9534.000000;-0.344621
9533.000000;-0.346795
9532.000000;-0.348878
9531.000000;-0.350899
9530.000000;-0.352944
9529.000000;-0.355042
9528.000000;-0.357071
9527.000000;-0.358897
9526.000000;-0.360603
9525.000000;-0.362441
9524.000000;-0.364533
9523.000000;-0.366746
9522.000000;-0.368900
9521.000000;-0.370957
9520.000000;-0.372950
9519.000000;-0.374858
9518.000000;-0.376668
9517.000000;-0.378446
9516.000000;-0.380260
9515.000000;-0.382077
9514.000000;-0.383846
9513.000000;-0.385589
9512.000000;-0.387336
9511.000000;-0.389048
9510.000000;-0.390700
9509.000000;-0.392366
9508.000000;-0.394112
9507.000000;-0.395857
9506.000000;-0.397478
9505.000000;-0.399010
9504.000000;-0.400623
9503.000000;-0.402399
9502.000000;-0.404233
9501.000000;-0.405969
9500.000000;-0.407569
9499.000000;-0.409127
9498.000000;-0.410775
9497.000000;-0.412544
9496.000000;-0.414304
9495.000000;-0.415884
9494.000000;-0.417271
9493.000000;-0.418626
9492.000000;-0.420050
9491.000000;-0.421452
9490.000000;-0.422713
9489.000000;-0.423868
9488.000000;-0.425016
9487.000000;-0.426145
9486.000000;-0.427206
9485.000000;-0.428286
9484.000000;-0.429521
9483.000000;-0.430881
9482.000000;-0.432183
9481.000000;-0.433316
9480.000000;-0.434284
9479.000000;-0.435095
9478.000000;-0.435779
9477.000000;-0.436529
9476.000000;-0.437612
9475.000000;-0.439054
9474.000000;-0.440547
9473.000000;-0.441748
9472.000000;-0.442562
9471.000000;-0.443122
9470.000000;-0.443639
9469.000000;-0.444322
9468.000000;-0.445295
9467.000000;-0.446469
9466.000000;-0.447568
9465.000000;-0.448368
9464.000000;-0.448867
9463.000000;-0.449223
9462.000000;-0.449606
9461.000000;-0.450125
9460.000000;-0.450775
9459.000000;-0.451417
9458.000000;-0.451904
9457.000000;-0.452271
9456.000000;-0.452706
9455.000000;-0.453286
9454.000000;-0.453869
9453.000000;-0.454281
9452.000000;-0.454514
9451.000000;-0.454656
9450.000000;-0.454750
9449.000000;-0.454809
9448.000000;-0.454871
9447.000000;-0.454935
9446.000000;-0.454926
9445.000000;-0.454815
9444.000000;-0.454700
9443.000000;-0.454700
9442.000000;-0.454817
9441.000000;-0.454974
9440.000000;-0.455101
9439.000000;-0.455130
9438.000000;-0.454992
9437.000000;-0.454717
9436.000000;-0.454467
9435.000000;-0.454355
9434.000000;-0.454295
9433.000000;-0.454121
9432.000000;-0.453815
9431.000000;-0.453492
9430.000000;-0.453212
9429.000000;-0.452911
9428.000000;-0.452542
9427.000000;-0.452169
9426.000000;-0.451881
9425.000000;-0.451653
9424.000000;-0.451348
9423.000000;-0.450833
9422.000000;-0.450135
9421.000000;-0.449441
9420.000000;-0.448934
9419.000000;-0.448597
9418.000000;-0.448232
9417.000000;-0.447691
9416.000000;-0.447008
9415.000000;-0.446313
9414.000000;-0.445679
9413.000000;-0.445102
9412.000000;-0.444544
9411.000000;-0.443929
9410.000000;-0.443168
9409.000000;-0.442260
9408.000000;-0.441325
9407.000000;-0.440472
9406.000000;-0.439680
9405.000000;-0.438848
9404.000000;-0.437947
9403.000000;-0.437043
9402.000000;-0.436200
9401.000000;-0.435406
9400.000000;-0.434583
9399.000000;-0.433650
9398.000000;-0.432613
9397.000000;-0.431582
9396.000000;-0.430679
9395.000000;-0.429906
9394.000000;-0.429155
9393.000000;-0.428334
9392.000000;-0.427423
9391.000000;-0.426406
9390.000000;-0.425285
9389.000000;-0.424150
9388.000000;-0.423123
9387.000000;-0.422186
9386.000000;-0.421178
9385.000000;-0.420032
9384.000000;-0.418875
9383.000000;-0.417825
9382.000000;-0.416805
9381.000000;-0.415690
9380.000000;-0.414515
9379.000000;-0.413406
9378.000000;-0.412364
9377.000000;-0.411269
9376.000000;-0.410060
9375.000000;-0.408793
9374.000000;-0.407523
9373.000000;-0.406250
9372.000000;-0.404964
9371.000000;-0.403674
9370.000000;-0.402399
9369.000000;-0.401191
9368.000000;-0.400111
9367.000000;-0.399128
9366.000000;-0.398097
9365.000000;-0.396913
9364.000000;-0.395642
9363.000000;-0.394402
9362.000000;-0.393190
9361.000000;-0.391938
9360.000000;-0.390675
9359.000000;-0.389493
9358.000000;-0.388362
9357.000000;-0.387133
9356.000000;-0.385747
9355.000000;-0.384314
9354.000000;-0.382972
9353.000000;-0.381756
9352.000000;-0.380625
9351.000000;-0.379525
9350.000000;-0.378410
9349.000000;-0.377265
9348.000000;-0.376142
9347.000000;-0.375088
9346.000000;-0.374034
9345.000000;-0.372837
9344.000000;-0.371446
9343.000000;-0.369953
9342.000000;-0.368473
9341.000000;-0.367042
9340.000000;-0.365679
9339.000000;-0.364429
9338.000000;-0.363303
9337.000000;-0.362233
9336.000000;-0.361141
9335.000000;-0.360009
9334.000000;-0.358840
9333.000000;-0.357618
9332.000000;-0.356366
9331.000000;-0.355193
9330.000000;-0.354189
9329.000000;-0.353275
9328.000000;-0.352230
9327.000000;-0.350908
9326.000000;-0.349392
9325.000000;-0.347908
9324.000000;-0.346584
9323.000000;-0.345357
9322.000000;-0.344102
9321.000000;-0.342817
9320.000000;-0.341609
9319.000000;-0.340528
9318.000000;-0.339487
9317.000000;-0.338379
9316.000000;-0.337193
9315.000000;-0.335969
9314.000000;-0.334702
9313.000000;-0.333361
9312.000000;-0.331989
9311.000000;-0.330685
9310.000000;-0.329481
9309.000000;-0.328302
9308.000000;-0.327086
9307.000000;-0.325889
9306.000000;-0.324808
9305.000000;-0.323818
9304.000000;-0.322744
9303.000000;-0.321430
9302.000000;-0.319916
9301.000000;-0.318406
9300.000000;-0.317074
9299.000000;-0.315927
9298.000000;-0.314864
9297.000000;-0.313808
9296.000000;-0.312742
9295.000000;-0.311659
9294.000000;-0.310551
9293.000000;-0.309446
9292.000000;-0.308384
9291.000000;-0.307343
9290.000000;-0.306255
9289.000000;-0.305099
9288.000000;-0.303919
9287.000000;-0.302739
9286.000000;-0.301543
9285.000000;-0.300345
9284.000000;-0.299214
9283.000000;-0.298170
9282.000000;-0.297131
9281.000000;-0.296017
9280.000000;-0.294855
9279.000000;-0.293726
9278.000000;-0.292661
9277.000000;-0.291660
9276.000000;-0.290730
9275.000000;-0.289833
9274.000000;-0.288868
9273.000000;-0.287786
9272.000000;-0.286686
9271.000000;-0.285689
9270.000000;-0.284759
9269.000000;-0.283745
9268.000000;-0.282588
9267.000000;-0.281388
9266.000000;-0.280264
9265.000000;-0.279245
9264.000000;-0.278302
9263.000000;-0.277375
9262.000000;-0.276370
9261.000000;-0.275215
9260.000000;-0.273974
9259.000000;-0.272833
9258.000000;-0.271911
9257.000000;-0.271141
9256.000000;-0.270379
9255.000000;-0.269560
9254.000000;-0.268708
9253.000000;-0.267826
9252.000000;-0.266859
9251.000000;-0.265763
9250.000000;-0.264559
9249.000000;-0.263346
9248.000000;-0.262259
9247.000000;-0.261369
9246.000000;-0.260595
9245.000000;-0.259747
9244.000000;-0.258719
9243.000000;-0.257610
9242.000000;-0.256620
9241.000000;-0.255828
9240.000000;-0.255116
9239.000000;-0.254320
9238.000000;-0.253377
9237.000000;-0.252335
9236.000000;-0.251271
9235.000000;-0.250257
9234.000000;-0.249357
9233.000000;-0.248582
9232.000000;-0.247845
9231.000000;-0.247012
9230.000000;-0.246039
9229.000000;-0.245005
9228.000000;-0.244004
9227.000000;-0.243052
9226.000000;-0.242123
9225.000000;-0.241236
9224.000000;-0.240426
9223.000000;-0.239669
9222.000000;-0.238895
9221.000000;-0.238089
9220.000000;-0.237310
9219.000000;-0.236582
9218.000000;-0.235850
9217.000000;-0.235048
9216.000000;-0.234175
9215.000000;-0.233271
9214.000000;-0.232357
9213.000000;-0.231441
9212.000000;-0.230539
9211.000000;-0.229676
9210.000000;-0.228863
9209.000000;-0.228090
9208.000000;-0.227330
9207.000000;-0.226540
9206.000000;-0.225698
9205.000000;-0.224847
9204.000000;-0.224052
9203.000000;-0.223321
9202.000000;-0.222598
9201.000000;-0.221863
9200.000000;-0.221171
9199.000000;-0.220554
9198.000000;-0.219939
9197.000000;-0.219213
9196.000000;-0.218354
9195.000000;-0.217431
9194.000000;-0.216520
9193.000000;-0.215665
9192.000000;-0.214894
9191.000000;-0.214205
9190.000000;-0.213545
9189.000000;-0.212843
9188.000000;-0.212089
9187.000000;-0.211342
9186.000000;-0.210668
9185.000000;-0.210063
9184.000000;-0.209461
9183.000000;-0.208785
9182.000000;-0.208026
9181.000000;-0.207247
9180.000000;-0.206500
9179.000000;-0.205750
9178.000000;-0.204927
9177.000000;-0.204060
9176.000000;-0.203284
9175.000000;-0.202681
9174.000000;-0.202174
9173.000000;-0.201624
9172.000000;-0.200992
9171.000000;-0.200336
9170.000000;-0.199695
9169.000000;-0.199050
9168.000000;-0.198394
9167.000000;-0.197765
9166.000000;-0.197201
9165.000000;-0.196688
9164.000000;-0.196165
9163.000000;-0.195556
9162.000000;-0.194837
9161.000000;-0.194088
9160.000000;-0.193439
9159.000000;-0.192913
9158.000000;-0.192373
9157.000000;-0.191684
9156.000000;-0.190896
9155.000000;-0.190192
9154.000000;-0.189652
9153.000000;-0.189179
9152.000000;-0.188643
9151.000000;-0.188024
9150.000000;-0.187369
9149.000000;-0.186702
9148.000000;-0.186017
9147.000000;-0.185338
9146.000000;-0.184711
9145.000000;-0.184151
9144.000000;-0.183621
9143.000000;-0.183075
9142.000000;-0.182498
9141.000000;-0.181919
9140.000000;-0.181373
9139.000000;-0.180858
9138.000000;-0.180324
9137.000000;-0.179739
9136.000000;-0.179126
9135.000000;-0.178543
9134.000000;-0.178010
9133.000000;-0.177496
9132.000000;-0.176984
9131.000000;-0.176496
9130.000000;-0.176058
9129.000000;-0.175646
9128.000000;-0.175189
9127.000000;-0.174638
9126.000000;-0.174013
9125.000000;-0.173398
9124.000000;-0.172853
9123.000000;-0.172355
9122.000000;-0.171833
9121.000000;-0.171280
9120.000000;-0.170775
9119.000000;-0.170378
9118.000000;-0.170040
9117.000000;-0.169660
9116.000000;-0.169184
9115.000000;-0.168621
9114.000000;-0.167993
9113.000000;-0.167336
9112.000000;-0.166730
9111.000000;-0.166247
9110.000000;-0.165868
9109.000000;-0.165491
9108.000000;-0.165050
9107.000000;-0.164571
9106.000000;-0.164111
9105.000000;-0.163667
9104.000000;-0.163182
9103.000000;-0.162623
9102.000000;-0.162039
9101.000000;-0.161536
9100.000000;-0.161171
9099.000000;-0.160883
9098.000000;-0.160530
9097.000000;-0.160034
9096.000000;-0.159466
9095.000000;-0.158945
9094.000000;-0.158498
9093.000000;-0.158061
9092.000000;-0.157598
9091.000000;-0.157144
9090.000000;-0.156741
9089.000000;-0.156398
9088.000000;-0.156112
9087.000000;-0.155870
9086.000000;-0.155616
9085.000000;-0.155266
9084.000000;-0.154808
9083.000000;-0.154329
9082.000000;-0.153922
