Criado como novo conjunto de dados;"0307_DANIEL.spp","45004.1 Secs"
cm-1;Abs
10000.000000;1.106301
9999.000000;1.105416
9998.000000;1.104840
9997.000000;1.103980
9996.000000;1.102613
9995.000000;1.101088
9994.000000;1.099799
9993.000000;1.098677
9992.000000;1.097425
9991.000000;1.096048
9990.000000;1.094824
9989.000000;1.093818
9988.000000;1.092789
9987.000000;1.091604
9986.000000;1.090401
9985.000000;1.089257
9984.000000;1.088050
9983.000000;1.086772
9982.000000;1.085690
9981.000000;1.084941
9980.000000;1.084219
9979.000000;1.083108
9978.000000;1.081573
9977.000000;1.079871
9976.000000;1.078163
9975.000000;1.076524
9974.000000;1.075162
9973.000000;1.074253
9972.000000;1.073569
9971.000000;1.072635
9970.000000;1.071330
9969.000000;1.070029
9968.000000;1.069061
9967.000000;1.068287
9966.000000;1.067383
9965.000000;1.066309
9964.000000;1.065248
9963.000000;1.064185
9962.000000;1.062814
9961.000000;1.060924
9960.000000;1.058727
9959.000000;1.056725
9958.000000;1.055252
9957.000000;1.054154
9956.000000;1.052945
9955.000000;1.051352
9954.000000;1.049716
9953.000000;1.048697
9952.000000;1.048519
9951.000000;1.048584
9950.000000;1.047981
9949.000000;1.046366
9948.000000;1.044242
9947.000000;1.042389
9946.000000;1.041111
9945.000000;1.040056
9944.000000;1.038685
9943.000000;1.036912
9942.000000;1.035260
9941.000000;1.034366
9940.000000;1.034294
9939.000000;1.034366
9938.000000;1.033705
9937.000000;1.031985
9936.000000;1.029636
9935.000000;1.027409
9934.000000;1.025819
9933.000000;1.024909
9932.000000;1.024344
9931.000000;1.023692
9930.000000;1.022737
9929.000000;1.021595
9928.000000;1.020524
9927.000000;1.019614
9926.000000;1.018716
9925.000000;1.017623
9924.000000;1.016229
9923.000000;1.014488
9922.000000;1.012427
9921.000000;1.010254
9920.000000;1.008325
9919.000000;1.006799
9918.000000;1.005387
9917.000000;1.003648
9916.000000;1.001557
9915.000000;0.999615
9914.000000;0.998302
9913.000000;0.997530
9912.000000;0.996784
9911.000000;0.995721
9910.000000;0.994512
9909.000000;0.993558
9908.000000;0.992998
9907.000000;0.992529
9906.000000;0.991673
9905.000000;0.990186
9904.000000;0.988231
9903.000000;0.986206
9902.000000;0.984415
9901.000000;0.982907
9900.000000;0.981581
9899.000000;0.980337
9898.000000;0.979090
9897.000000;0.977736
9896.000000;0.976249
9895.000000;0.974773
9894.000000;0.973494
9893.000000;0.972424
9892.000000;0.971405
9891.000000;0.970325
9890.000000;0.969180
9889.000000;0.967893
9888.000000;0.966290
9887.000000;0.964373
9886.000000;0.962464
9885.000000;0.960877
9884.000000;0.959565
9883.000000;0.958305
9882.000000;0.957119
9881.000000;0.956220
9880.000000;0.955513
9879.000000;0.954459
9878.000000;0.952613
9877.000000;0.950136
9876.000000;0.947627
9875.000000;0.945560
9874.000000;0.944039
9873.000000;0.942961
9872.000000;0.942169
9871.000000;0.941438
9870.000000;0.940479
9869.000000;0.939116
9868.000000;0.937433
9867.000000;0.935701
9866.000000;0.934166
9865.000000;0.932864
9864.000000;0.931617
9863.000000;0.930168
9862.000000;0.928402
9861.000000;0.926436
9860.000000;0.924529
9859.000000;0.922889
9858.000000;0.921582
9857.000000;0.920525
9856.000000;0.919535
9855.000000;0.918387
9854.000000;0.916930
9853.000000;0.915221
9852.000000;0.913526
9851.000000;0.912123
9850.000000;0.911065
9849.000000;0.910136
9848.000000;0.909078
9847.000000;0.907807
9846.000000;0.906408
9845.000000;0.904943
9844.000000;0.903380
9843.000000;0.901707
9842.000000;0.900024
9841.000000;0.898442
9840.000000;0.896945
9839.000000;0.895421
9838.000000;0.893764
9837.000000;0.891877
9836.000000;0.889696
9835.000000;0.887349
9834.000000;0.885228
9833.000000;0.883703
9832.000000;0.882749
9831.000000;0.881971
9830.000000;0.881014
9829.000000;0.879807
9828.000000;0.878375
9827.000000;0.876650
9826.000000;0.874611
9825.000000;0.872489
9824.000000;0.870606
9823.000000;0.869039
9822.000000;0.867586
9821.000000;0.866067
9820.000000;0.864559
9819.000000;0.863268
9818.000000;0.862255
9817.000000;0.861345
9816.000000;0.860287
9815.000000;0.858960
9814.000000;0.857434
9813.000000;0.855853
9812.000000;0.854311
9811.000000;0.852801
9810.000000;0.851227
9809.000000;0.849453
9808.000000;0.847448
9807.000000;0.845429
9806.000000;0.843753
9805.000000;0.842547
9804.000000;0.841513
9803.000000;0.840241
9802.000000;0.838663
9801.000000;0.837011
9800.000000;0.835343
9799.000000;0.833403
9798.000000;0.831063
9797.000000;0.828689
9796.000000;0.826817
9795.000000;0.825534
9794.000000;0.824349
9793.000000;0.822688
9792.000000;0.820431
9791.000000;0.817987
9790.000000;0.815909
9789.000000;0.814453
9788.000000;0.813439
9787.000000;0.812493
9786.000000;0.811392
9785.000000;0.810120
9784.000000;0.808644
9783.000000;0.806848
9782.000000;0.804820
9781.000000;0.803026
9780.000000;0.801908
9779.000000;0.801300
9778.000000;0.800439
9777.000000;0.798673
9776.000000;0.796102
9775.000000;0.793423
9774.000000;0.791215
9773.000000;0.789479
9772.000000;0.787826
9771.000000;0.785974
9770.000000;0.783980
9769.000000;0.782015
9768.000000;0.780074
9767.000000;0.778022
9766.000000;0.775888
9765.000000;0.773954
9764.000000;0.772483
9763.000000;0.771451
9762.000000;0.770586
9761.000000;0.769624
9760.000000;0.768448
9759.000000;0.767045
9758.000000;0.765430
9757.000000;0.763608
9756.000000;0.761580
9755.000000;0.759421
9754.000000;0.757364
9753.000000;0.755716
9752.000000;0.754598
9751.000000;0.753759
9750.000000;0.752741
9749.000000;0.751230
9748.000000;0.749241
9747.000000;0.746998
9746.000000;0.744695
9745.000000;0.742379
9744.000000;0.740026
9743.000000;0.737694
9742.000000;0.735557
9741.000000;0.733757
9740.000000;0.732242
9739.000000;0.730820
9738.000000;0.729386
9737.000000;0.727993
9736.000000;0.726661
9735.000000;0.725240
9734.000000;0.723552
9733.000000;0.721587
9732.000000;0.719467
9731.000000;0.717281
9730.000000;0.715065
9729.000000;0.712895
9728.000000;0.710905
9727.000000;0.709157
9726.000000;0.707557
9725.000000;0.705895
9724.000000;0.703973
9723.000000;0.701760
9722.000000;0.699453
9721.000000;0.697340
9720.000000;0.695537
9719.000000;0.693907
9718.000000;0.692261
9717.000000;0.690541
9716.000000;0.688735
9715.000000;0.686726
9714.000000;0.684389
9713.000000;0.681827
9712.000000;0.679366
9711.000000;0.677283
9710.000000;0.675599
9709.000000;0.674145
9708.000000;0.672753
9707.000000;0.671359
9706.000000;0.669956
9705.000000;0.668494
9704.000000;0.666826
9703.000000;0.664815
9702.000000;0.662514
9701.000000;0.660172
9700.000000;0.658022
9699.000000;0.656070
9698.000000;0.654150
9697.000000;0.652113
9696.000000;0.649927
9695.000000;0.647675
9694.000000;0.645539
9693.000000;0.643700
9692.000000;0.642145
9691.000000;0.640623
9690.000000;0.638880
9689.000000;0.636887
9688.000000;0.634771
9687.000000;0.632592
9686.000000;0.630352
9685.000000;0.628168
9684.000000;0.626226
9683.000000;0.624532
9682.000000;0.622844
9681.000000;0.620976
9680.000000;0.619021
9679.000000;0.617183
9678.000000;0.615460
9677.000000;0.613596
9676.000000;0.611343
9675.000000;0.608714
9674.000000;0.605993
9673.000000;0.603511
9672.000000;0.601382
9671.000000;0.599434
9670.000000;0.597429
9669.000000;0.595310
9668.000000;0.593175
9667.000000;0.591029
9666.000000;0.588702
9665.000000;0.586095
9664.000000;0.583410
9663.000000;0.581035
9662.000000;0.579211
9661.000000;0.577854
9660.000000;0.576643
9659.000000;0.575205
9658.000000;0.573281
9657.000000;0.570865
9656.000000;0.568234
9655.000000;0.565733
9654.000000;0.563479
9653.000000;0.561330
9652.000000;0.559158
9651.000000;0.557038
9650.000000;0.555096
9649.000000;0.553285
9648.000000;0.551451
9647.000000;0.549549
9646.000000;0.547595
9645.000000;0.545446
9644.000000;0.542901
9643.000000;0.540077
9642.000000;0.537458
9641.000000;0.535379
9640.000000;0.533631
9639.000000;0.531737
9638.000000;0.529492
9637.000000;0.527027
9636.000000;0.524447
9635.000000;0.521733
9634.000000;0.519008
9633.000000;0.516587
9632.000000;0.514643
9631.000000;0.513010
9630.000000;0.511410
9629.000000;0.509712
9628.000000;0.507863
9627.000000;0.505719
9626.000000;0.503143
9625.000000;0.500238
9624.000000;0.497352
9623.000000;0.494847
9622.000000;0.492829
9621.000000;0.491043
9620.000000;0.489062
9619.000000;0.486658
9618.000000;0.483977
9617.000000;0.481273
9616.000000;0.478590
9615.000000;0.475928
9614.000000;0.473581
9613.000000;0.471909
9612.000000;0.470699
9611.000000;0.469169
9610.000000;0.466830
9609.000000;0.464048
9608.000000;0.461504
9607.000000;0.459385
9606.000000;0.457414
9605.000000;0.455382
9604.000000;0.453240
9603.000000;0.450838
9602.000000;0.448057
9601.000000;0.445161
9600.000000;0.442604
9599.000000;0.440430
9598.000000;0.438237
9597.000000;0.435812
9596.000000;0.433424
9595.000000;0.431339
9594.000000;0.429373
9593.000000;0.427150
9592.000000;0.424597
9591.000000;0.421946
9590.000000;0.419384
9589.000000;0.416904
9588.000000;0.414416
9587.000000;0.411825
9586.000000;0.409066
9585.000000;0.406222
9584.000000;0.403576
9583.000000;0.401398
9582.000000;0.399673
9581.000000;0.398108
9580.000000;0.396399
9579.000000;0.394431
9578.000000;0.392245
9577.000000;0.389922
9576.000000;0.387513
9575.000000;0.385047
9574.000000;0.382553
9573.000000;0.380040
9572.000000;0.377479
9571.000000;0.374821
9570.000000;0.372065
9569.000000;0.369297
9568.000000;0.366635
9567.000000;0.364159
9566.000000;0.361908
9565.000000;0.359849
9564.000000;0.357845
9563.000000;0.355733
9562.000000;0.353522
9561.000000;0.351389
9560.000000;0.349410
9559.000000;0.347392
9558.000000;0.345123
9557.000000;0.342693
9556.000000;0.340391
9555.000000;0.338332
9554.000000;0.336377
9553.000000;0.334377
9552.000000;0.332291
9551.000000;0.330055
9550.000000;0.327571
9549.000000;0.324919
9548.000000;0.322387
9547.000000;0.320189
9546.000000;0.318249
9545.000000;0.316334
9544.000000;0.314282
9543.000000;0.312053
9542.000000;0.309668
9541.000000;0.307211
9540.000000;0.304775
9539.000000;0.302378
9538.000000;0.299980
9537.000000;0.297621
9536.000000;0.295410
9535.000000;0.293349
9534.000000;0.291269
9533.000000;0.289017
9532.000000;0.286622
9531.000000;0.284257
9530.000000;0.282128
9529.000000;0.280380
9528.000000;0.278942
9527.000000;0.277426
9526.000000;0.275369
9525.000000;0.272712
9524.000000;0.269904
9523.000000;0.267450
9522.000000;0.265485
9521.000000;0.263858
9520.000000;0.262414
9519.000000;0.261014
9518.000000;0.259443
9517.000000;0.257563
9516.000000;0.255515
9515.000000;0.253550
9514.000000;0.251678
9513.000000;0.249658
9512.000000;0.247360
9511.000000;0.244959
9510.000000;0.242715
9509.000000;0.240704
9508.000000;0.238824
9507.000000;0.236959
9506.000000;0.235084
9505.000000;0.233252
9504.000000;0.231524
9503.000000;0.229891
9502.000000;0.228280
9501.000000;0.226665
9500.000000;0.225123
9499.000000;0.223703
9498.000000;0.222287
9497.000000;0.220699
9496.000000;0.218968
9495.000000;0.217336
9494.000000;0.215968
9493.000000;0.214762
9492.000000;0.213490
9491.000000;0.212054
9490.000000;0.210535
9489.000000;0.209040
9488.000000;0.207600
9487.000000;0.206189
9486.000000;0.204791
9485.000000;0.203445
9484.000000;0.202217
9483.000000;0.201106
9482.000000;0.199975
9481.000000;0.198672
9480.000000;0.197261
9479.000000;0.196027
9478.000000;0.195149
9477.000000;0.194412
9476.000000;0.193396
9475.000000;0.191943
9474.000000;0.190335
9473.000000;0.188982
9472.000000;0.188033
9471.000000;0.187362
9470.000000;0.186788
9469.000000;0.186188
9468.000000;0.185452
9467.000000;0.184503
9466.000000;0.183390
9465.000000;0.182263
9464.000000;0.181220
9463.000000;0.180271
9462.000000;0.179462
9461.000000;0.178903
9460.000000;0.178593
9459.000000;0.178319
9458.000000;0.177858
9457.000000;0.177244
9456.000000;0.176717
9455.000000;0.176421
9454.000000;0.176245
9453.000000;0.175970
9452.000000;0.175478
9451.000000;0.174808
9450.000000;0.174089
9449.000000;0.173469
9448.000000;0.173057
9447.000000;0.172895
9446.000000;0.172974
9445.000000;0.173261
9444.000000;0.173638
9443.000000;0.173881
9442.000000;0.173831
9441.000000;0.173600
9440.000000;0.173473
9439.000000;0.173545
9438.000000;0.173579
9437.000000;0.173336
9436.000000;0.172957
9435.000000;0.172840
9434.000000;0.173195
9433.000000;0.173856
9432.000000;0.174508
9431.000000;0.174937
9430.000000;0.175035
9429.000000;0.174779
9428.000000;0.174337
9427.000000;0.174081
9426.000000;0.174297
9425.000000;0.174898
9424.000000;0.175530
9423.000000;0.175960
9422.000000;0.176259
9421.000000;0.176631
9420.000000;0.177203
9419.000000;0.178000
9418.000000;0.178977
9417.000000;0.179993
9416.000000;0.180848
9415.000000;0.181469
9414.000000;0.181991
9413.000000;0.182568
9412.000000;0.183133
9411.000000;0.183491
9410.000000;0.183650
9409.000000;0.183921
9408.000000;0.184621
9407.000000;0.185723
9406.000000;0.186878
9405.000000;0.187730
9404.000000;0.188189
9403.000000;0.188438
9402.000000;0.188760
9401.000000;0.189360
9400.000000;0.190241
9399.000000;0.191195
9398.000000;0.191954
9397.000000;0.192463
9396.000000;0.192997
9395.000000;0.193909
9394.000000;0.195230
9393.000000;0.196577
9392.000000;0.197521
9391.000000;0.198035
9390.000000;0.198475
9389.000000;0.199174
9388.000000;0.200161
9387.000000;0.201278
9386.000000;0.202431
9385.000000;0.203647
9384.000000;0.204960
9383.000000;0.206369
9382.000000;0.207856
9381.000000;0.209359
9380.000000;0.210738
9379.000000;0.211854
9378.000000;0.212707
9377.000000;0.213449
9376.000000;0.214249
9375.000000;0.215186
9374.000000;0.216220
9373.000000;0.217246
9372.000000;0.218169
9371.000000;0.218996
9370.000000;0.219849
9369.000000;0.220852
9368.000000;0.222031
9367.000000;0.223337
9366.000000;0.224709
9365.000000;0.226061
9364.000000;0.227265
9363.000000;0.228276
9362.000000;0.229225
9361.000000;0.230291
9360.000000;0.231472
9359.000000;0.232612
9358.000000;0.233645
9357.000000;0.234702
9356.000000;0.235933
9355.000000;0.237329
9354.000000;0.238772
9353.000000;0.240194
9352.000000;0.241615
9351.000000;0.243083
9350.000000;0.244596
9349.000000;0.246033
9348.000000;0.247187
9347.000000;0.247979
9346.000000;0.248660
9345.000000;0.249652
9344.000000;0.251114
9343.000000;0.252760
9342.000000;0.254183
9341.000000;0.255245
9340.000000;0.256052
9339.000000;0.256707
9338.000000;0.257275
9337.000000;0.257923
9336.000000;0.258863
9335.000000;0.260122
9334.000000;0.261496
9333.000000;0.262805
9332.000000;0.264062
9331.000000;0.265334
9330.000000;0.266548
9329.000000;0.267582
9328.000000;0.268486
9327.000000;0.269501
9326.000000;0.270799
9325.000000;0.272274
9324.000000;0.273663
9323.000000;0.274847
9322.000000;0.275954
9321.000000;0.277113
9320.000000;0.278230
9319.000000;0.279134
9318.000000;0.279910
9317.000000;0.280880
9316.000000;0.282175
9315.000000;0.283515
9314.000000;0.284563
9313.000000;0.285407
9312.000000;0.286465
9311.000000;0.287939
9310.000000;0.289583
9309.000000;0.291027
9308.000000;0.292151
9307.000000;0.293076
9306.000000;0.293955
9305.000000;0.294922
9304.000000;0.296121
9303.000000;0.297593
9302.000000;0.299172
9301.000000;0.300604
9300.000000;0.301770
9299.000000;0.302721
9298.000000;0.303535
9297.000000;0.304245
9296.000000;0.304912
9295.000000;0.305653
9294.000000;0.306558
9293.000000;0.307620
9292.000000;0.308773
9291.000000;0.309947
9290.000000;0.311073
9289.000000;0.312090
9288.000000;0.312996
9287.000000;0.313870
9286.000000;0.314834
9285.000000;0.315970
9284.000000;0.317268
9283.000000;0.318608
9282.000000;0.319816
9281.000000;0.320809
9280.000000;0.321678
9279.000000;0.322583
9278.000000;0.323582
9277.000000;0.324610
9276.000000;0.325640
9275.000000;0.326743
9274.000000;0.327935
9273.000000;0.329074
9272.000000;0.330007
9271.000000;0.330777
9270.000000;0.331569
9269.000000;0.332464
9268.000000;0.333382
9267.000000;0.334267
9266.000000;0.335199
9265.000000;0.336238
9264.000000;0.337259
9263.000000;0.338087
9262.000000;0.338780
9261.000000;0.339624
9260.000000;0.340818
9259.000000;0.342227
9258.000000;0.343524
9257.000000;0.344532
9256.000000;0.345350
9255.000000;0.346162
9254.000000;0.346992
9253.000000;0.347724
9252.000000;0.348308
9251.000000;0.348882
9250.000000;0.349628
9249.000000;0.350563
9248.000000;0.351523
9247.000000;0.352354
9246.000000;0.353057
9245.000000;0.353735
9244.000000;0.354474
9243.000000;0.355334
9242.000000;0.356382
9241.000000;0.357642
9240.000000;0.358978
9239.000000;0.360149
9238.000000;0.361012
9237.000000;0.361638
9236.000000;0.362216
9235.000000;0.362891
9234.000000;0.363726
9233.000000;0.364722
9232.000000;0.365801
9231.000000;0.366836
9230.000000;0.367769
9229.000000;0.368698
9228.000000;0.369729
9227.000000;0.370774
9226.000000;0.371597
9225.000000;0.372099
9224.000000;0.372492
9223.000000;0.373106
9222.000000;0.374067
9221.000000;0.375200
9220.000000;0.376220
9219.000000;0.376954
9218.000000;0.377403
9217.000000;0.377696
9216.000000;0.378012
9215.000000;0.378499
9214.000000;0.379212
9213.000000;0.380107
9212.000000;0.381085
9211.000000;0.382047
9210.000000;0.382931
9209.000000;0.383750
9208.000000;0.384582
9207.000000;0.385481
9206.000000;0.386373
9205.000000;0.387094
9204.000000;0.387560
9203.000000;0.387873
9202.000000;0.388238
9201.000000;0.388788
9200.000000;0.389511
9199.000000;0.390306
9198.000000;0.391072
9197.000000;0.391760
9196.000000;0.392391
9195.000000;0.393045
9194.000000;0.393797
9193.000000;0.394641
9192.000000;0.395475
9191.000000;0.396164
9190.000000;0.396645
9189.000000;0.397008
9188.000000;0.397460
9187.000000;0.398151
9186.000000;0.399001
9185.000000;0.399758
9184.000000;0.400279
9183.000000;0.400720
9182.000000;0.401363
9181.000000;0.402289
9180.000000;0.403294
9179.000000;0.404135
9178.000000;0.404755
9177.000000;0.405266
9176.000000;0.405766
9175.000000;0.406223
9174.000000;0.406534
9173.000000;0.406669
9172.000000;0.406787
9171.000000;0.407182
9170.000000;0.408028
9169.000000;0.409195
9168.000000;0.410353
9167.000000;0.411270
9166.000000;0.411935
9165.000000;0.412433
9164.000000;0.412836
9163.000000;0.413232
9162.000000;0.413743
9161.000000;0.414388
9160.000000;0.415030
9159.000000;0.415525
9158.000000;0.415889
9157.000000;0.416241
9156.000000;0.416653
9155.000000;0.417141
9154.000000;0.417731
9153.000000;0.418445
9152.000000;0.419237
9151.000000;0.420027
9150.000000;0.420783
9149.000000;0.421493
9148.000000;0.422085
9147.000000;0.422469
9146.000000;0.422657
9145.000000;0.422789
9144.000000;0.423024
9143.000000;0.423463
9142.000000;0.424117
9141.000000;0.424900
9140.000000;0.425665
9139.000000;0.426330
9138.000000;0.426935
9137.000000;0.427533
9136.000000;0.428073
9135.000000;0.428487
9134.000000;0.428827
9133.000000;0.429178
9132.000000;0.429480
9131.000000;0.429600
9130.000000;0.429614
9129.000000;0.429826
9128.000000;0.430413
9127.000000;0.431192
9126.000000;0.431858
9125.000000;0.432368
9124.000000;0.432954
9123.000000;0.433774
9122.000000;0.434684
9121.000000;0.435399
9120.000000;0.435806
9119.000000;0.436043
9118.000000;0.436305
9117.000000;0.436623
9116.000000;0.436898
9115.000000;0.437105
9114.000000;0.437368
9113.000000;0.437787
9112.000000;0.438259
9111.000000;0.438585
9110.000000;0.438731
9109.000000;0.438879
9108.000000;0.439211
9107.000000;0.439716
9106.000000;0.440242
9105.000000;0.440662
9104.000000;0.440979
9103.000000;0.441325
9102.000000;0.441870
9101.000000;0.442652
9100.000000;0.443461
9099.000000;0.443974
9098.000000;0.444049
9097.000000;0.443853
9096.000000;0.443692
9095.000000;0.443772
9094.000000;0.444133
9093.000000;0.444673
9092.000000;0.445216
9091.000000;0.445624
9090.000000;0.445927
9089.000000;0.446269
9088.000000;0.446681
9087.000000;0.446993
9086.000000;0.447076
9085.000000;0.447078
9084.000000;0.447315
9083.000000;0.447947
9082.000000;0.448845
9081.000000;0.449739
9080.000000;0.450412
9079.000000;0.450776
9078.000000;0.450888
9077.000000;0.450914
9076.000000;0.451024
9075.000000;0.451287
9074.000000;0.451674
9073.000000;0.452127
9072.000000;0.452551
9071.000000;0.452791
9070.000000;0.452744
9069.000000;0.452526
9068.000000;0.452436
9067.000000;0.452707
9066.000000;0.453305
9065.000000;0.453989
9064.000000;0.454541
9063.000000;0.454917
9062.000000;0.455210
9061.000000;0.455508
9060.000000;0.455784
9059.000000;0.455948
9058.000000;0.456004
9057.000000;0.456091
9056.000000;0.456330
9055.000000;0.456684
9054.000000;0.457049
9053.000000;0.457426
