Criado como novo conjunto de dados;"0307_DANIEL.spp","30603.6 Secs"
cm-1;Abs
10000.000000;1.124141
9999.000000;1.122216
9998.000000;1.120832
9997.000000;1.119965
9996.000000;1.119405
9995.000000;1.118919
9994.000000;1.118088
9993.000000;1.116693
9992.000000;1.114927
9991.000000;1.113379
9990.000000;1.112458
9989.000000;1.112025
9988.000000;1.111607
9987.000000;1.110899
9986.000000;1.109912
9985.000000;1.108728
9984.000000;1.107356
9983.000000;1.105852
9982.000000;1.104386
9981.000000;1.103114
9980.000000;1.102034
9979.000000;1.100970
9978.000000;1.099686
9977.000000;1.098080
9976.000000;1.096374
9975.000000;1.095040
9974.000000;1.094337
9973.000000;1.093895
9972.000000;1.092961
9971.000000;1.091156
9970.000000;1.088885
9969.000000;1.086921
9968.000000;1.085692
9967.000000;1.085003
9966.000000;1.084325
9965.000000;1.083253
9964.000000;1.081767
9963.000000;1.080152
9962.000000;1.078673
9961.000000;1.077349
9960.000000;1.076064
9959.000000;1.074819
9958.000000;1.073772
9957.000000;1.073052
9956.000000;1.072625
9955.000000;1.072311
9954.000000;1.071795
9953.000000;1.070707
9952.000000;1.068941
9951.000000;1.066899
9950.000000;1.065200
9949.000000;1.064054
9948.000000;1.063118
9947.000000;1.062000
9946.000000;1.060652
9945.000000;1.059211
9944.000000;1.057702
9943.000000;1.056125
9942.000000;1.054583
9941.000000;1.053120
9940.000000;1.051640
9939.000000;1.050230
9938.000000;1.049322
9937.000000;1.049180
9936.000000;1.049310
9935.000000;1.048807
9934.000000;1.047329
9933.000000;1.045421
9932.000000;1.043791
9931.000000;1.042569
9930.000000;1.041375
9929.000000;1.039869
9928.000000;1.038031
9927.000000;1.036072
9926.000000;1.034231
9925.000000;1.032602
9924.000000;1.031071
9923.000000;1.029486
9922.000000;1.027912
9921.000000;1.026579
9920.000000;1.025545
9919.000000;1.024565
9918.000000;1.023408
9917.000000;1.022155
9916.000000;1.021051
9915.000000;1.020139
9914.000000;1.019159
9913.000000;1.017798
9912.000000;1.015938
9911.000000;1.013734
9910.000000;1.011560
9909.000000;1.009826
9908.000000;1.008697
9907.000000;1.007944
9906.000000;1.007127
9905.000000;1.005969
9904.000000;1.004557
9903.000000;1.003214
9902.000000;1.002195
9901.000000;1.001453
9900.000000;1.000678
9899.000000;0.999592
9898.000000;0.998222
9897.000000;0.996830
9896.000000;0.995545
9895.000000;0.994187
9894.000000;0.992533
9893.000000;0.990654
9892.000000;0.988833
9891.000000;0.987195
9890.000000;0.985582
9889.000000;0.983864
9888.000000;0.982252
9887.000000;0.981150
9886.000000;0.980687
9885.000000;0.980475
9884.000000;0.979895
9883.000000;0.978627
9882.000000;0.976871
9881.000000;0.975085
9880.000000;0.973600
9879.000000;0.972433
9878.000000;0.971317
9877.000000;0.969850
9876.000000;0.967779
9875.000000;0.965321
9874.000000;0.963124
9873.000000;0.961678
9872.000000;0.960812
9871.000000;0.959886
9870.000000;0.958498
9869.000000;0.956836
9868.000000;0.955320
9867.000000;0.954113
9866.000000;0.953050
9865.000000;0.951864
9864.000000;0.950352
9863.000000;0.948496
9862.000000;0.946546
9861.000000;0.944876
9860.000000;0.943626
9859.000000;0.942578
9858.000000;0.941461
9857.000000;0.940241
9856.000000;0.938965
9855.000000;0.937506
9854.000000;0.935712
9853.000000;0.933749
9852.000000;0.932059
9851.000000;0.930937
9850.000000;0.930247
9849.000000;0.929525
9848.000000;0.928270
9847.000000;0.926256
9846.000000;0.923762
9845.000000;0.921431
9844.000000;0.919731
9843.000000;0.918568
9842.000000;0.917547
9841.000000;0.916490
9840.000000;0.915468
9839.000000;0.914409
9838.000000;0.913056
9837.000000;0.911358
9836.000000;0.909584
9835.000000;0.907938
9834.000000;0.906333
9833.000000;0.904688
9832.000000;0.903113
9831.000000;0.901611
9830.000000;0.899885
9829.000000;0.897732
9828.000000;0.895454
9827.000000;0.893524
9826.000000;0.891978
9825.000000;0.890469
9824.000000;0.888840
9823.000000;0.887302
9822.000000;0.886008
9821.000000;0.884771
9820.000000;0.883304
9819.000000;0.881568
9818.000000;0.879785
9817.000000;0.878253
9816.000000;0.877185
9815.000000;0.876579
9814.000000;0.876115
9813.000000;0.875310
9812.000000;0.873890
9811.000000;0.871990
9810.000000;0.869976
9809.000000;0.868130
9808.000000;0.866475
9807.000000;0.864801
9806.000000;0.862876
9805.000000;0.860734
9804.000000;0.858742
9803.000000;0.857222
9802.000000;0.856020
9801.000000;0.854664
9800.000000;0.852964
9799.000000;0.851236
9798.000000;0.849850
9797.000000;0.848761
9796.000000;0.847602
9795.000000;0.846105
9794.000000;0.844285
9793.000000;0.842368
9792.000000;0.840657
9791.000000;0.839324
9790.000000;0.838172
9789.000000;0.836748
9788.000000;0.834871
9787.000000;0.832908
9786.000000;0.831301
9785.000000;0.829919
9784.000000;0.828194
9783.000000;0.825888
9782.000000;0.823425
9781.000000;0.821343
9780.000000;0.819660
9779.000000;0.817960
9778.000000;0.815957
9777.000000;0.813772
9776.000000;0.811710
9775.000000;0.809935
9774.000000;0.808418
9773.000000;0.807079
9772.000000;0.805923
9771.000000;0.804991
9770.000000;0.804188
9769.000000;0.803231
9768.000000;0.801829
9767.000000;0.799947
9766.000000;0.797824
9765.000000;0.795728
9764.000000;0.793746
9763.000000;0.791839
9762.000000;0.790014
9761.000000;0.788370
9760.000000;0.786977
9759.000000;0.785772
9758.000000;0.784571
9757.000000;0.783184
9756.000000;0.781547
9755.000000;0.779737
9754.000000;0.777861
9753.000000;0.775962
9752.000000;0.774031
9751.000000;0.772057
9750.000000;0.769987
9749.000000;0.767752
9748.000000;0.765451
9747.000000;0.763442
9746.000000;0.762042
9745.000000;0.761100
9744.000000;0.760039
9743.000000;0.758397
9742.000000;0.756250
9741.000000;0.754014
9740.000000;0.752002
9739.000000;0.750283
9738.000000;0.748804
9737.000000;0.747465
9736.000000;0.746092
9735.000000;0.744532
9734.000000;0.742795
9733.000000;0.740973
9732.000000;0.739041
9731.000000;0.736853
9730.000000;0.734379
9729.000000;0.731814
9728.000000;0.729400
9727.000000;0.727250
9726.000000;0.725389
9725.000000;0.723839
9724.000000;0.722537
9723.000000;0.721216
9722.000000;0.719550
9721.000000;0.717464
9720.000000;0.715251
9719.000000;0.713280
9718.000000;0.711593
9717.000000;0.709843
9716.000000;0.707681
9715.000000;0.705182
9714.000000;0.702807
9713.000000;0.700938
9712.000000;0.699497
9711.000000;0.698066
9710.000000;0.696303
9709.000000;0.694194
9708.000000;0.691978
9707.000000;0.689919
9706.000000;0.688153
9705.000000;0.686605
9704.000000;0.685018
9703.000000;0.683135
9702.000000;0.680924
9701.000000;0.678597
9700.000000;0.676386
9699.000000;0.674367
9698.000000;0.672497
9697.000000;0.670737
9696.000000;0.669046
9695.000000;0.667298
9694.000000;0.665320
9693.000000;0.663065
9692.000000;0.660721
9691.000000;0.658578
9690.000000;0.656770
9689.000000;0.655156
9688.000000;0.653461
9687.000000;0.651533
9686.000000;0.649435
9685.000000;0.647298
9684.000000;0.645160
9683.000000;0.642987
9682.000000;0.640773
9681.000000;0.638554
9680.000000;0.636342
9679.000000;0.634138
9678.000000;0.631975
9677.000000;0.629892
9676.000000;0.627875
9675.000000;0.625887
9674.000000;0.623936
9673.000000;0.622037
9672.000000;0.620135
9671.000000;0.618158
9670.000000;0.616151
9669.000000;0.614234
9668.000000;0.612423
9667.000000;0.610618
9666.000000;0.608763
9665.000000;0.606856
9664.000000;0.604802
9663.000000;0.602447
9662.000000;0.599879
9661.000000;0.597482
9660.000000;0.595533
9659.000000;0.593871
9658.000000;0.592122
9657.000000;0.590118
9656.000000;0.587918
9655.000000;0.585549
9654.000000;0.583014
9653.000000;0.580492
9652.000000;0.578235
9651.000000;0.576240
9650.000000;0.574227
9649.000000;0.572028
9648.000000;0.569785
9647.000000;0.567709
9646.000000;0.565807
9645.000000;0.563952
9644.000000;0.562046
9643.000000;0.560023
9642.000000;0.557828
9641.000000;0.555531
9640.000000;0.553328
9639.000000;0.551298
9638.000000;0.549247
9637.000000;0.546935
9636.000000;0.544385
9635.000000;0.541846
9634.000000;0.539527
9633.000000;0.537474
9632.000000;0.535631
9631.000000;0.533858
9630.000000;0.531933
9629.000000;0.529719
9628.000000;0.527325
9627.000000;0.525000
9626.000000;0.522849
9625.000000;0.520757
9624.000000;0.518571
9623.000000;0.516237
9622.000000;0.513779
9621.000000;0.511252
9620.000000;0.508749
9619.000000;0.506323
9618.000000;0.503877
9617.000000;0.501269
9616.000000;0.498575
9615.000000;0.496114
9614.000000;0.494094
9613.000000;0.492326
9612.000000;0.490416
9611.000000;0.488180
9610.000000;0.485716
9609.000000;0.483098
9608.000000;0.480246
9607.000000;0.477207
9606.000000;0.474375
9605.000000;0.472191
9604.000000;0.470623
9603.000000;0.469129
9602.000000;0.467203
9601.000000;0.464843
9600.000000;0.462403
9599.000000;0.460130
9598.000000;0.457996
9597.000000;0.455879
9596.000000;0.453700
9595.000000;0.451389
9594.000000;0.448903
9593.000000;0.446339
9592.000000;0.443893
9591.000000;0.441633
9590.000000;0.439414
9589.000000;0.437058
9588.000000;0.434564
9587.000000;0.432105
9586.000000;0.429897
9585.000000;0.428060
9584.000000;0.426459
9583.000000;0.424656
9582.000000;0.422204
9581.000000;0.419119
9580.000000;0.415939
9579.000000;0.413197
9578.000000;0.410947
9577.000000;0.408867
9576.000000;0.406685
9575.000000;0.404331
9574.000000;0.401816
9573.000000;0.399198
9572.000000;0.396640
9571.000000;0.394298
9570.000000;0.392126
9569.000000;0.389931
9568.000000;0.387627
9567.000000;0.385294
9566.000000;0.383013
9565.000000;0.380788
9564.000000;0.378631
9563.000000;0.376564
9562.000000;0.374499
9561.000000;0.372301
9560.000000;0.369980
9559.000000;0.367676
9558.000000;0.365406
9557.000000;0.363019
9556.000000;0.360508
9555.000000;0.358166
9554.000000;0.356238
9553.000000;0.354523
9552.000000;0.352525
9551.000000;0.349998
9550.000000;0.347188
9549.000000;0.344478
9548.000000;0.341938
9547.000000;0.339337
9546.000000;0.336563
9545.000000;0.333874
9544.000000;0.331628
9543.000000;0.329827
9542.000000;0.328070
9541.000000;0.325999
9540.000000;0.323632
9539.000000;0.321148
9538.000000;0.318544
9537.000000;0.315763
9536.000000;0.313081
9535.000000;0.310991
9534.000000;0.309599
9533.000000;0.308383
9532.000000;0.306736
9531.000000;0.304590
9530.000000;0.302322
9529.000000;0.300201
9528.000000;0.298195
9527.000000;0.296230
9526.000000;0.294359
9525.000000;0.292606
9524.000000;0.290844
9523.000000;0.288924
9522.000000;0.286864
9521.000000;0.284795
9520.000000;0.282774
9519.000000;0.280698
9518.000000;0.278436
9517.000000;0.276030
9516.000000;0.273739
9515.000000;0.271792
9514.000000;0.270101
9513.000000;0.268314
9512.000000;0.266224
9511.000000;0.263994
9510.000000;0.261889
9509.000000;0.259919
9508.000000;0.257943
9507.000000;0.256023
9506.000000;0.254391
9505.000000;0.253029
9504.000000;0.251574
9503.000000;0.249767
9502.000000;0.247822
9501.000000;0.246138
9500.000000;0.244780
9499.000000;0.243458
9498.000000;0.241953
9497.000000;0.240348
9496.000000;0.238806
9495.000000;0.237317
9494.000000;0.235767
9493.000000;0.234152
9492.000000;0.232617
9491.000000;0.231338
9490.000000;0.230385
9489.000000;0.229652
9488.000000;0.228864
9487.000000;0.227716
9486.000000;0.226103
9485.000000;0.224227
9484.000000;0.222415
9483.000000;0.220854
9482.000000;0.219518
9481.000000;0.218289
9480.000000;0.217078
9479.000000;0.215857
9478.000000;0.214663
9477.000000;0.213559
9476.000000;0.212539
9475.000000;0.211479
9474.000000;0.210279
9473.000000;0.209043
9472.000000;0.208031
9471.000000;0.207384
9470.000000;0.206973
9469.000000;0.206534
9468.000000;0.205870
9467.000000;0.204896
9466.000000;0.203644
9465.000000;0.202316
9464.000000;0.201225
9463.000000;0.200545
9462.000000;0.200144
9461.000000;0.199768
9460.000000;0.199300
9459.000000;0.198770
9458.000000;0.198156
9457.000000;0.197398
9456.000000;0.196568
9455.000000;0.195885
9454.000000;0.195503
9453.000000;0.195385
9452.000000;0.195366
9451.000000;0.195252
9450.000000;0.194877
9449.000000;0.194247
9448.000000;0.193646
9447.000000;0.193427
9446.000000;0.193640
9445.000000;0.193995
9444.000000;0.194219
9443.000000;0.194254
9442.000000;0.194095
9441.000000;0.193688
9440.000000;0.193159
9439.000000;0.192894
9438.000000;0.193129
9437.000000;0.193595
9436.000000;0.193799
9435.000000;0.193592
9434.000000;0.193268
9433.000000;0.193158
9432.000000;0.193371
9431.000000;0.193880
9430.000000;0.194578
9429.000000;0.195207
9428.000000;0.195470
9427.000000;0.195357
9426.000000;0.195226
9425.000000;0.195451
9424.000000;0.196043
9423.000000;0.196670
9422.000000;0.197011
9421.000000;0.197049
9420.000000;0.197093
9419.000000;0.197518
9418.000000;0.198401
9417.000000;0.199440
9416.000000;0.200303
9415.000000;0.200986
9414.000000;0.201684
9413.000000;0.202374
9412.000000;0.202805
9411.000000;0.202951
9410.000000;0.203185
9409.000000;0.203827
9408.000000;0.204724
9407.000000;0.205496
9406.000000;0.206048
9405.000000;0.206629
9404.000000;0.207449
9403.000000;0.208487
9402.000000;0.209655
9401.000000;0.210932
9400.000000;0.212237
9399.000000;0.213353
9398.000000;0.214107
9397.000000;0.214545
9396.000000;0.214865
9395.000000;0.215214
9394.000000;0.215640
9393.000000;0.216169
9392.000000;0.216854
9391.000000;0.217737
9390.000000;0.218815
9389.000000;0.220030
9388.000000;0.221267
9387.000000;0.222376
9386.000000;0.223302
9385.000000;0.224200
9384.000000;0.225351
9383.000000;0.226880
9382.000000;0.228544
9381.000000;0.229890
9380.000000;0.230656
9379.000000;0.231009
9378.000000;0.231386
9377.000000;0.232157
9376.000000;0.233426
9375.000000;0.235043
9374.000000;0.236755
9373.000000;0.238365
9372.000000;0.239827
9371.000000;0.241162
9370.000000;0.242299
9369.000000;0.243111
9368.000000;0.243683
9367.000000;0.244398
9366.000000;0.245590
9365.000000;0.247152
9364.000000;0.248645
9363.000000;0.249804
9362.000000;0.250781
9361.000000;0.251852
9360.000000;0.253064
9359.000000;0.254260
9358.000000;0.255322
9357.000000;0.256261
9356.000000;0.257123
9355.000000;0.257944
9354.000000;0.258806
9353.000000;0.259849
9352.000000;0.261160
9351.000000;0.262666
9350.000000;0.264148
9349.000000;0.265393
9348.000000;0.266366
9347.000000;0.267240
9346.000000;0.268238
9345.000000;0.269471
9344.000000;0.270931
9343.000000;0.272531
9342.000000;0.274079
9341.000000;0.275302
9340.000000;0.276082
9339.000000;0.276683
9338.000000;0.277534
9337.000000;0.278745
9336.000000;0.279998
9335.000000;0.280986
9334.000000;0.281809
9333.000000;0.282796
9332.000000;0.284069
9331.000000;0.285463
9330.000000;0.286803
9329.000000;0.288081
9328.000000;0.289362
9327.000000;0.290655
9326.000000;0.291911
9325.000000;0.293080
9324.000000;0.294146
9323.000000;0.295162
9322.000000;0.296221
9321.000000;0.297345
9320.000000;0.298426
9319.000000;0.299361
9318.000000;0.300211
9317.000000;0.301146
9316.000000;0.302271
9315.000000;0.303601
9314.000000;0.305151
9313.000000;0.306885
9312.000000;0.308575
9311.000000;0.309898
9310.000000;0.310770
9309.000000;0.311481
9308.000000;0.312374
9307.000000;0.313488
9306.000000;0.314630
9305.000000;0.315704
9304.000000;0.316799
9303.000000;0.317969
9302.000000;0.319102
9301.000000;0.320105
9300.000000;0.321069
9299.000000;0.322136
9298.000000;0.323291
9297.000000;0.324424
9296.000000;0.325571
9295.000000;0.326916
9294.000000;0.328494
9293.000000;0.330029
9292.000000;0.331179
9291.000000;0.331898
9290.000000;0.332466
9289.000000;0.333184
9288.000000;0.334134
9287.000000;0.335200
9286.000000;0.336235
9285.000000;0.337186
9284.000000;0.338129
9283.000000;0.339201
9282.000000;0.340442
9281.000000;0.341728
9280.000000;0.342909
9279.000000;0.343986
9278.000000;0.345074
9277.000000;0.346163
9276.000000;0.347077
9275.000000;0.347713
9274.000000;0.348219
9273.000000;0.348838
9272.000000;0.349666
9271.000000;0.350629
9270.000000;0.351663
9269.000000;0.352785
9268.000000;0.354030
9267.000000;0.355388
9266.000000;0.356805
9265.000000;0.358149
9264.000000;0.359218
9263.000000;0.359916
9262.000000;0.360433
9261.000000;0.361139
9260.000000;0.362222
9259.000000;0.363496
9258.000000;0.364616
9257.000000;0.365433
9256.000000;0.366079
9255.000000;0.366743
9254.000000;0.367458
9253.000000;0.368118
9252.000000;0.368650
9251.000000;0.369136
9250.000000;0.369758
9249.000000;0.370633
9248.000000;0.371695
9247.000000;0.372761
9246.000000;0.373724
9245.000000;0.374654
9244.000000;0.375697
9243.000000;0.376877
9242.000000;0.378042
9241.000000;0.379019
9240.000000;0.379772
9239.000000;0.380414
9238.000000;0.381110
9237.000000;0.381994
9236.000000;0.383121
9235.000000;0.384402
9234.000000;0.385589
9233.000000;0.386445
9232.000000;0.386980
9231.000000;0.387481
9230.000000;0.388231
9229.000000;0.389255
9228.000000;0.390354
9227.000000;0.391349
9226.000000;0.392191
9225.000000;0.392894
9224.000000;0.393484
9223.000000;0.394037
9222.000000;0.394678
9221.000000;0.395480
9220.000000;0.396397
9219.000000;0.397314
9218.000000;0.398122
9217.000000;0.398773
9216.000000;0.399333
9215.000000;0.399967
9214.000000;0.400792
9213.000000;0.401700
9212.000000;0.402441
9211.000000;0.402932
9210.000000;0.403407
9209.000000;0.404160
9208.000000;0.405197
9207.000000;0.406243
9206.000000;0.407073
9205.000000;0.407744
9204.000000;0.408484
9203.000000;0.409427
9202.000000;0.410472
9201.000000;0.411348
9200.000000;0.411844
9199.000000;0.412012
9198.000000;0.412188
9197.000000;0.412726
9196.000000;0.413694
9195.000000;0.414823
9194.000000;0.415760
9193.000000;0.416353
9192.000000;0.416717
9191.000000;0.417092
9190.000000;0.417647
9189.000000;0.418368
9188.000000;0.419076
9187.000000;0.419589
9186.000000;0.419906
9185.000000;0.420221
9184.000000;0.420737
9183.000000;0.421463
9182.000000;0.422240
9181.000000;0.422950
9180.000000;0.423658
9179.000000;0.424501
9178.000000;0.425440
9177.000000;0.426214
9176.000000;0.426606
9175.000000;0.426756
9174.000000;0.427122
9173.000000;0.428054
9172.000000;0.429428
9171.000000;0.430743
9170.000000;0.431585
9169.000000;0.431947
9168.000000;0.432103
9167.000000;0.432277
9166.000000;0.432496
9165.000000;0.432713
9164.000000;0.432978
9163.000000;0.433432
9162.000000;0.434157
9161.000000;0.435056
9160.000000;0.435895
9159.000000;0.436489
9158.000000;0.436861
9157.000000;0.437235
9156.000000;0.437830
9155.000000;0.438653
9154.000000;0.439478
9153.000000;0.440059
9152.000000;0.440366
9151.000000;0.440621
9150.000000;0.441079
9149.000000;0.441775
9148.000000;0.442514
9147.000000;0.443109
9146.000000;0.443591
9145.000000;0.444160
9144.000000;0.444947
9143.000000;0.445855
9142.000000;0.446647
9141.000000;0.447136
9140.000000;0.447315
9139.000000;0.447341
9138.000000;0.447434
9137.000000;0.447768
9136.000000;0.448380
9135.000000;0.449148
9134.000000;0.449861
9133.000000;0.450355
9132.000000;0.450636
9131.000000;0.450878
9130.000000;0.451289
9129.000000;0.451929
9128.000000;0.452663
9127.000000;0.453288
9126.000000;0.453718
9125.000000;0.454030
9124.000000;0.454353
9123.000000;0.454755
9122.000000;0.455237
9121.000000;0.455748
9120.000000;0.456200
9119.000000;0.456498
9118.000000;0.456624
9117.000000;0.456685
9116.000000;0.456847
9115.000000;0.457217
9114.000000;0.457795
9113.000000;0.458476
9112.000000;0.459091
9111.000000;0.459498
9110.000000;0.459704
9109.000000;0.459893
9108.000000;0.460263
9107.000000;0.460826
9106.000000;0.461432
9105.000000;0.461963
9104.000000;0.462448
9103.000000;0.462954
9102.000000;0.463447
9101.000000;0.463818
9100.000000;0.464036
9099.000000;0.464218
9098.000000;0.464544
9097.000000;0.465101
9096.000000;0.465794
9095.000000;0.466418
9094.000000;0.466837
9093.000000;0.467107
9092.000000;0.467390
9091.000000;0.467760
9090.000000;0.468137
9089.000000;0.468418
9088.000000;0.468623
9087.000000;0.468851
9086.000000;0.469151
9085.000000;0.469495
9084.000000;0.469854
9083.000000;0.470237
9082.000000;0.470651
9081.000000;0.471079
9080.000000;0.471490
9079.000000;0.471851
9078.000000;0.472138
9077.000000;0.472375
9076.000000;0.472636
9075.000000;0.472961
9074.000000;0.473303
9073.000000;0.473609
9072.000000;0.473928
9071.000000;0.474361
9070.000000;0.474911
9069.000000;0.475467
9068.000000;0.475927
9067.000000;0.476253
9066.000000;0.476404
9065.000000;0.476361
9064.000000;0.476251
9063.000000;0.476332
9062.000000;0.476753
9061.000000;0.477390
9060.000000;0.477993
9059.000000;0.478428
9058.000000;0.478696
9057.000000;0.478788
9056.000000;0.478669
9055.000000;0.478400
9054.000000;0.478153
9053.000000;0.478077
