Criado como novo conjunto de dados;"0307_DANIEL.spp","21063.1 Secs"
cm-1;Abs
10000.000000;0.999319
9999.000000;0.997890
9998.000000;0.996157
9997.000000;0.994855
9996.000000;0.994321
9995.000000;0.993978
9994.000000;0.993008
9993.000000;0.991296
9992.000000;0.989455
9991.000000;0.988089
9990.000000;0.987263
9989.000000;0.986641
9988.000000;0.985862
9987.000000;0.984786
9986.000000;0.983492
9985.000000;0.982082
9984.000000;0.980519
9983.000000;0.978757
9982.000000;0.977021
9981.000000;0.975738
9980.000000;0.975052
9979.000000;0.974589
9978.000000;0.973834
9977.000000;0.972632
9976.000000;0.971169
9975.000000;0.969632
9974.000000;0.968114
9973.000000;0.966721
9972.000000;0.965520
9971.000000;0.964424
9970.000000;0.963313
9969.000000;0.962208
9968.000000;0.961125
9967.000000;0.959828
9966.000000;0.958031
9965.000000;0.955853
9964.000000;0.953850
9963.000000;0.952495
9962.000000;0.951791
9961.000000;0.951435
9960.000000;0.951165
9959.000000;0.950830
9958.000000;0.950274
9957.000000;0.949312
9956.000000;0.947853
9955.000000;0.946017
9954.000000;0.944111
9953.000000;0.942425
9952.000000;0.940958
9951.000000;0.939440
9950.000000;0.937760
9949.000000;0.936280
9948.000000;0.935450
9947.000000;0.935119
9946.000000;0.934512
9945.000000;0.933052
9944.000000;0.931003
9943.000000;0.929120
9942.000000;0.927820
9941.000000;0.926924
9940.000000;0.926097
9939.000000;0.925254
9938.000000;0.924479
9937.000000;0.923746
9936.000000;0.922821
9935.000000;0.921438
9934.000000;0.919550
9933.000000;0.917468
9932.000000;0.915689
9931.000000;0.914459
9930.000000;0.913517
9929.000000;0.912393
9928.000000;0.910985
9927.000000;0.909672
9926.000000;0.908770
9925.000000;0.908054
9924.000000;0.906984
9923.000000;0.905337
9922.000000;0.903437
9921.000000;0.901729
9920.000000;0.900325
9919.000000;0.899035
9918.000000;0.897703
9917.000000;0.896403
9916.000000;0.895317
9915.000000;0.894521
9914.000000;0.893869
9913.000000;0.893045
9912.000000;0.891784
9911.000000;0.890118
9910.000000;0.888385
9909.000000;0.886924
9908.000000;0.885745
9907.000000;0.884560
9906.000000;0.883117
9905.000000;0.881421
9904.000000;0.879659
9903.000000;0.878021
9902.000000;0.876639
9901.000000;0.875564
9900.000000;0.874717
9899.000000;0.873905
9898.000000;0.872960
9897.000000;0.871833
9896.000000;0.870510
9895.000000;0.868923
9894.000000;0.867037
9893.000000;0.865012
9892.000000;0.863152
9891.000000;0.861660
9890.000000;0.860493
9889.000000;0.859448
9888.000000;0.858333
9887.000000;0.857046
9886.000000;0.855588
9885.000000;0.854058
9884.000000;0.852583
9883.000000;0.851207
9882.000000;0.849884
9881.000000;0.848598
9880.000000;0.847392
9879.000000;0.846246
9878.000000;0.845009
9877.000000;0.843578
9876.000000;0.842067
9875.000000;0.840646
9874.000000;0.839234
9873.000000;0.837550
9872.000000;0.835540
9871.000000;0.833584
9870.000000;0.832112
9869.000000;0.831107
9868.000000;0.830132
9867.000000;0.828849
9866.000000;0.827351
9865.000000;0.825964
9864.000000;0.824837
9863.000000;0.823797
9862.000000;0.822530
9861.000000;0.820877
9860.000000;0.818959
9859.000000;0.817046
9858.000000;0.815302
9857.000000;0.813718
9856.000000;0.812281
9855.000000;0.811101
9854.000000;0.810210
9853.000000;0.809339
9852.000000;0.808093
9851.000000;0.806378
9850.000000;0.804471
9849.000000;0.802632
9848.000000;0.800859
9847.000000;0.799117
9846.000000;0.797558
9845.000000;0.796293
9844.000000;0.795125
9843.000000;0.793754
9842.000000;0.792195
9841.000000;0.790729
9840.000000;0.789451
9839.000000;0.788127
9838.000000;0.786563
9837.000000;0.784937
9836.000000;0.783591
9835.000000;0.782588
9834.000000;0.781593
9833.000000;0.780215
9832.000000;0.778430
9831.000000;0.776634
9830.000000;0.775245
9829.000000;0.774250
9828.000000;0.773213
9827.000000;0.771759
9826.000000;0.769959
9825.000000;0.768138
9824.000000;0.766436
9823.000000;0.764722
9822.000000;0.762882
9821.000000;0.760960
9820.000000;0.759017
9819.000000;0.757062
9818.000000;0.755161
9817.000000;0.753429
9816.000000;0.751842
9815.000000;0.750250
9814.000000;0.748653
9813.000000;0.747265
9812.000000;0.746194
9811.000000;0.745263
9810.000000;0.744263
9809.000000;0.743216
9808.000000;0.742167
9807.000000;0.740901
9806.000000;0.739154
9805.000000;0.737078
9804.000000;0.735208
9803.000000;0.733904
9802.000000;0.733005
9801.000000;0.732062
9800.000000;0.730728
9799.000000;0.728902
9798.000000;0.726735
9797.000000;0.724588
9796.000000;0.722815
9795.000000;0.721421
9794.000000;0.720034
9793.000000;0.718345
9792.000000;0.716463
9791.000000;0.714694
9790.000000;0.713075
9789.000000;0.711348
9788.000000;0.709363
9787.000000;0.707314
9786.000000;0.705488
9785.000000;0.703965
9784.000000;0.702632
9783.000000;0.701382
9782.000000;0.700178
9781.000000;0.698971
9780.000000;0.697661
9779.000000;0.696128
9778.000000;0.694283
9777.000000;0.692145
9776.000000;0.689911
9775.000000;0.687902
9774.000000;0.686297
9773.000000;0.684926
9772.000000;0.683401
9771.000000;0.681474
9770.000000;0.679233
9769.000000;0.676980
9768.000000;0.674995
9767.000000;0.673379
9766.000000;0.672011
9765.000000;0.670631
9764.000000;0.669062
9763.000000;0.667396
9762.000000;0.665898
9761.000000;0.664682
9760.000000;0.663556
9759.000000;0.662221
9758.000000;0.660539
9757.000000;0.658550
9756.000000;0.656316
9755.000000;0.653914
9754.000000;0.651555
9753.000000;0.649552
9752.000000;0.648047
9751.000000;0.646807
9750.000000;0.645377
9749.000000;0.643476
9748.000000;0.641240
9747.000000;0.639034
9746.000000;0.637067
9745.000000;0.635265
9744.000000;0.633506
9743.000000;0.631846
9742.000000;0.630367
9741.000000;0.628915
9740.000000;0.627175
9739.000000;0.625077
9738.000000;0.622954
9737.000000;0.621192
9736.000000;0.619811
9735.000000;0.618465
9734.000000;0.616809
9733.000000;0.614767
9732.000000;0.612515
9731.000000;0.610307
9730.000000;0.608323
9729.000000;0.606586
9728.000000;0.604996
9727.000000;0.603455
9726.000000;0.601919
9725.000000;0.600321
9724.000000;0.598563
9723.000000;0.596631
9722.000000;0.594653
9721.000000;0.592735
9720.000000;0.590812
9719.000000;0.588784
9718.000000;0.586731
9717.000000;0.584848
9716.000000;0.583149
9715.000000;0.581407
9714.000000;0.579442
9713.000000;0.577344
9712.000000;0.575339
9711.000000;0.573494
9710.000000;0.571662
9709.000000;0.569716
9708.000000;0.567726
9707.000000;0.565863
9706.000000;0.564157
9705.000000;0.562435
9704.000000;0.560562
9703.000000;0.558669
9702.000000;0.557007
9701.000000;0.555581
9700.000000;0.554051
9699.000000;0.552101
9698.000000;0.549780
9697.000000;0.547406
9696.000000;0.545200
9695.000000;0.543166
9694.000000;0.541243
9693.000000;0.539416
9692.000000;0.537621
9691.000000;0.535700
9690.000000;0.533535
9689.000000;0.531187
9688.000000;0.528850
9687.000000;0.526690
9686.000000;0.524742
9685.000000;0.522941
9684.000000;0.521216
9683.000000;0.519537
9682.000000;0.517877
9681.000000;0.516152
9680.000000;0.514269
9679.000000;0.512222
9678.000000;0.510091
9677.000000;0.507908
9676.000000;0.505630
9675.000000;0.503259
9674.000000;0.500905
9673.000000;0.498672
9672.000000;0.496558
9671.000000;0.494549
9670.000000;0.492704
9669.000000;0.491046
9668.000000;0.489436
9667.000000;0.487676
9666.000000;0.485704
9665.000000;0.483614
9664.000000;0.481497
9663.000000;0.479374
9662.000000;0.477224
9661.000000;0.474999
9660.000000;0.472658
9659.000000;0.470282
9658.000000;0.468089
9657.000000;0.466208
9656.000000;0.464484
9655.000000;0.462607
9654.000000;0.460436
9653.000000;0.458078
9652.000000;0.455687
9651.000000;0.453350
9650.000000;0.451144
9649.000000;0.449141
9648.000000;0.447300
9647.000000;0.445469
9646.000000;0.443507
9645.000000;0.441377
9644.000000;0.439117
9643.000000;0.436831
9642.000000;0.434670
9641.000000;0.432697
9640.000000;0.430765
9639.000000;0.428642
9638.000000;0.426252
9637.000000;0.423703
9636.000000;0.421110
9635.000000;0.418539
9634.000000;0.416090
9633.000000;0.413862
9632.000000;0.411784
9631.000000;0.409623
9630.000000;0.407223
9629.000000;0.404662
9628.000000;0.402146
9627.000000;0.399848
9626.000000;0.397832
9625.000000;0.396013
9624.000000;0.394169
9623.000000;0.392154
9622.000000;0.390098
9621.000000;0.388250
9620.000000;0.386593
9619.000000;0.384805
9618.000000;0.382670
9617.000000;0.380361
9616.000000;0.378176
9615.000000;0.376136
9614.000000;0.373988
9613.000000;0.371525
9612.000000;0.368805
9611.000000;0.366074
9610.000000;0.363575
9609.000000;0.361369
9608.000000;0.359291
9607.000000;0.357107
9606.000000;0.354757
9605.000000;0.352347
9604.000000;0.349916
9603.000000;0.347350
9602.000000;0.344611
9601.000000;0.341907
9600.000000;0.339501
9599.000000;0.337420
9598.000000;0.335462
9597.000000;0.333432
9596.000000;0.331280
9595.000000;0.329042
9594.000000;0.326743
9593.000000;0.324358
9592.000000;0.321809
9591.000000;0.319060
9590.000000;0.316259
9589.000000;0.313711
9588.000000;0.311606
9587.000000;0.309835
9586.000000;0.308102
9585.000000;0.306198
9584.000000;0.304091
9583.000000;0.301844
9582.000000;0.299527
9581.000000;0.297182
9580.000000;0.294781
9579.000000;0.292261
9578.000000;0.289644
9577.000000;0.287079
9576.000000;0.284679
9575.000000;0.282371
9574.000000;0.279986
9573.000000;0.277448
9572.000000;0.274814
9571.000000;0.272199
9570.000000;0.269742
9569.000000;0.267567
9568.000000;0.265644
9567.000000;0.263706
9566.000000;0.261451
9565.000000;0.258854
9564.000000;0.256227
9563.000000;0.253933
9562.000000;0.252093
9561.000000;0.250502
9560.000000;0.248775
9559.000000;0.246586
9558.000000;0.243908
9557.000000;0.241041
9556.000000;0.238359
9555.000000;0.236010
9554.000000;0.233892
9553.000000;0.231819
9552.000000;0.229649
9551.000000;0.227271
9550.000000;0.224639
9549.000000;0.221870
9548.000000;0.219223
9547.000000;0.216896
9546.000000;0.214890
9545.000000;0.213090
9544.000000;0.211411
9543.000000;0.209802
9542.000000;0.208149
9541.000000;0.206270
9540.000000;0.204050
9539.000000;0.201554
9538.000000;0.198975
9537.000000;0.196477
9536.000000;0.194103
9535.000000;0.191836
9534.000000;0.189684
9533.000000;0.187633
9532.000000;0.185547
9531.000000;0.183225
9530.000000;0.180636
9529.000000;0.178032
9528.000000;0.175733
9527.000000;0.173815
9526.000000;0.172089
9525.000000;0.170331
9524.000000;0.168445
9523.000000;0.166393
9522.000000;0.164143
9521.000000;0.161763
9520.000000;0.159484
9519.000000;0.157492
9518.000000;0.155694
9517.000000;0.153822
9516.000000;0.151810
9515.000000;0.149920
9514.000000;0.148416
9513.000000;0.147193
9512.000000;0.145880
9511.000000;0.144234
9510.000000;0.142303
9509.000000;0.140205
9508.000000;0.137960
9507.000000;0.135610
9506.000000;0.133337
9505.000000;0.131299
9504.000000;0.129439
9503.000000;0.127619
9502.000000;0.125879
9501.000000;0.124395
9500.000000;0.123165
9499.000000;0.121906
9498.000000;0.120361
9497.000000;0.118609
9496.000000;0.116963
9495.000000;0.115591
9494.000000;0.114344
9493.000000;0.112944
9492.000000;0.111316
9491.000000;0.109666
9490.000000;0.108258
9489.000000;0.107168
9488.000000;0.106282
9487.000000;0.105479
9486.000000;0.104684
9485.000000;0.103743
9484.000000;0.102432
9483.000000;0.100699
9482.000000;0.098809
9481.000000;0.097123
9480.000000;0.095755
9479.000000;0.094561
9478.000000;0.093397
9477.000000;0.092270
9476.000000;0.091245
9475.000000;0.090348
9474.000000;0.089558
9473.000000;0.088807
9472.000000;0.087992
9471.000000;0.087083
9470.000000;0.086181
9469.000000;0.085363
9468.000000;0.084509
9467.000000;0.083438
9466.000000;0.082206
9465.000000;0.081092
9464.000000;0.080259
9463.000000;0.079599
9462.000000;0.078962
9461.000000;0.078363
9460.000000;0.077855
9459.000000;0.077372
9458.000000;0.076824
9457.000000;0.076255
9456.000000;0.075768
9455.000000;0.075363
9454.000000;0.074985
9453.000000;0.074666
9452.000000;0.074503
9451.000000;0.074490
9450.000000;0.074488
9449.000000;0.074371
9448.000000;0.074131
9447.000000;0.073843
9446.000000;0.073588
9445.000000;0.073397
9444.000000;0.073235
9443.000000;0.073031
9442.000000;0.072775
9441.000000;0.072600
9440.000000;0.072705
9439.000000;0.073159
9438.000000;0.073768
9437.000000;0.074180
9436.000000;0.074181
9435.000000;0.073904
9434.000000;0.073694
9433.000000;0.073749
9432.000000;0.073950
9431.000000;0.074073
9430.000000;0.074090
9429.000000;0.074164
9428.000000;0.074394
9427.000000;0.074720
9426.000000;0.075082
9425.000000;0.075554
9424.000000;0.076234
9423.000000;0.077077
9422.000000;0.077886
9421.000000;0.078472
9420.000000;0.078810
9419.000000;0.079072
9418.000000;0.079496
9417.000000;0.080162
9416.000000;0.080894
9415.000000;0.081414
9414.000000;0.081587
9413.000000;0.081509
9412.000000;0.081409
9411.000000;0.081532
9410.000000;0.082021
9409.000000;0.082831
9408.000000;0.083751
9407.000000;0.084623
9406.000000;0.085488
9405.000000;0.086456
9404.000000;0.087482
9403.000000;0.088441
9402.000000;0.089363
9401.000000;0.090418
9400.000000;0.091652
9399.000000;0.092894
9398.000000;0.093968
9397.000000;0.094845
9396.000000;0.095561
9395.000000;0.096131
9394.000000;0.096625
9393.000000;0.097188
9392.000000;0.097918
9391.000000;0.098822
9390.000000;0.099904
9389.000000;0.101183
9388.000000;0.102543
9387.000000;0.103739
9386.000000;0.104636
9385.000000;0.105367
9384.000000;0.106159
9383.000000;0.107099
9382.000000;0.108163
9381.000000;0.109340
9380.000000;0.110615
9379.000000;0.111888
9378.000000;0.113026
9377.000000;0.113994
9376.000000;0.114888
9375.000000;0.115891
9374.000000;0.117168
9373.000000;0.118698
9372.000000;0.120164
9371.000000;0.121163
9370.000000;0.121619
9369.000000;0.121905
9368.000000;0.122484
9367.000000;0.123519
9366.000000;0.124881
9365.000000;0.126377
9364.000000;0.127834
9363.000000;0.129072
9362.000000;0.129998
9361.000000;0.130719
9360.000000;0.131455
9359.000000;0.132367
9358.000000;0.133531
9357.000000;0.134986
9356.000000;0.136661
9355.000000;0.138315
9354.000000;0.139693
9353.000000;0.140756
9352.000000;0.141676
9351.000000;0.142634
9350.000000;0.143705
9349.000000;0.144884
9348.000000;0.146128
9347.000000;0.147365
9346.000000;0.148572
9345.000000;0.149802
9344.000000;0.151082
9343.000000;0.152328
9342.000000;0.153475
9341.000000;0.154622
9340.000000;0.155922
9339.000000;0.157353
9338.000000;0.158746
9337.000000;0.160021
9336.000000;0.161250
9335.000000;0.162463
9334.000000;0.163568
9333.000000;0.164522
9332.000000;0.165444
9331.000000;0.166475
9330.000000;0.167613
9329.000000;0.168748
9328.000000;0.169791
9327.000000;0.170710
9326.000000;0.171543
9325.000000;0.172434
9324.000000;0.173572
9323.000000;0.174989
9322.000000;0.176450
9321.000000;0.177651
9320.000000;0.178529
9319.000000;0.179333
9318.000000;0.180384
9317.000000;0.181824
9316.000000;0.183537
9315.000000;0.185242
9314.000000;0.186658
9313.000000;0.187669
9312.000000;0.188394
9311.000000;0.189092
9310.000000;0.189995
9309.000000;0.191207
9308.000000;0.192686
9307.000000;0.194243
9306.000000;0.195583
9305.000000;0.196495
9304.000000;0.197092
9303.000000;0.197777
9302.000000;0.198875
9301.000000;0.200319
9300.000000;0.201788
9299.000000;0.203102
9298.000000;0.204356
9297.000000;0.205647
9296.000000;0.206857
9295.000000;0.207822
9294.000000;0.208622
9293.000000;0.209536
9292.000000;0.210713
9291.000000;0.212028
9290.000000;0.213262
9289.000000;0.214327
9288.000000;0.215272
9287.000000;0.216163
9286.000000;0.217034
9285.000000;0.217914
9284.000000;0.218826
9283.000000;0.219776
9282.000000;0.220759
9281.000000;0.221771
9280.000000;0.222802
9279.000000;0.223851
9278.000000;0.224947
9277.000000;0.226143
9276.000000;0.227452
9275.000000;0.228807
9274.000000;0.230085
9273.000000;0.231189
9272.000000;0.232125
9271.000000;0.233024
9270.000000;0.234039
9269.000000;0.235178
9268.000000;0.236273
9267.000000;0.237184
9266.000000;0.237979
9265.000000;0.238825
9264.000000;0.239748
9263.000000;0.240628
9262.000000;0.241434
9261.000000;0.242297
9260.000000;0.243322
9259.000000;0.244424
9258.000000;0.245439
9257.000000;0.246315
9256.000000;0.247117
9255.000000;0.247940
9254.000000;0.248841
9253.000000;0.249821
9252.000000;0.250795
9251.000000;0.251656
9250.000000;0.252426
9249.000000;0.253273
9248.000000;0.254330
9247.000000;0.255531
9246.000000;0.256672
9245.000000;0.257590
9244.000000;0.258251
9243.000000;0.258777
9242.000000;0.259415
9241.000000;0.260389
9240.000000;0.261669
9239.000000;0.262967
9238.000000;0.264034
9237.000000;0.264911
9236.000000;0.265774
9235.000000;0.266658
9234.000000;0.267448
9233.000000;0.268090
9232.000000;0.268667
9231.000000;0.269287
9230.000000;0.270001
9229.000000;0.270829
9228.000000;0.271722
9227.000000;0.272548
9226.000000;0.273234
9225.000000;0.273915
9224.000000;0.274812
9223.000000;0.275940
9222.000000;0.277056
9221.000000;0.277922
9220.000000;0.278513
9219.000000;0.278961
9218.000000;0.279422
9217.000000;0.280040
9216.000000;0.280881
9215.000000;0.281829
9214.000000;0.282654
9213.000000;0.283266
9212.000000;0.283828
9211.000000;0.284544
9210.000000;0.285410
9209.000000;0.286240
9208.000000;0.286893
9207.000000;0.287401
9206.000000;0.287923
9205.000000;0.288631
9204.000000;0.289592
9203.000000;0.290681
9202.000000;0.291648
9201.000000;0.292339
9200.000000;0.292837
9199.000000;0.293336
9198.000000;0.293924
9197.000000;0.294544
9196.000000;0.295135
9195.000000;0.295722
9194.000000;0.296361
9193.000000;0.297056
9192.000000;0.297764
9191.000000;0.298449
9190.000000;0.299130
9189.000000;0.299864
9188.000000;0.300679
9187.000000;0.301511
9186.000000;0.302245
9185.000000;0.302837
9184.000000;0.303351
9183.000000;0.303873
9182.000000;0.304429
9181.000000;0.305014
9180.000000;0.305637
9179.000000;0.306298
9178.000000;0.306974
9177.000000;0.307673
9176.000000;0.308444
9175.000000;0.309281
9174.000000;0.310086
9173.000000;0.310808
9172.000000;0.311542
9171.000000;0.312387
9170.000000;0.313263
9169.000000;0.314005
9168.000000;0.314598
9167.000000;0.315160
9166.000000;0.315705
9165.000000;0.316123
9164.000000;0.316422
9163.000000;0.316805
9162.000000;0.317394
9161.000000;0.318035
9160.000000;0.318539
9159.000000;0.318977
9158.000000;0.319574
9157.000000;0.320338
9156.000000;0.321025
9155.000000;0.321466
9154.000000;0.321783
9153.000000;0.322208
9152.000000;0.322818
9151.000000;0.323520
9150.000000;0.324210
9149.000000;0.324861
9148.000000;0.325472
9147.000000;0.326013
9146.000000;0.326433
9145.000000;0.326723
9144.000000;0.326962
9143.000000;0.327292
9142.000000;0.327786
9141.000000;0.328354
9140.000000;0.328855
9139.000000;0.329293
9138.000000;0.329831
9137.000000;0.330578
9136.000000;0.331418
9135.000000;0.332113
9134.000000;0.332534
9133.000000;0.332741
9132.000000;0.332876
9131.000000;0.333042
9130.000000;0.333268
9129.000000;0.333550
9128.000000;0.333901
9127.000000;0.334381
9126.000000;0.335065
9125.000000;0.335951
9124.000000;0.336929
9123.000000;0.337833
9122.000000;0.338542
9121.000000;0.339030
9120.000000;0.339370
9119.000000;0.339670
9118.000000;0.339985
9117.000000;0.340269
9116.000000;0.340476
9115.000000;0.340685
9114.000000;0.341066
9113.000000;0.341677
9112.000000;0.342379
9111.000000;0.342988
9110.000000;0.343452
9109.000000;0.343850
9108.000000;0.344271
9107.000000;0.344768
9106.000000;0.345364
9105.000000;0.346025
9104.000000;0.346615
9103.000000;0.346986
9102.000000;0.347099
9101.000000;0.347048
9100.000000;0.346990
9099.000000;0.347081
9098.000000;0.347426
9097.000000;0.347989
9096.000000;0.348569
9095.000000;0.348957
9094.000000;0.349137
9093.000000;0.349291
9092.000000;0.349603
9091.000000;0.350125
9090.000000;0.350797
9089.000000;0.351514
9088.000000;0.352146
9087.000000;0.352565
9086.000000;0.352730
9085.000000;0.352742
9084.000000;0.352808
9083.000000;0.353118
9082.000000;0.353718
9081.000000;0.354446
9080.000000;0.355012
9079.000000;0.355237
9078.000000;0.355215
9077.000000;0.355216
9076.000000;0.355437
9075.000000;0.355854
9074.000000;0.356300
9073.000000;0.356602
9072.000000;0.356681
9071.000000;0.356596
9070.000000;0.356530
9069.000000;0.356659
9068.000000;0.357027
9067.000000;0.357551
9066.000000;0.358143
9065.000000;0.358729
9064.000000;0.359209
9063.000000;0.359498
9062.000000;0.359629
9061.000000;0.359740
9060.000000;0.359932
9059.000000;0.360223
9058.000000;0.360626
9057.000000;0.361142
9056.000000;0.361646
9055.000000;0.361934
9054.000000;0.361962
9053.000000;0.361943
