Criado como novo conjunto de dados;"0307_DANIEL.spp","8642.5 Secs"
cm-1;Abs
10000.000000;0.457269
9999.000000;0.456066
9998.000000;0.454866
9997.000000;0.453670
9996.000000;0.452477
9995.000000;0.451287
9994.000000;0.450100
9993.000000;0.448918
9992.000000;0.447737
9991.000000;0.446561
9990.000000;0.445384
9989.000000;0.444235
9988.000000;0.443126
9987.000000;0.441964
9986.000000;0.440739
9985.000000;0.439593
9984.000000;0.438599
9983.000000;0.437621
9982.000000;0.436505
9981.000000;0.435284
9980.000000;0.434117
9979.000000;0.433067
9978.000000;0.432055
9977.000000;0.430984
9976.000000;0.429849
9975.000000;0.428711
9974.000000;0.427620
9973.000000;0.426557
9972.000000;0.425459
9971.000000;0.424318
9970.000000;0.423202
9969.000000;0.422142
9968.000000;0.421031
9967.000000;0.419743
9966.000000;0.418326
9965.000000;0.416959
9964.000000;0.415728
9963.000000;0.414577
9962.000000;0.413469
9961.000000;0.412455
9960.000000;0.411539
9959.000000;0.410591
9958.000000;0.409504
9957.000000;0.408315
9956.000000;0.407111
9955.000000;0.405885
9954.000000;0.404583
9953.000000;0.403249
9952.000000;0.402013
9951.000000;0.400951
9950.000000;0.399991
9949.000000;0.398963
9948.000000;0.397734
9947.000000;0.396334
9946.000000;0.394954
9945.000000;0.393780
9944.000000;0.392807
9943.000000;0.391865
9942.000000;0.390813
9941.000000;0.389650
9940.000000;0.388444
9939.000000;0.387238
9938.000000;0.386059
9937.000000;0.384932
9936.000000;0.383842
9935.000000;0.382742
9934.000000;0.381609
9933.000000;0.380454
9932.000000;0.379242
9931.000000;0.377882
9930.000000;0.376353
9929.000000;0.374817
9928.000000;0.373524
9927.000000;0.372575
9926.000000;0.371766
9925.000000;0.370727
9924.000000;0.369266
9923.000000;0.367577
9922.000000;0.366049
9921.000000;0.364868
9920.000000;0.363878
9919.000000;0.362862
9918.000000;0.361787
9917.000000;0.360709
9916.000000;0.359577
9915.000000;0.358316
9914.000000;0.357015
9913.000000;0.355830
9912.000000;0.354724
9911.000000;0.353501
9910.000000;0.352092
9909.000000;0.350645
9908.000000;0.349293
9907.000000;0.348020
9906.000000;0.346780
9905.000000;0.345613
9904.000000;0.344532
9903.000000;0.343445
9902.000000;0.342267
9901.000000;0.341035
9900.000000;0.339826
9899.000000;0.338622
9898.000000;0.337333
9897.000000;0.335909
9896.000000;0.334399
9895.000000;0.332921
9894.000000;0.331600
9893.000000;0.330471
9892.000000;0.329418
9891.000000;0.328254
9890.000000;0.326906
9889.000000;0.325470
9888.000000;0.324078
9887.000000;0.322758
9886.000000;0.321450
9885.000000;0.320106
9884.000000;0.318766
9883.000000;0.317515
9882.000000;0.316386
9881.000000;0.315274
9880.000000;0.314015
9879.000000;0.312590
9878.000000;0.311180
9877.000000;0.309962
9876.000000;0.308899
9875.000000;0.307812
9874.000000;0.306588
9873.000000;0.305230
9872.000000;0.303744
9871.000000;0.302158
9870.000000;0.300597
9869.000000;0.299206
9868.000000;0.297959
9867.000000;0.296686
9866.000000;0.295300
9865.000000;0.293896
9864.000000;0.292574
9863.000000;0.291284
9862.000000;0.289918
9861.000000;0.288463
9860.000000;0.287003
9859.000000;0.285615
9858.000000;0.284292
9857.000000;0.282963
9856.000000;0.281571
9855.000000;0.280167
9854.000000;0.278879
9853.000000;0.277746
9852.000000;0.276617
9851.000000;0.275302
9850.000000;0.273806
9849.000000;0.272322
9848.000000;0.271000
9847.000000;0.269808
9846.000000;0.268612
9845.000000;0.267309
9844.000000;0.265873
9843.000000;0.264353
9842.000000;0.262838
9841.000000;0.261379
9840.000000;0.259947
9839.000000;0.258509
9838.000000;0.257097
9837.000000;0.255740
9836.000000;0.254381
9835.000000;0.252953
9834.000000;0.251484
9833.000000;0.250035
9832.000000;0.248567
9831.000000;0.246992
9830.000000;0.245338
9829.000000;0.243741
9828.000000;0.242272
9827.000000;0.240880
9826.000000;0.239479
9825.000000;0.238011
9824.000000;0.236448
9823.000000;0.234845
9822.000000;0.233356
9821.000000;0.232066
9820.000000;0.230832
9819.000000;0.229441
9818.000000;0.227890
9817.000000;0.226364
9816.000000;0.224961
9815.000000;0.223627
9814.000000;0.222352
9813.000000;0.221218
9812.000000;0.220173
9811.000000;0.218961
9810.000000;0.217381
9809.000000;0.215521
9808.000000;0.213620
9807.000000;0.211822
9806.000000;0.210145
9805.000000;0.208603
9804.000000;0.207233
9803.000000;0.206020
9802.000000;0.204866
9801.000000;0.203626
9800.000000;0.202160
9799.000000;0.200428
9798.000000;0.198565
9797.000000;0.196803
9796.000000;0.195273
9795.000000;0.193907
9794.000000;0.192555
9793.000000;0.191131
9792.000000;0.189636
9791.000000;0.188099
9790.000000;0.186538
9789.000000;0.184943
9788.000000;0.183263
9787.000000;0.181474
9786.000000;0.179652
9785.000000;0.177954
9784.000000;0.176488
9783.000000;0.175216
9782.000000;0.173971
9781.000000;0.172560
9780.000000;0.170899
9779.000000;0.169095
9778.000000;0.167376
9777.000000;0.165856
9776.000000;0.164417
9775.000000;0.162868
9774.000000;0.161181
9773.000000;0.159492
9772.000000;0.157912
9771.000000;0.156421
9770.000000;0.154936
9769.000000;0.153376
9768.000000;0.151683
9767.000000;0.149875
9766.000000;0.148063
9765.000000;0.146350
9764.000000;0.144731
9763.000000;0.143153
9762.000000;0.141618
9761.000000;0.140123
9760.000000;0.138568
9759.000000;0.136872
9758.000000;0.135129
9757.000000;0.133543
9756.000000;0.132186
9755.000000;0.130929
9754.000000;0.129582
9753.000000;0.128007
9752.000000;0.126144
9751.000000;0.124072
9750.000000;0.122024
9749.000000;0.120196
9748.000000;0.118545
9747.000000;0.116886
9746.000000;0.115164
9745.000000;0.113474
9744.000000;0.111835
9743.000000;0.110141
9742.000000;0.108372
9741.000000;0.106661
9740.000000;0.105097
9739.000000;0.103579
9738.000000;0.101954
9737.000000;0.100189
9736.000000;0.098345
9735.000000;0.096492
9734.000000;0.094683
9733.000000;0.092944
9732.000000;0.091235
9731.000000;0.089495
9730.000000;0.087706
9729.000000;0.085879
9728.000000;0.083988
9727.000000;0.082052
9726.000000;0.080221
9725.000000;0.078627
9724.000000;0.077159
9723.000000;0.075551
9722.000000;0.073718
9721.000000;0.071843
9720.000000;0.070088
9719.000000;0.068394
9718.000000;0.066626
9717.000000;0.064753
9716.000000;0.062827
9715.000000;0.060896
9714.000000;0.059031
9713.000000;0.057302
9712.000000;0.055660
9711.000000;0.053967
9710.000000;0.052171
9709.000000;0.050364
9708.000000;0.048601
9707.000000;0.046810
9706.000000;0.044934
9705.000000;0.043032
9704.000000;0.041153
9703.000000;0.039240
9702.000000;0.037256
9701.000000;0.035286
9700.000000;0.033425
9699.000000;0.031662
9698.000000;0.029946
9697.000000;0.028275
9696.000000;0.026610
9695.000000;0.024828
9694.000000;0.022865
9693.000000;0.020822
9692.000000;0.018843
9691.000000;0.016947
9690.000000;0.015086
9689.000000;0.013242
9688.000000;0.011381
9687.000000;0.009404
9686.000000;0.007290
9685.000000;0.005200
9684.000000;0.003311
9683.000000;0.001568
9682.000000;-0.000253
9681.000000;-0.002257
9680.000000;-0.004342
9679.000000;-0.006375
9678.000000;-0.008331
9677.000000;-0.010246
9676.000000;-0.012142
9675.000000;-0.014044
9674.000000;-0.015993
9673.000000;-0.017996
9672.000000;-0.020013
9671.000000;-0.022021
9670.000000;-0.024032
9669.000000;-0.026042
9668.000000;-0.028001
9667.000000;-0.029879
9666.000000;-0.031724
9665.000000;-0.033622
9664.000000;-0.035595
9663.000000;-0.037591
9662.000000;-0.039571
9661.000000;-0.041575
9660.000000;-0.043675
9659.000000;-0.045869
9658.000000;-0.048068
9657.000000;-0.050172
9656.000000;-0.052155
9655.000000;-0.054044
9654.000000;-0.055872
9653.000000;-0.057677
9652.000000;-0.059528
9651.000000;-0.061493
9650.000000;-0.063589
9649.000000;-0.065770
9648.000000;-0.067965
9647.000000;-0.070125
9646.000000;-0.072252
9645.000000;-0.074395
9644.000000;-0.076571
9643.000000;-0.078705
9642.000000;-0.080714
9641.000000;-0.082657
9640.000000;-0.084707
9639.000000;-0.086938
9638.000000;-0.089233
9637.000000;-0.091467
9636.000000;-0.093645
9635.000000;-0.095789
9634.000000;-0.097809
9633.000000;-0.099655
9632.000000;-0.101512
9631.000000;-0.103652
9630.000000;-0.106099
9629.000000;-0.108597
9628.000000;-0.110908
9627.000000;-0.113015
9626.000000;-0.115025
9625.000000;-0.117022
9624.000000;-0.119056
9623.000000;-0.121181
9622.000000;-0.123410
9621.000000;-0.125691
9620.000000;-0.127939
9619.000000;-0.130066
9618.000000;-0.132031
9617.000000;-0.133930
9616.000000;-0.135974
9615.000000;-0.138271
9614.000000;-0.140656
9613.000000;-0.142877
9612.000000;-0.144916
9611.000000;-0.147000
9610.000000;-0.149293
9609.000000;-0.151732
9608.000000;-0.154167
9607.000000;-0.156504
9606.000000;-0.158689
9605.000000;-0.160695
9604.000000;-0.162606
9603.000000;-0.164599
9602.000000;-0.166784
9601.000000;-0.169116
9600.000000;-0.171508
9599.000000;-0.173913
9598.000000;-0.176277
9597.000000;-0.178517
9596.000000;-0.180631
9595.000000;-0.182722
9594.000000;-0.184876
9593.000000;-0.187079
9592.000000;-0.189298
9591.000000;-0.191557
9590.000000;-0.193875
9589.000000;-0.196214
9588.000000;-0.198545
9587.000000;-0.200884
9586.000000;-0.203244
9585.000000;-0.205581
9584.000000;-0.207840
9583.000000;-0.210008
9582.000000;-0.212106
9581.000000;-0.214177
9580.000000;-0.216302
9579.000000;-0.218548
9578.000000;-0.220889
9577.000000;-0.223251
9576.000000;-0.225607
9575.000000;-0.227958
9574.000000;-0.230226
9573.000000;-0.232319
9572.000000;-0.234300
9571.000000;-0.236367
9570.000000;-0.238631
9569.000000;-0.241005
9568.000000;-0.243373
9567.000000;-0.245729
9566.000000;-0.248090
9565.000000;-0.250389
9564.000000;-0.252568
9563.000000;-0.254695
9562.000000;-0.256894
9561.000000;-0.259196
9560.000000;-0.261540
9559.000000;-0.263876
9558.000000;-0.266195
9557.000000;-0.268484
9556.000000;-0.270708
9555.000000;-0.272841
9554.000000;-0.274894
9553.000000;-0.276915
9552.000000;-0.278976
9551.000000;-0.281118
9550.000000;-0.283307
9549.000000;-0.285467
9548.000000;-0.287561
9547.000000;-0.289594
9546.000000;-0.291569
9545.000000;-0.293506
9544.000000;-0.295495
9543.000000;-0.297642
9542.000000;-0.299940
9541.000000;-0.302267
9540.000000;-0.304530
9539.000000;-0.306725
9538.000000;-0.308872
9537.000000;-0.310964
9536.000000;-0.313023
9535.000000;-0.315115
9534.000000;-0.317289
9533.000000;-0.319534
9532.000000;-0.321806
9531.000000;-0.324038
9530.000000;-0.326120
9529.000000;-0.327978
9528.000000;-0.329692
9527.000000;-0.331459
9526.000000;-0.333407
9525.000000;-0.335490
9524.000000;-0.337600
9523.000000;-0.339693
9522.000000;-0.341759
9521.000000;-0.343758
9520.000000;-0.345640
9519.000000;-0.347405
9518.000000;-0.349108
9517.000000;-0.350834
9516.000000;-0.352663
9515.000000;-0.354608
9514.000000;-0.356584
9513.000000;-0.358495
9512.000000;-0.360345
9511.000000;-0.362190
9510.000000;-0.364014
9509.000000;-0.365745
9508.000000;-0.367395
9507.000000;-0.369059
9506.000000;-0.370755
9505.000000;-0.372375
9504.000000;-0.373834
9503.000000;-0.375204
9502.000000;-0.376615
9501.000000;-0.378123
9500.000000;-0.379723
9499.000000;-0.381423
9498.000000;-0.383209
9497.000000;-0.384992
9496.000000;-0.386660
9495.000000;-0.388188
9494.000000;-0.389654
9493.000000;-0.391132
9492.000000;-0.392603
9491.000000;-0.393971
9490.000000;-0.395173
9489.000000;-0.396253
9488.000000;-0.397316
9487.000000;-0.398414
9486.000000;-0.399534
9485.000000;-0.400703
9484.000000;-0.402027
9483.000000;-0.403524
9482.000000;-0.404994
9481.000000;-0.406157
9480.000000;-0.406920
9479.000000;-0.407456
9478.000000;-0.408030
9477.000000;-0.408836
9476.000000;-0.409938
9475.000000;-0.411268
9474.000000;-0.412645
9473.000000;-0.413884
9472.000000;-0.414915
9471.000000;-0.415766
9470.000000;-0.416490
9469.000000;-0.417176
9468.000000;-0.417959
9467.000000;-0.418880
9466.000000;-0.419758
9465.000000;-0.420353
9464.000000;-0.420669
9463.000000;-0.420994
9462.000000;-0.421568
9461.000000;-0.422330
9460.000000;-0.423017
9459.000000;-0.423462
9458.000000;-0.423728
9457.000000;-0.424011
9456.000000;-0.424452
9455.000000;-0.425026
9454.000000;-0.425588
9453.000000;-0.426009
9452.000000;-0.426263
9451.000000;-0.426397
9450.000000;-0.426477
9449.000000;-0.426595
9448.000000;-0.426824
9447.000000;-0.427086
9446.000000;-0.427166
9445.000000;-0.426964
9444.000000;-0.426662
9443.000000;-0.426540
9442.000000;-0.426666
9441.000000;-0.426871
9440.000000;-0.426964
9439.000000;-0.426865
9438.000000;-0.426586
9437.000000;-0.426221
9436.000000;-0.425934
9435.000000;-0.425813
9434.000000;-0.425758
9433.000000;-0.425618
9432.000000;-0.425402
9431.000000;-0.425219
9430.000000;-0.425071
9429.000000;-0.424845
9428.000000;-0.424492
9427.000000;-0.424053
9426.000000;-0.423532
9425.000000;-0.422901
9424.000000;-0.422236
9423.000000;-0.421670
9422.000000;-0.421182
9421.000000;-0.420607
9420.000000;-0.419867
9419.000000;-0.419074
9418.000000;-0.418360
9417.000000;-0.417752
9416.000000;-0.417254
9415.000000;-0.416889
9414.000000;-0.416612
9413.000000;-0.416295
9412.000000;-0.415845
9411.000000;-0.415242
9410.000000;-0.414459
9409.000000;-0.413476
9408.000000;-0.412413
9407.000000;-0.411485
9406.000000;-0.410755
9405.000000;-0.410053
9404.000000;-0.409205
9403.000000;-0.408236
9402.000000;-0.407277
9401.000000;-0.406384
9400.000000;-0.405516
9399.000000;-0.404631
9398.000000;-0.403729
9397.000000;-0.402845
9396.000000;-0.402034
9395.000000;-0.401311
9394.000000;-0.400582
9393.000000;-0.399706
9392.000000;-0.398636
9391.000000;-0.397451
9390.000000;-0.396254
9389.000000;-0.395108
9388.000000;-0.394060
9387.000000;-0.393117
9386.000000;-0.392195
9385.000000;-0.391178
9384.000000;-0.390038
9383.000000;-0.388837
9382.000000;-0.387621
9381.000000;-0.386400
9380.000000;-0.385221
9379.000000;-0.384126
9378.000000;-0.383048
9377.000000;-0.381859
9376.000000;-0.380533
9375.000000;-0.379176
9374.000000;-0.377880
9373.000000;-0.376649
9372.000000;-0.375456
9371.000000;-0.374283
9370.000000;-0.373088
9369.000000;-0.371859
9368.000000;-0.370691
9367.000000;-0.369689
9366.000000;-0.368783
9365.000000;-0.367766
9364.000000;-0.366537
9363.000000;-0.365197
9362.000000;-0.363882
9361.000000;-0.362650
9360.000000;-0.361523
9359.000000;-0.360504
9358.000000;-0.359491
9357.000000;-0.358320
9356.000000;-0.356948
9355.000000;-0.355490
9354.000000;-0.354053
9353.000000;-0.352650
9352.000000;-0.351301
9351.000000;-0.350068
9350.000000;-0.348936
9349.000000;-0.347790
9348.000000;-0.346578
9347.000000;-0.345371
9346.000000;-0.344196
9345.000000;-0.342933
9344.000000;-0.341478
9343.000000;-0.339914
9342.000000;-0.338415
9341.000000;-0.337060
9340.000000;-0.335818
9339.000000;-0.334651
9338.000000;-0.333543
9337.000000;-0.332469
9336.000000;-0.331402
9335.000000;-0.330311
9334.000000;-0.329139
9333.000000;-0.327831
9332.000000;-0.326436
9331.000000;-0.325099
9330.000000;-0.323930
9329.000000;-0.322909
9328.000000;-0.321925
9327.000000;-0.320842
9326.000000;-0.319551
9325.000000;-0.318063
9324.000000;-0.316580
9323.000000;-0.315339
9322.000000;-0.314362
9321.000000;-0.313431
9320.000000;-0.312357
9319.000000;-0.311136
9318.000000;-0.309833
9317.000000;-0.308446
9316.000000;-0.306980
9315.000000;-0.305522
9314.000000;-0.304163
9313.000000;-0.302907
9312.000000;-0.301745
9311.000000;-0.300705
9310.000000;-0.299747
9309.000000;-0.298716
9308.000000;-0.297504
9307.000000;-0.296204
9306.000000;-0.294998
9305.000000;-0.293923
9304.000000;-0.292870
9303.000000;-0.291750
9302.000000;-0.290589
9301.000000;-0.289439
9300.000000;-0.288302
9299.000000;-0.287137
9298.000000;-0.285889
9297.000000;-0.284512
9296.000000;-0.283019
9295.000000;-0.281503
9294.000000;-0.280100
9293.000000;-0.278890
9292.000000;-0.277835
9291.000000;-0.276809
9290.000000;-0.275707
9289.000000;-0.274543
9288.000000;-0.273431
9287.000000;-0.272437
9286.000000;-0.271487
9285.000000;-0.270453
9284.000000;-0.269289
9283.000000;-0.268044
9282.000000;-0.266793
9281.000000;-0.265618
9280.000000;-0.264604
9279.000000;-0.263743
9278.000000;-0.262866
9277.000000;-0.261792
9276.000000;-0.260552
9275.000000;-0.259337
9274.000000;-0.258243
9273.000000;-0.257195
9272.000000;-0.256110
9271.000000;-0.255001
9270.000000;-0.253877
9269.000000;-0.252711
9268.000000;-0.251541
9267.000000;-0.250481
9266.000000;-0.249571
9265.000000;-0.248724
9264.000000;-0.247867
9263.000000;-0.247018
9262.000000;-0.246151
9261.000000;-0.245137
9260.000000;-0.243931
9259.000000;-0.242707
9258.000000;-0.241683
9257.000000;-0.240859
9256.000000;-0.240053
9255.000000;-0.239123
9254.000000;-0.238081
9253.000000;-0.237008
9252.000000;-0.235979
9251.000000;-0.235026
9250.000000;-0.234120
9249.000000;-0.233206
9248.000000;-0.232289
9247.000000;-0.231427
9246.000000;-0.230598
9245.000000;-0.229645
9244.000000;-0.228454
9243.000000;-0.227123
9242.000000;-0.225865
9241.000000;-0.224782
9240.000000;-0.223825
9239.000000;-0.222932
9238.000000;-0.222087
9237.000000;-0.221253
9236.000000;-0.220360
9235.000000;-0.219399
9234.000000;-0.218461
9233.000000;-0.217633
9232.000000;-0.216869
9231.000000;-0.216015
9230.000000;-0.214949
9229.000000;-0.213717
9228.000000;-0.212527
9227.000000;-0.211574
9226.000000;-0.210873
9225.000000;-0.210258
9224.000000;-0.209569
9223.000000;-0.208784
9222.000000;-0.207975
9221.000000;-0.207183
9220.000000;-0.206381
9219.000000;-0.205545
9218.000000;-0.204711
9217.000000;-0.203949
9216.000000;-0.203277
9215.000000;-0.202602
9214.000000;-0.201785
9213.000000;-0.200794
9212.000000;-0.199766
9211.000000;-0.198861
9210.000000;-0.198079
9209.000000;-0.197296
9208.000000;-0.196439
9207.000000;-0.195547
9206.000000;-0.194658
9205.000000;-0.193766
9204.000000;-0.192906
9203.000000;-0.192168
9202.000000;-0.191556
9201.000000;-0.190933
9200.000000;-0.190179
9199.000000;-0.189322
9198.000000;-0.188469
9197.000000;-0.187665
9196.000000;-0.186908
9195.000000;-0.186208
9194.000000;-0.185550
9193.000000;-0.184850
9192.000000;-0.184050
9191.000000;-0.183224
9190.000000;-0.182493
9189.000000;-0.181848
9188.000000;-0.181153
9187.000000;-0.180326
9186.000000;-0.179432
9185.000000;-0.178590
9184.000000;-0.177840
9183.000000;-0.177151
9182.000000;-0.176497
9181.000000;-0.175871
9180.000000;-0.175247
9179.000000;-0.174570
9178.000000;-0.173810
9177.000000;-0.173004
9176.000000;-0.172233
9175.000000;-0.171533
9174.000000;-0.170864
9173.000000;-0.170170
9172.000000;-0.169455
9171.000000;-0.168769
9170.000000;-0.168126
9169.000000;-0.167495
9168.000000;-0.166865
9167.000000;-0.166270
9166.000000;-0.165726
9165.000000;-0.165195
9164.000000;-0.164618
9163.000000;-0.163962
9162.000000;-0.163205
9161.000000;-0.162352
9160.000000;-0.161467
9159.000000;-0.160658
9158.000000;-0.159994
9157.000000;-0.159469
9156.000000;-0.159049
9155.000000;-0.158694
9154.000000;-0.158305
9153.000000;-0.157736
9152.000000;-0.156931
9151.000000;-0.156032
9150.000000;-0.155269
9149.000000;-0.154740
9148.000000;-0.154350
9147.000000;-0.153944
9146.000000;-0.153435
9145.000000;-0.152818
9144.000000;-0.152134
9143.000000;-0.151453
9142.000000;-0.150845
9141.000000;-0.150321
9140.000000;-0.149812
9139.000000;-0.149251
9138.000000;-0.148647
9137.000000;-0.148065
9136.000000;-0.147532
9135.000000;-0.147019
9134.000000;-0.146503
9133.000000;-0.146004
9132.000000;-0.145523
9131.000000;-0.145003
9130.000000;-0.144401
9129.000000;-0.143770
9128.000000;-0.143210
9127.000000;-0.142724
9126.000000;-0.142220
9125.000000;-0.141649
9124.000000;-0.141065
9123.000000;-0.140533
9122.000000;-0.140032
9121.000000;-0.139506
9120.000000;-0.138967
9119.000000;-0.138479
9118.000000;-0.138070
9117.000000;-0.137708
9116.000000;-0.137335
9115.000000;-0.136903
9114.000000;-0.136407
9113.000000;-0.135897
9112.000000;-0.135414
9111.000000;-0.134901
9110.000000;-0.134262
9109.000000;-0.133557
9108.000000;-0.133005
9107.000000;-0.132709
9106.000000;-0.132465
9105.000000;-0.131983
9104.000000;-0.131245
9103.000000;-0.130518
9102.000000;-0.130013
9101.000000;-0.129684
9100.000000;-0.129364
9099.000000;-0.128961
9098.000000;-0.128481
9097.000000;-0.127964
9096.000000;-0.127464
9095.000000;-0.127025
9094.000000;-0.126622
9093.000000;-0.126165
9092.000000;-0.125604
9091.000000;-0.124988
9090.000000;-0.124412
9089.000000;-0.123947
9088.000000;-0.123621
9087.000000;-0.123397
9086.000000;-0.123172
9085.000000;-0.122856
9084.000000;-0.122470
9083.000000;-0.122108
9082.000000;-0.121822
9081.000000;-0.121576
