Criado como novo conjunto de dados;"0307_DANIEL.spp","57244.7 Secs"
cm-1;Abs
10000.000000;0.362144
9999.000000;0.361728
9998.000000;0.361313
9997.000000;0.360898
9996.000000;0.360484
9995.000000;0.360070
9994.000000;0.359657
9993.000000;0.359243
9992.000000;0.358831
9991.000000;0.358416
9990.000000;0.358010
9989.000000;0.357551
9988.000000;0.356910
9987.000000;0.355987
9986.000000;0.354790
9985.000000;0.353510
9984.000000;0.352383
9983.000000;0.351514
9982.000000;0.350835
9981.000000;0.350259
9980.000000;0.349810
9979.000000;0.349543
9978.000000;0.349364
9977.000000;0.349043
9976.000000;0.348413
9975.000000;0.347503
9974.000000;0.346451
9973.000000;0.345378
9972.000000;0.344369
9971.000000;0.343476
9970.000000;0.342650
9969.000000;0.341753
9968.000000;0.340719
9967.000000;0.339682
9966.000000;0.338843
9965.000000;0.338252
9964.000000;0.337792
9963.000000;0.337336
9962.000000;0.336803
9961.000000;0.336114
9960.000000;0.335219
9959.000000;0.334192
9958.000000;0.333178
9957.000000;0.332235
9956.000000;0.331311
9955.000000;0.330403
9954.000000;0.329627
9953.000000;0.329047
9952.000000;0.328537
9951.000000;0.327874
9950.000000;0.326951
9949.000000;0.325826
9948.000000;0.324636
9947.000000;0.323525
9946.000000;0.322629
9945.000000;0.322011
9944.000000;0.321588
9943.000000;0.321171
9942.000000;0.320611
9941.000000;0.319892
9940.000000;0.319079
9939.000000;0.318241
9938.000000;0.317425
9937.000000;0.316646
9936.000000;0.315864
9935.000000;0.314999
9934.000000;0.314002
9933.000000;0.312901
9932.000000;0.311755
9931.000000;0.310588
9930.000000;0.309430
9929.000000;0.308359
9928.000000;0.307438
9927.000000;0.306592
9926.000000;0.305650
9925.000000;0.304562
9924.000000;0.303531
9923.000000;0.302814
9922.000000;0.302440
9921.000000;0.302166
9920.000000;0.301718
9919.000000;0.300992
9918.000000;0.300063
9917.000000;0.299063
9916.000000;0.298087
9915.000000;0.297131
9914.000000;0.296107
9913.000000;0.294979
9912.000000;0.293886
9911.000000;0.293016
9910.000000;0.292344
9909.000000;0.291615
9908.000000;0.290646
9907.000000;0.289547
9906.000000;0.288543
9905.000000;0.287681
9904.000000;0.286824
9903.000000;0.285867
9902.000000;0.284848
9901.000000;0.283870
9900.000000;0.283036
9899.000000;0.282392
9898.000000;0.281839
9897.000000;0.281114
9896.000000;0.280041
9895.000000;0.278787
9894.000000;0.277720
9893.000000;0.276974
9892.000000;0.276307
9891.000000;0.275443
9890.000000;0.274402
9889.000000;0.273401
9888.000000;0.272513
9887.000000;0.271590
9886.000000;0.270478
9885.000000;0.269211
9884.000000;0.267992
9883.000000;0.267016
9882.000000;0.266294
9881.000000;0.265612
9880.000000;0.264701
9879.000000;0.263498
9878.000000;0.262199
9877.000000;0.261018
9876.000000;0.259955
9875.000000;0.258861
9874.000000;0.257689
9873.000000;0.256576
9872.000000;0.255680
9871.000000;0.254992
9870.000000;0.254322
9869.000000;0.253441
9868.000000;0.252267
9867.000000;0.250965
9866.000000;0.249824
9865.000000;0.248983
9864.000000;0.248276
9863.000000;0.247391
9862.000000;0.246201
9861.000000;0.244865
9860.000000;0.243645
9859.000000;0.242683
9858.000000;0.241942
9857.000000;0.241266
9856.000000;0.240457
9855.000000;0.239359
9854.000000;0.237977
9853.000000;0.236504
9852.000000;0.235205
9851.000000;0.234210
9850.000000;0.233423
9849.000000;0.232641
9848.000000;0.231757
9847.000000;0.230852
9846.000000;0.230046
9845.000000;0.229293
9844.000000;0.228362
9843.000000;0.227079
9842.000000;0.225537
9841.000000;0.224044
9840.000000;0.222858
9839.000000;0.221995
9838.000000;0.221256
9837.000000;0.220419
9836.000000;0.219396
9835.000000;0.218244
9834.000000;0.217038
9833.000000;0.215771
9832.000000;0.214440
9831.000000;0.213163
9830.000000;0.212119
9829.000000;0.211299
9828.000000;0.210443
9827.000000;0.209328
9826.000000;0.208019
9825.000000;0.206721
9824.000000;0.205479
9823.000000;0.204176
9822.000000;0.202822
9821.000000;0.201601
9820.000000;0.200609
9819.000000;0.199701
9818.000000;0.198696
9817.000000;0.197588
9816.000000;0.196459
9815.000000;0.195336
9814.000000;0.194246
9813.000000;0.193298
9812.000000;0.192510
9811.000000;0.191631
9810.000000;0.190346
9809.000000;0.188661
9808.000000;0.186947
9807.000000;0.185531
9806.000000;0.184394
9805.000000;0.183324
9804.000000;0.182233
9803.000000;0.181194
9802.000000;0.180237
9801.000000;0.179234
9800.000000;0.178033
9799.000000;0.176656
9798.000000;0.175305
9797.000000;0.174162
9796.000000;0.173208
9795.000000;0.172249
9794.000000;0.171121
9793.000000;0.169825
9792.000000;0.168478
9791.000000;0.167169
9790.000000;0.165925
9789.000000;0.164755
9788.000000;0.163655
9787.000000;0.162584
9786.000000;0.161493
9785.000000;0.160395
9784.000000;0.159339
9783.000000;0.158308
9782.000000;0.157198
9781.000000;0.155901
9780.000000;0.154378
9779.000000;0.152649
9778.000000;0.150800
9777.000000;0.148996
9776.000000;0.147420
9775.000000;0.146125
9774.000000;0.145012
9773.000000;0.143984
9772.000000;0.143065
9771.000000;0.142299
9770.000000;0.141567
9769.000000;0.140611
9768.000000;0.139273
9767.000000;0.137664
9766.000000;0.136028
9765.000000;0.134506
9764.000000;0.133059
9763.000000;0.131636
9762.000000;0.130301
9761.000000;0.129155
9760.000000;0.128156
9759.000000;0.127091
9758.000000;0.125774
9757.000000;0.124218
9756.000000;0.122596
9755.000000;0.121067
9754.000000;0.119673
9753.000000;0.118382
9752.000000;0.117161
9751.000000;0.115977
9750.000000;0.114767
9749.000000;0.113444
9748.000000;0.111946
9747.000000;0.110284
9746.000000;0.108562
9745.000000;0.106919
9744.000000;0.105434
9743.000000;0.104092
9742.000000;0.102844
9741.000000;0.101645
9740.000000;0.100438
9739.000000;0.099146
9738.000000;0.097751
9737.000000;0.096339
9736.000000;0.095019
9735.000000;0.093786
9734.000000;0.092554
9733.000000;0.091277
9732.000000;0.089965
9731.000000;0.088572
9730.000000;0.086984
9729.000000;0.085162
9728.000000;0.083258
9727.000000;0.081514
9726.000000;0.080057
9725.000000;0.078827
9724.000000;0.077652
9723.000000;0.076367
9722.000000;0.074914
9721.000000;0.073365
9720.000000;0.071838
9719.000000;0.070364
9718.000000;0.068851
9717.000000;0.067226
9716.000000;0.065593
9715.000000;0.064178
9714.000000;0.063067
9713.000000;0.062030
9712.000000;0.060682
9711.000000;0.058875
9710.000000;0.056867
9709.000000;0.055050
9708.000000;0.053558
9707.000000;0.052204
9706.000000;0.050784
9705.000000;0.049287
9704.000000;0.047773
9703.000000;0.046193
9702.000000;0.044473
9701.000000;0.042701
9700.000000;0.041054
9699.000000;0.039567
9698.000000;0.038104
9697.000000;0.036566
9696.000000;0.034998
9695.000000;0.033462
9694.000000;0.031934
9693.000000;0.030376
9692.000000;0.028809
9691.000000;0.027258
9690.000000;0.025710
9689.000000;0.024175
9688.000000;0.022691
9687.000000;0.021221
9686.000000;0.019632
9685.000000;0.017861
9684.000000;0.016033
9683.000000;0.014320
9682.000000;0.012729
9681.000000;0.011111
9680.000000;0.009348
9679.000000;0.007471
9678.000000;0.005599
9677.000000;0.003832
9676.000000;0.002216
9675.000000;0.000754
9674.000000;-0.000563
9673.000000;-0.001782
9672.000000;-0.003027
9671.000000;-0.004497
9670.000000;-0.006353
9669.000000;-0.008560
9668.000000;-0.010876
9667.000000;-0.012993
9666.000000;-0.014699
9665.000000;-0.015983
9664.000000;-0.017068
9663.000000;-0.018321
9662.000000;-0.020003
9661.000000;-0.022048
9660.000000;-0.024151
9659.000000;-0.026094
9658.000000;-0.027904
9657.000000;-0.029709
9656.000000;-0.031551
9655.000000;-0.033415
9654.000000;-0.035315
9653.000000;-0.037254
9652.000000;-0.039171
9651.000000;-0.041008
9650.000000;-0.042775
9649.000000;-0.044499
9648.000000;-0.046161
9647.000000;-0.047772
9646.000000;-0.049436
9645.000000;-0.051255
9644.000000;-0.053176
9643.000000;-0.055032
9642.000000;-0.056713
9641.000000;-0.058242
9640.000000;-0.059725
9639.000000;-0.061268
9638.000000;-0.062933
9637.000000;-0.064700
9636.000000;-0.066496
9635.000000;-0.068278
9634.000000;-0.070063
9633.000000;-0.071873
9632.000000;-0.073706
9631.000000;-0.075578
9630.000000;-0.077503
9629.000000;-0.079416
9628.000000;-0.081212
9627.000000;-0.082934
9626.000000;-0.084810
9625.000000;-0.086998
9624.000000;-0.089363
9623.000000;-0.091612
9622.000000;-0.093587
9621.000000;-0.095312
9620.000000;-0.096833
9619.000000;-0.098176
9618.000000;-0.099478
9617.000000;-0.100989
9616.000000;-0.102870
9615.000000;-0.105040
9614.000000;-0.107259
9613.000000;-0.109343
9612.000000;-0.111300
9611.000000;-0.113296
9610.000000;-0.115485
9609.000000;-0.117835
9608.000000;-0.120128
9607.000000;-0.122186
9606.000000;-0.124061
9605.000000;-0.125971
9604.000000;-0.128042
9603.000000;-0.130175
9602.000000;-0.132158
9601.000000;-0.133884
9600.000000;-0.135443
9599.000000;-0.137040
9598.000000;-0.138806
9597.000000;-0.140711
9596.000000;-0.142660
9595.000000;-0.144655
9594.000000;-0.146780
9593.000000;-0.149029
9592.000000;-0.151242
9591.000000;-0.153236
9590.000000;-0.154943
9589.000000;-0.156409
9588.000000;-0.157762
9587.000000;-0.159218
9586.000000;-0.160983
9585.000000;-0.163080
9584.000000;-0.165336
9583.000000;-0.167623
9582.000000;-0.169968
9581.000000;-0.172375
9580.000000;-0.174677
9579.000000;-0.176733
9578.000000;-0.178672
9577.000000;-0.180775
9576.000000;-0.183115
9575.000000;-0.185462
9574.000000;-0.187513
9573.000000;-0.189160
9572.000000;-0.190544
9571.000000;-0.191964
9570.000000;-0.193682
9569.000000;-0.195706
9568.000000;-0.197795
9567.000000;-0.199742
9566.000000;-0.201587
9565.000000;-0.203460
9564.000000;-0.205344
9563.000000;-0.207164
9562.000000;-0.209013
9561.000000;-0.211092
9560.000000;-0.213415
9559.000000;-0.215759
9558.000000;-0.217908
9557.000000;-0.219831
9556.000000;-0.221620
9555.000000;-0.223421
9554.000000;-0.225394
9553.000000;-0.227595
9552.000000;-0.229871
9551.000000;-0.231994
9550.000000;-0.233897
9549.000000;-0.235665
9548.000000;-0.237344
9547.000000;-0.238936
9546.000000;-0.240553
9545.000000;-0.242356
9544.000000;-0.244308
9543.000000;-0.246195
9542.000000;-0.247933
9541.000000;-0.249657
9540.000000;-0.251460
9539.000000;-0.253256
9538.000000;-0.254996
9537.000000;-0.256829
9536.000000;-0.258904
9535.000000;-0.261143
9534.000000;-0.263351
9533.000000;-0.265423
9532.000000;-0.267339
9531.000000;-0.269085
9530.000000;-0.270692
9529.000000;-0.272278
9528.000000;-0.273911
9527.000000;-0.275517
9526.000000;-0.277005
9525.000000;-0.278410
9524.000000;-0.279842
9523.000000;-0.281374
9522.000000;-0.283083
9521.000000;-0.285046
9520.000000;-0.287204
9519.000000;-0.289326
9518.000000;-0.291221
9517.000000;-0.292902
9516.000000;-0.294449
9515.000000;-0.295850
9514.000000;-0.297114
9513.000000;-0.298428
9512.000000;-0.299985
9511.000000;-0.301727
9510.000000;-0.303430
9509.000000;-0.304994
9508.000000;-0.306482
9507.000000;-0.307910
9506.000000;-0.309225
9505.000000;-0.310488
9504.000000;-0.311895
9503.000000;-0.313525
9502.000000;-0.315204
9501.000000;-0.316682
9500.000000;-0.317883
9499.000000;-0.318943
9498.000000;-0.320077
9497.000000;-0.321413
9496.000000;-0.322869
9495.000000;-0.324191
9494.000000;-0.325197
9493.000000;-0.325990
9492.000000;-0.326835
9491.000000;-0.327872
9490.000000;-0.329053
9489.000000;-0.330297
9488.000000;-0.331542
9487.000000;-0.332641
9486.000000;-0.333426
9485.000000;-0.333968
9484.000000;-0.334593
9483.000000;-0.335508
9482.000000;-0.336562
9481.000000;-0.337486
9480.000000;-0.338244
9479.000000;-0.338998
9478.000000;-0.339813
9477.000000;-0.340592
9476.000000;-0.341269
9475.000000;-0.341902
9474.000000;-0.342573
9473.000000;-0.343318
9472.000000;-0.344137
9471.000000;-0.344955
9470.000000;-0.345598
9469.000000;-0.345949
9468.000000;-0.346158
9467.000000;-0.346556
9466.000000;-0.347283
9465.000000;-0.348111
9464.000000;-0.348701
9463.000000;-0.348961
9462.000000;-0.349067
9461.000000;-0.349224
9460.000000;-0.349506
9459.000000;-0.349869
9458.000000;-0.350227
9457.000000;-0.350508
9456.000000;-0.350726
9455.000000;-0.350968
9454.000000;-0.351266
9453.000000;-0.351481
9452.000000;-0.351446
9451.000000;-0.351196
9450.000000;-0.350973
9449.000000;-0.350949
9448.000000;-0.351033
9447.000000;-0.351011
9446.000000;-0.350808
9445.000000;-0.350514
9444.000000;-0.350208
9443.000000;-0.349875
9442.000000;-0.349488
9441.000000;-0.349087
9440.000000;-0.348698
9439.000000;-0.348272
9438.000000;-0.347760
9437.000000;-0.347243
9436.000000;-0.346877
9435.000000;-0.346705
9434.000000;-0.346578
9433.000000;-0.346278
9432.000000;-0.345720
9431.000000;-0.345007
9430.000000;-0.344339
9429.000000;-0.343858
9428.000000;-0.343545
9427.000000;-0.343218
9426.000000;-0.342673
9425.000000;-0.341901
9424.000000;-0.341128
9423.000000;-0.340589
9422.000000;-0.340234
9421.000000;-0.339755
9420.000000;-0.338910
9419.000000;-0.337777
9418.000000;-0.336644
9417.000000;-0.335718
9416.000000;-0.334979
9415.000000;-0.334279
9414.000000;-0.333474
9413.000000;-0.332490
9412.000000;-0.331356
9411.000000;-0.330209
9410.000000;-0.329210
9409.000000;-0.328419
9408.000000;-0.327750
9407.000000;-0.327033
9406.000000;-0.326087
9405.000000;-0.324801
9404.000000;-0.323245
9403.000000;-0.321702
9402.000000;-0.320439
9401.000000;-0.319425
9400.000000;-0.318354
9399.000000;-0.317027
9398.000000;-0.315607
9397.000000;-0.314425
9396.000000;-0.313611
9395.000000;-0.312994
9394.000000;-0.312303
9393.000000;-0.311357
9392.000000;-0.310106
9391.000000;-0.308631
9390.000000;-0.307105
9389.000000;-0.305696
9388.000000;-0.304450
9387.000000;-0.303307
9386.000000;-0.302189
9385.000000;-0.301029
9384.000000;-0.299775
9383.000000;-0.298444
9382.000000;-0.297135
9381.000000;-0.295910
9380.000000;-0.294670
9379.000000;-0.293271
9378.000000;-0.291716
9377.000000;-0.290141
9376.000000;-0.288606
9375.000000;-0.287038
9374.000000;-0.285409
9373.000000;-0.283842
9372.000000;-0.282472
9371.000000;-0.281283
9370.000000;-0.280128
9369.000000;-0.278869
9368.000000;-0.277466
9367.000000;-0.276005
9366.000000;-0.274648
9365.000000;-0.273462
9364.000000;-0.272273
9363.000000;-0.270791
9362.000000;-0.268951
9361.000000;-0.267028
9360.000000;-0.265348
9359.000000;-0.263975
9358.000000;-0.262729
9357.000000;-0.261430
9356.000000;-0.260017
9355.000000;-0.258502
9354.000000;-0.256940
9353.000000;-0.255396
9352.000000;-0.253864
9351.000000;-0.252261
9350.000000;-0.250579
9349.000000;-0.248995
9348.000000;-0.247691
9347.000000;-0.246608
9346.000000;-0.245488
9345.000000;-0.244164
9344.000000;-0.242676
9343.000000;-0.241123
9342.000000;-0.239546
9341.000000;-0.237988
9340.000000;-0.236524
9339.000000;-0.235151
9338.000000;-0.233743
9337.000000;-0.232211
9336.000000;-0.230635
9335.000000;-0.229148
9334.000000;-0.227739
9333.000000;-0.226280
9332.000000;-0.224717
9331.000000;-0.223143
9330.000000;-0.221659
9329.000000;-0.220261
9328.000000;-0.218910
9327.000000;-0.217626
9326.000000;-0.216443
9325.000000;-0.215296
9324.000000;-0.214034
9323.000000;-0.212577
9322.000000;-0.211005
9321.000000;-0.209470
9320.000000;-0.208055
9319.000000;-0.206733
9318.000000;-0.205437
9317.000000;-0.204115
9316.000000;-0.202734
9315.000000;-0.201263
9314.000000;-0.199700
9313.000000;-0.198099
9312.000000;-0.196544
9311.000000;-0.195085
9310.000000;-0.193699
9309.000000;-0.192322
9308.000000;-0.190932
9307.000000;-0.189589
9306.000000;-0.188344
9305.000000;-0.187111
9304.000000;-0.185706
9303.000000;-0.184071
9302.000000;-0.182392
9301.000000;-0.180928
9300.000000;-0.179728
9299.000000;-0.178601
9298.000000;-0.177348
9297.000000;-0.175924
9296.000000;-0.174381
9295.000000;-0.172777
9294.000000;-0.171201
9293.000000;-0.169802
9292.000000;-0.168668
9291.000000;-0.167710
9290.000000;-0.166710
9289.000000;-0.165513
9288.000000;-0.164141
9287.000000;-0.162752
9286.000000;-0.161511
9285.000000;-0.160443
9284.000000;-0.159381
9283.000000;-0.158101
9282.000000;-0.156555
9281.000000;-0.154941
9280.000000;-0.153492
9279.000000;-0.152226
9278.000000;-0.150957
9277.000000;-0.149532
9276.000000;-0.147986
9275.000000;-0.146484
9274.000000;-0.145138
9273.000000;-0.143904
9272.000000;-0.142622
9271.000000;-0.141171
9270.000000;-0.139621
9269.000000;-0.138219
9268.000000;-0.137148
9267.000000;-0.136332
9266.000000;-0.135516
9265.000000;-0.134551
9264.000000;-0.133507
9263.000000;-0.132488
9262.000000;-0.131409
9261.000000;-0.130071
9260.000000;-0.128442
9259.000000;-0.126789
9258.000000;-0.125458
9257.000000;-0.124534
9256.000000;-0.123766
9255.000000;-0.122844
9254.000000;-0.121714
9253.000000;-0.120576
9252.000000;-0.119602
9251.000000;-0.118734
9250.000000;-0.117756
9249.000000;-0.116523
9248.000000;-0.115054
9247.000000;-0.113491
9246.000000;-0.112010
9245.000000;-0.110751
9244.000000;-0.109733
9243.000000;-0.108817
9242.000000;-0.107832
9241.000000;-0.106756
9240.000000;-0.105737
9239.000000;-0.104875
9238.000000;-0.104044
9237.000000;-0.103000
9236.000000;-0.101648
9235.000000;-0.100153
9234.000000;-0.098789
9233.000000;-0.097720
9232.000000;-0.096913
9231.000000;-0.096178
9230.000000;-0.095266
9229.000000;-0.094021
9228.000000;-0.092538
9227.000000;-0.091140
9226.000000;-0.090078
9225.000000;-0.089264
9224.000000;-0.088371
9223.000000;-0.087204
9222.000000;-0.085890
9221.000000;-0.084677
9220.000000;-0.083659
9219.000000;-0.082754
9218.000000;-0.081863
9217.000000;-0.080932
9216.000000;-0.079928
9215.000000;-0.078865
9214.000000;-0.077857
9213.000000;-0.077044
9212.000000;-0.076412
9211.000000;-0.075772
9210.000000;-0.074926
9209.000000;-0.073828
9208.000000;-0.072580
9207.000000;-0.071331
9206.000000;-0.070201
9205.000000;-0.069233
9204.000000;-0.068359
9203.000000;-0.067442
9202.000000;-0.066380
9201.000000;-0.065202
9200.000000;-0.064040
9199.000000;-0.063019
9198.000000;-0.062161
9197.000000;-0.061380
9196.000000;-0.060569
9195.000000;-0.059701
9194.000000;-0.058826
9193.000000;-0.057967
9192.000000;-0.057073
9191.000000;-0.056107
9190.000000;-0.055130
9189.000000;-0.054224
9188.000000;-0.053368
9187.000000;-0.052456
9186.000000;-0.051454
9185.000000;-0.050454
9184.000000;-0.049550
9183.000000;-0.048719
9182.000000;-0.047853
9181.000000;-0.046870
9180.000000;-0.045775
9179.000000;-0.044652
9178.000000;-0.043610
9177.000000;-0.042707
9176.000000;-0.041893
9175.000000;-0.041071
9174.000000;-0.040207
9173.000000;-0.039353
9172.000000;-0.038562
9171.000000;-0.037820
9170.000000;-0.037089
9169.000000;-0.036380
9168.000000;-0.035742
9167.000000;-0.035174
9166.000000;-0.034584
9165.000000;-0.033840
9164.000000;-0.032883
9163.000000;-0.031790
9162.000000;-0.030731
9161.000000;-0.029837
9160.000000;-0.029115
9159.000000;-0.028474
9158.000000;-0.027819
9157.000000;-0.027099
9156.000000;-0.026336
9155.000000;-0.025619
9154.000000;-0.025017
9153.000000;-0.024469
9152.000000;-0.023797
9151.000000;-0.022922
9150.000000;-0.021988
9149.000000;-0.021217
9148.000000;-0.020669
9147.000000;-0.020201
9146.000000;-0.019642
9145.000000;-0.018900
9144.000000;-0.017944
9143.000000;-0.016831
9142.000000;-0.015744
9141.000000;-0.014873
9140.000000;-0.014208
9139.000000;-0.013549
9138.000000;-0.012760
9137.000000;-0.011923
9136.000000;-0.011186
9135.000000;-0.010549
9134.000000;-0.009896
9133.000000;-0.009171
9132.000000;-0.008440
9131.000000;-0.007792
9130.000000;-0.007226
9129.000000;-0.006652
9128.000000;-0.005965
9127.000000;-0.005149
9126.000000;-0.004329
9125.000000;-0.003678
9124.000000;-0.003246
9123.000000;-0.002888
9122.000000;-0.002384
9121.000000;-0.001626
9120.000000;-0.000701
9119.000000;0.000181
9118.000000;0.000853
9117.000000;0.001346
9116.000000;0.001870
9115.000000;0.002593
9114.000000;0.003431
9113.000000;0.004129
9112.000000;0.004564
9111.000000;0.004872
9110.000000;0.005263
9109.000000;0.005816
9108.000000;0.006498
9107.000000;0.007296
9106.000000;0.008202
9105.000000;0.009118
9104.000000;0.009903
9103.000000;0.010507
9102.000000;0.011022
9101.000000;0.011578
9100.000000;0.012246
9099.000000;0.013029
9098.000000;0.013879
9097.000000;0.014713
9096.000000;0.015435
9095.000000;0.015966
9094.000000;0.016263
9093.000000;0.016362
9092.000000;0.016424
9091.000000;0.016698
9090.000000;0.017353
9089.000000;0.018309
9088.000000;0.019254
9087.000000;0.019866
9086.000000;0.020041
9085.000000;0.019951
9084.000000;0.019915
9083.000000;0.020177
9082.000000;0.020754
9081.000000;0.021457
9080.000000;0.022086
9079.000000;0.022623
