Criado como novo conjunto de dados;"0307_DANIEL.spp","63905.6 Secs"
cm-1;Abs
10000.000000;0.568862
9999.000000;0.567865
9998.000000;0.566871
9997.000000;0.565880
9996.000000;0.564890
9995.000000;0.563904
9994.000000;0.562918
9993.000000;0.561937
9992.000000;0.560951
9991.000000;0.560174
9990.000000;0.559531
9989.000000;0.558839
9988.000000;0.557955
9987.000000;0.556896
9986.000000;0.555836
9985.000000;0.554915
9984.000000;0.554099
9983.000000;0.553269
9982.000000;0.552376
9981.000000;0.551424
9980.000000;0.550378
9979.000000;0.549233
9978.000000;0.548150
9977.000000;0.547346
9976.000000;0.546815
9975.000000;0.546287
9974.000000;0.545558
9973.000000;0.544701
9972.000000;0.543864
9971.000000;0.543011
9970.000000;0.542056
9969.000000;0.541163
9968.000000;0.540661
9967.000000;0.540615
9966.000000;0.540673
9965.000000;0.540395
9964.000000;0.539618
9963.000000;0.538452
9962.000000;0.537093
9961.000000;0.535750
9960.000000;0.534634
9959.000000;0.533808
9958.000000;0.533119
9957.000000;0.532389
9956.000000;0.531647
9955.000000;0.531030
9954.000000;0.530497
9953.000000;0.529783
9952.000000;0.528668
9951.000000;0.527208
9950.000000;0.525711
9949.000000;0.524564
9948.000000;0.524001
9947.000000;0.523878
9946.000000;0.523664
9945.000000;0.522853
9944.000000;0.521483
9943.000000;0.520114
9942.000000;0.519224
9941.000000;0.518713
9940.000000;0.518094
9939.000000;0.517051
9938.000000;0.515688
9937.000000;0.514309
9936.000000;0.513134
9935.000000;0.512226
9934.000000;0.511561
9933.000000;0.511056
9932.000000;0.510578
9931.000000;0.509966
9930.000000;0.509102
9929.000000;0.507998
9928.000000;0.506840
9927.000000;0.505895
9926.000000;0.505313
9925.000000;0.504994
9924.000000;0.504637
9923.000000;0.503931
9922.000000;0.502750
9921.000000;0.501231
9920.000000;0.499666
9919.000000;0.498299
9918.000000;0.497196
9917.000000;0.496307
9916.000000;0.495622
9915.000000;0.495173
9914.000000;0.494862
9913.000000;0.494388
9912.000000;0.493453
9911.000000;0.492040
9910.000000;0.490441
9909.000000;0.489004
9908.000000;0.487906
9907.000000;0.487119
9906.000000;0.486531
9905.000000;0.486032
9904.000000;0.485505
9903.000000;0.484780
9902.000000;0.483715
9901.000000;0.482369
9900.000000;0.481031
9899.000000;0.479953
9898.000000;0.479057
9897.000000;0.478024
9896.000000;0.476685
9895.000000;0.475228
9894.000000;0.473958
9893.000000;0.472981
9892.000000;0.472180
9891.000000;0.471389
9890.000000;0.470503
9889.000000;0.469475
9888.000000;0.468336
9887.000000;0.467203
9886.000000;0.466185
9885.000000;0.465284
9884.000000;0.464408
9883.000000;0.463484
9882.000000;0.462511
9881.000000;0.461564
9880.000000;0.460747
9879.000000;0.460083
9878.000000;0.459439
9877.000000;0.458623
9876.000000;0.457611
9875.000000;0.456558
9874.000000;0.455541
9873.000000;0.454425
9872.000000;0.453077
9871.000000;0.451613
9870.000000;0.450307
9869.000000;0.449321
9868.000000;0.448626
9867.000000;0.448112
9866.000000;0.447636
9865.000000;0.447029
9864.000000;0.446181
9863.000000;0.445117
9862.000000;0.443905
9861.000000;0.442558
9860.000000;0.441131
9859.000000;0.439780
9858.000000;0.438564
9857.000000;0.437291
9856.000000;0.435783
9855.000000;0.434222
9854.000000;0.432970
9853.000000;0.432049
9852.000000;0.431091
9851.000000;0.429861
9850.000000;0.428566
9849.000000;0.427530
9848.000000;0.426773
9847.000000;0.426107
9846.000000;0.425446
9845.000000;0.424822
9844.000000;0.424186
9843.000000;0.423417
9842.000000;0.422490
9841.000000;0.421482
9840.000000;0.420423
9839.000000;0.419264
9838.000000;0.417980
9837.000000;0.416597
9836.000000;0.415137
9835.000000;0.413617
9834.000000;0.412097
9833.000000;0.410671
9832.000000;0.409420
9831.000000;0.408404
9830.000000;0.407625
9829.000000;0.406942
9828.000000;0.406090
9827.000000;0.404907
9826.000000;0.403504
9825.000000;0.402116
9824.000000;0.400841
9823.000000;0.399622
9822.000000;0.398460
9821.000000;0.397454
9820.000000;0.396606
9819.000000;0.395708
9818.000000;0.394532
9817.000000;0.393079
9816.000000;0.391585
9815.000000;0.390279
9814.000000;0.389194
9813.000000;0.388206
9812.000000;0.387201
9811.000000;0.386171
9810.000000;0.385126
9809.000000;0.383986
9808.000000;0.382625
9807.000000;0.381053
9806.000000;0.379468
9805.000000;0.378078
9804.000000;0.376914
9803.000000;0.375870
9802.000000;0.374850
9801.000000;0.373801
9800.000000;0.372653
9799.000000;0.371373
9798.000000;0.370047
9797.000000;0.368814
9796.000000;0.367667
9795.000000;0.366435
9794.000000;0.365019
9793.000000;0.363550
9792.000000;0.362244
9791.000000;0.361140
9790.000000;0.360089
9789.000000;0.358990
9788.000000;0.357934
9787.000000;0.357064
9786.000000;0.356325
9785.000000;0.355428
9784.000000;0.354101
9783.000000;0.352342
9782.000000;0.350423
9781.000000;0.348637
9780.000000;0.347061
9779.000000;0.345593
9778.000000;0.344151
9777.000000;0.342790
9776.000000;0.341594
9775.000000;0.340511
9774.000000;0.339358
9773.000000;0.338011
9772.000000;0.336560
9771.000000;0.335226
9770.000000;0.334124
9769.000000;0.333149
9768.000000;0.332094
9767.000000;0.330835
9766.000000;0.329359
9765.000000;0.327677
9764.000000;0.325813
9763.000000;0.323889
9762.000000;0.322112
9761.000000;0.320610
9760.000000;0.319325
9759.000000;0.318106
9758.000000;0.316859
9757.000000;0.315560
9756.000000;0.314202
9755.000000;0.312843
9754.000000;0.311632
9753.000000;0.310634
9752.000000;0.309644
9751.000000;0.308325
9750.000000;0.306595
9749.000000;0.304757
9748.000000;0.303167
9747.000000;0.301886
9746.000000;0.300750
9745.000000;0.299644
9744.000000;0.298542
9743.000000;0.297351
9742.000000;0.295931
9741.000000;0.294309
9740.000000;0.292705
9739.000000;0.291283
9738.000000;0.290004
9737.000000;0.288783
9736.000000;0.287612
9735.000000;0.286429
9734.000000;0.284999
9733.000000;0.283142
9732.000000;0.281013
9731.000000;0.278982
9730.000000;0.277258
9729.000000;0.275765
9728.000000;0.274348
9727.000000;0.272923
9726.000000;0.271393
9725.000000;0.269632
9724.000000;0.267684
9723.000000;0.265878
9722.000000;0.264570
9721.000000;0.263769
9720.000000;0.263062
9719.000000;0.261938
9718.000000;0.260206
9717.000000;0.258137
9716.000000;0.256204
9715.000000;0.254635
9714.000000;0.253229
9713.000000;0.251657
9712.000000;0.249897
9711.000000;0.248241
9710.000000;0.246901
9709.000000;0.245775
9708.000000;0.244651
9707.000000;0.243437
9706.000000;0.242090
9705.000000;0.240497
9704.000000;0.238650
9703.000000;0.236821
9702.000000;0.235326
9701.000000;0.234128
9700.000000;0.232861
9699.000000;0.231260
9698.000000;0.229429
9697.000000;0.227652
9696.000000;0.226083
9695.000000;0.224653
9694.000000;0.223179
9693.000000;0.221505
9692.000000;0.219645
9691.000000;0.217820
9690.000000;0.216248
9689.000000;0.214882
9688.000000;0.213440
9687.000000;0.211716
9686.000000;0.209796
9685.000000;0.207932
9684.000000;0.206307
9683.000000;0.204914
9682.000000;0.203569
9681.000000;0.202006
9680.000000;0.200092
9679.000000;0.198018
9678.000000;0.196169
9677.000000;0.194707
9676.000000;0.193373
9675.000000;0.191769
9674.000000;0.189784
9673.000000;0.187674
9672.000000;0.185764
9671.000000;0.184171
9670.000000;0.182759
9669.000000;0.181290
9668.000000;0.179605
9667.000000;0.177729
9666.000000;0.175791
9665.000000;0.173851
9664.000000;0.171871
9663.000000;0.169867
9662.000000;0.167971
9661.000000;0.166244
9660.000000;0.164540
9659.000000;0.162684
9658.000000;0.160756
9657.000000;0.159026
9656.000000;0.157594
9655.000000;0.156227
9654.000000;0.154617
9653.000000;0.152697
9652.000000;0.150622
9651.000000;0.148517
9650.000000;0.146394
9649.000000;0.144290
9648.000000;0.142345
9647.000000;0.140676
9646.000000;0.139201
9645.000000;0.137683
9644.000000;0.135940
9643.000000;0.133976
9642.000000;0.131941
9641.000000;0.130037
9640.000000;0.128419
9639.000000;0.127065
9638.000000;0.125684
9637.000000;0.123873
9636.000000;0.121505
9635.000000;0.118885
9634.000000;0.116430
9633.000000;0.114244
9632.000000;0.112142
9631.000000;0.110048
9630.000000;0.108160
9629.000000;0.106660
9628.000000;0.105417
9627.000000;0.104132
9626.000000;0.102681
9625.000000;0.101181
9624.000000;0.099731
9623.000000;0.098219
9622.000000;0.096440
9621.000000;0.094350
9620.000000;0.092143
9619.000000;0.090085
9618.000000;0.088290
9617.000000;0.086670
9616.000000;0.085096
9615.000000;0.083531
9614.000000;0.081951
9613.000000;0.080220
9612.000000;0.078161
9611.000000;0.075752
9610.000000;0.073138
9609.000000;0.070471
9608.000000;0.067849
9607.000000;0.065414
9606.000000;0.063323
9605.000000;0.061530
9604.000000;0.059757
9603.000000;0.057797
9602.000000;0.055764
9601.000000;0.053926
9600.000000;0.052368
9599.000000;0.050924
9598.000000;0.049376
9597.000000;0.047581
9596.000000;0.045457
9595.000000;0.043013
9594.000000;0.040436
9593.000000;0.038032
9592.000000;0.036017
9591.000000;0.034378
9590.000000;0.032901
9589.000000;0.031302
9588.000000;0.029386
9587.000000;0.027182
9586.000000;0.024908
9585.000000;0.022741
9584.000000;0.020666
9583.000000;0.018572
9582.000000;0.016427
9581.000000;0.014248
9580.000000;0.012009
9579.000000;0.009706
9578.000000;0.007471
9577.000000;0.005488
9576.000000;0.003787
9575.000000;0.002271
9574.000000;0.000867
9573.000000;-0.000495
9572.000000;-0.002068
9571.000000;-0.004182
9570.000000;-0.006861
9569.000000;-0.009696
9568.000000;-0.012216
9567.000000;-0.014284
9566.000000;-0.016053
9565.000000;-0.017712
9564.000000;-0.019425
9563.000000;-0.021381
9562.000000;-0.023679
9561.000000;-0.026150
9560.000000;-0.028450
9559.000000;-0.030404
9558.000000;-0.032134
9557.000000;-0.033851
9556.000000;-0.035615
9555.000000;-0.037403
9554.000000;-0.039305
9553.000000;-0.041497
9552.000000;-0.043999
9551.000000;-0.046558
9550.000000;-0.048843
9549.000000;-0.050732
9548.000000;-0.052360
9547.000000;-0.053907
9546.000000;-0.055445
9545.000000;-0.056999
9544.000000;-0.058672
9543.000000;-0.060584
9542.000000;-0.062723
9541.000000;-0.064947
9540.000000;-0.067155
9539.000000;-0.069354
9538.000000;-0.071548
9537.000000;-0.073638
9536.000000;-0.075517
9535.000000;-0.077193
9534.000000;-0.078801
9533.000000;-0.080498
9532.000000;-0.082376
9531.000000;-0.084401
9530.000000;-0.086398
9529.000000;-0.088136
9528.000000;-0.089534
9527.000000;-0.090802
9526.000000;-0.092290
9525.000000;-0.094170
9524.000000;-0.096260
9523.000000;-0.098215
9522.000000;-0.099870
9521.000000;-0.101362
9520.000000;-0.102922
9519.000000;-0.104603
9518.000000;-0.106252
9517.000000;-0.107706
9516.000000;-0.108952
9515.000000;-0.110100
9514.000000;-0.111311
9513.000000;-0.112739
9512.000000;-0.114453
9511.000000;-0.116334
9510.000000;-0.118140
9509.000000;-0.119756
9508.000000;-0.121317
9507.000000;-0.122999
9506.000000;-0.124741
9505.000000;-0.126315
9504.000000;-0.127640
9503.000000;-0.128880
9502.000000;-0.130209
9501.000000;-0.131622
9500.000000;-0.133040
9499.000000;-0.134498
9498.000000;-0.136105
9497.000000;-0.137857
9496.000000;-0.139579
9495.000000;-0.141056
9494.000000;-0.142191
9493.000000;-0.143061
9492.000000;-0.143832
9491.000000;-0.144620
9490.000000;-0.145421
9489.000000;-0.146178
9488.000000;-0.146886
9487.000000;-0.147598
9486.000000;-0.148379
9485.000000;-0.149311
9484.000000;-0.150480
9483.000000;-0.151862
9482.000000;-0.153241
9481.000000;-0.154350
9480.000000;-0.155110
9479.000000;-0.155674
9478.000000;-0.156245
9477.000000;-0.156951
9476.000000;-0.157852
9475.000000;-0.158909
9474.000000;-0.159925
9473.000000;-0.160695
9472.000000;-0.161270
9471.000000;-0.161942
9470.000000;-0.162860
9469.000000;-0.163828
9468.000000;-0.164560
9467.000000;-0.165030
9466.000000;-0.165428
9465.000000;-0.165875
9464.000000;-0.166319
9463.000000;-0.166673
9462.000000;-0.166906
9461.000000;-0.167040
9460.000000;-0.167152
9459.000000;-0.167359
9458.000000;-0.167709
9457.000000;-0.168130
9456.000000;-0.168555
9455.000000;-0.169012
9454.000000;-0.169481
9453.000000;-0.169787
9452.000000;-0.169789
9451.000000;-0.169623
9450.000000;-0.169555
9449.000000;-0.169609
9448.000000;-0.169560
9447.000000;-0.169306
9446.000000;-0.169053
9445.000000;-0.169024
9444.000000;-0.169168
9443.000000;-0.169280
9442.000000;-0.169278
9441.000000;-0.169198
9440.000000;-0.169023
9439.000000;-0.168671
9438.000000;-0.168123
9437.000000;-0.167426
9436.000000;-0.166589
9435.000000;-0.165628
9434.000000;-0.164695
9433.000000;-0.164031
9432.000000;-0.163719
9431.000000;-0.163618
9430.000000;-0.163561
9429.000000;-0.163481
9428.000000;-0.163266
9427.000000;-0.162671
9426.000000;-0.161563
9425.000000;-0.160221
9424.000000;-0.159158
9423.000000;-0.158588
9422.000000;-0.158237
9421.000000;-0.157754
9420.000000;-0.157126
9419.000000;-0.156549
9418.000000;-0.156013
9417.000000;-0.155285
9416.000000;-0.154279
9415.000000;-0.153225
9414.000000;-0.152385
9413.000000;-0.151772
9412.000000;-0.151242
9411.000000;-0.150734
9410.000000;-0.150242
9409.000000;-0.149628
9408.000000;-0.148652
9407.000000;-0.147231
9406.000000;-0.145547
9405.000000;-0.143884
9404.000000;-0.142438
9403.000000;-0.141299
9402.000000;-0.140481
9401.000000;-0.139868
9400.000000;-0.139199
9399.000000;-0.138237
9398.000000;-0.137011
9397.000000;-0.135791
9396.000000;-0.134780
9395.000000;-0.133869
9394.000000;-0.132768
9393.000000;-0.131351
9392.000000;-0.129755
9391.000000;-0.128171
9390.000000;-0.126657
9389.000000;-0.125257
9388.000000;-0.124139
9387.000000;-0.123429
9386.000000;-0.122916
9385.000000;-0.122138
9384.000000;-0.120819
9383.000000;-0.119113
9382.000000;-0.117358
9381.000000;-0.115730
9380.000000;-0.114219
9379.000000;-0.112832
9378.000000;-0.111620
9377.000000;-0.110532
9376.000000;-0.109376
9375.000000;-0.107986
9374.000000;-0.106384
9373.000000;-0.104785
9372.000000;-0.103436
9371.000000;-0.102413
9370.000000;-0.101514
9369.000000;-0.100414
9368.000000;-0.098982
9367.000000;-0.097378
9366.000000;-0.095811
9365.000000;-0.094290
9364.000000;-0.092724
9363.000000;-0.091164
9362.000000;-0.089754
9361.000000;-0.088503
9360.000000;-0.087261
9359.000000;-0.085933
9358.000000;-0.084558
9357.000000;-0.083182
9356.000000;-0.081819
9355.000000;-0.080544
9354.000000;-0.079440
9353.000000;-0.078389
9352.000000;-0.077100
9351.000000;-0.075464
9350.000000;-0.073737
9349.000000;-0.072258
9348.000000;-0.071088
9347.000000;-0.070011
9346.000000;-0.068786
9345.000000;-0.067285
9344.000000;-0.065497
9343.000000;-0.063559
9342.000000;-0.061694
9341.000000;-0.060005
9340.000000;-0.058357
9339.000000;-0.056624
9338.000000;-0.054953
9337.000000;-0.053622
9336.000000;-0.052640
9335.000000;-0.051680
9334.000000;-0.050446
9333.000000;-0.048957
9332.000000;-0.047450
9331.000000;-0.046094
9330.000000;-0.044871
9329.000000;-0.043656
9328.000000;-0.042360
9327.000000;-0.041002
9326.000000;-0.039652
9325.000000;-0.038287
9324.000000;-0.036773
9323.000000;-0.035064
9322.000000;-0.033349
9321.000000;-0.031881
9320.000000;-0.030709
9319.000000;-0.029683
9318.000000;-0.028668
9317.000000;-0.027593
9316.000000;-0.026326
9315.000000;-0.024733
9314.000000;-0.022916
9313.000000;-0.021193
9312.000000;-0.019731
9311.000000;-0.018373
9310.000000;-0.016929
9309.000000;-0.015489
9308.000000;-0.014265
9307.000000;-0.013249
9306.000000;-0.012197
9305.000000;-0.010915
9304.000000;-0.009412
9303.000000;-0.007820
9302.000000;-0.006306
9301.000000;-0.005019
9300.000000;-0.003962
9299.000000;-0.002906
9298.000000;-0.001565
9297.000000;0.000087
9296.000000;0.001777
9295.000000;0.003247
9294.000000;0.004495
9293.000000;0.005688
9292.000000;0.006931
9291.000000;0.008193
9290.000000;0.009423
9289.000000;0.010656
9288.000000;0.011976
9287.000000;0.013396
9286.000000;0.014799
9285.000000;0.016034
9284.000000;0.017104
9283.000000;0.018193
9282.000000;0.019480
9281.000000;0.020960
9280.000000;0.022486
9279.000000;0.023931
9278.000000;0.025230
9277.000000;0.026345
9276.000000;0.027291
9275.000000;0.028191
9274.000000;0.029193
9273.000000;0.030325
9272.000000;0.031504
9271.000000;0.032682
9270.000000;0.033881
9269.000000;0.035105
9268.000000;0.036327
9267.000000;0.037588
9266.000000;0.038975
9265.000000;0.040460
9264.000000;0.041858
9263.000000;0.043015
9262.000000;0.043996
9261.000000;0.045001
9260.000000;0.046150
9259.000000;0.047418
9258.000000;0.048722
9257.000000;0.050005
9256.000000;0.051252
9255.000000;0.052450
9254.000000;0.053532
9253.000000;0.054372
9252.000000;0.054939
9251.000000;0.055465
9250.000000;0.056345
9249.000000;0.057758
9248.000000;0.059433
9247.000000;0.060902
9246.000000;0.061962
9245.000000;0.062810
9244.000000;0.063745
9243.000000;0.064877
9242.000000;0.066140
9241.000000;0.067458
9240.000000;0.068798
9239.000000;0.070108
9238.000000;0.071319
9237.000000;0.072426
9236.000000;0.073498
9235.000000;0.074548
9234.000000;0.075432
9233.000000;0.075960
9232.000000;0.076161
9231.000000;0.076406
9230.000000;0.077152
9229.000000;0.078547
9228.000000;0.080293
9227.000000;0.081919
9226.000000;0.083175
9225.000000;0.084167
9224.000000;0.085160
9223.000000;0.086304
9222.000000;0.087517
9221.000000;0.088600
9220.000000;0.089434
9219.000000;0.090103
9218.000000;0.090801
9217.000000;0.091661
9216.000000;0.092674
9215.000000;0.093774
9214.000000;0.094914
9213.000000;0.096033
9212.000000;0.097028
9211.000000;0.097854
9210.000000;0.098609
9209.000000;0.099461
9208.000000;0.100479
9207.000000;0.101570
9206.000000;0.102587
9205.000000;0.103467
9204.000000;0.104281
9203.000000;0.105164
9202.000000;0.106186
9201.000000;0.107269
9200.000000;0.108259
9199.000000;0.109109
9198.000000;0.109957
9197.000000;0.110957
9196.000000;0.112092
9195.000000;0.113217
9194.000000;0.114253
9193.000000;0.115235
9192.000000;0.116180
9191.000000;0.117021
9190.000000;0.117719
9189.000000;0.118359
9188.000000;0.119060
9187.000000;0.119844
9186.000000;0.120620
9185.000000;0.121299
9184.000000;0.121889
9183.000000;0.122487
9182.000000;0.123220
9181.000000;0.124158
9180.000000;0.125264
9179.000000;0.126407
9178.000000;0.127429
9177.000000;0.128225
9176.000000;0.128791
9175.000000;0.129213
9174.000000;0.129592
9173.000000;0.129967
9172.000000;0.130338
9171.000000;0.130763
9170.000000;0.131375
9169.000000;0.132243
9168.000000;0.133261
9167.000000;0.134235
9166.000000;0.135061
9165.000000;0.135787
9164.000000;0.136524
9163.000000;0.137373
9162.000000;0.138400
9161.000000;0.139597
9160.000000;0.140853
9159.000000;0.142052
9158.000000;0.143161
9157.000000;0.144158
9156.000000;0.144945
9155.000000;0.145465
9154.000000;0.145882
9153.000000;0.146468
9152.000000;0.147283
9151.000000;0.148120
9150.000000;0.148810
9149.000000;0.149413
9148.000000;0.150040
9147.000000;0.150674
9146.000000;0.151291
9145.000000;0.151986
9144.000000;0.152830
9143.000000;0.153698
9142.000000;0.154441
9141.000000;0.155123
9140.000000;0.155908
9139.000000;0.156769
9138.000000;0.157522
9137.000000;0.158131
9136.000000;0.158759
9135.000000;0.159477
9134.000000;0.160129
9133.000000;0.160597
9132.000000;0.161032
9131.000000;0.161687
9130.000000;0.162584
9129.000000;0.163482
9128.000000;0.164146
9127.000000;0.164558
9126.000000;0.164865
9125.000000;0.165198
9124.000000;0.165582
9123.000000;0.165993
9122.000000;0.166440
9121.000000;0.166973
9120.000000;0.167582
9119.000000;0.168181
9118.000000;0.168721
9117.000000;0.169280
9116.000000;0.169997
9115.000000;0.170918
9114.000000;0.171956
9113.000000;0.172973
9112.000000;0.173841
9111.000000;0.174474
9110.000000;0.174886
9109.000000;0.175213
9108.000000;0.175599
9107.000000;0.176070
9106.000000;0.176567
9105.000000;0.177086
9104.000000;0.177690
9103.000000;0.178401
9102.000000;0.179174
9101.000000;0.179974
9100.000000;0.180783
9099.000000;0.181513
9098.000000;0.182031
9097.000000;0.182335
9096.000000;0.182604
9095.000000;0.183004
9094.000000;0.183498
9093.000000;0.183935
9092.000000;0.184278
9091.000000;0.184681
9090.000000;0.185324
9089.000000;0.186199
9088.000000;0.187091
9087.000000;0.187764
9086.000000;0.188176
9085.000000;0.188490
9084.000000;0.188875
9083.000000;0.189368
9082.000000;0.189908
9081.000000;0.190435
9080.000000;0.190874
9079.000000;0.191157
9078.000000;0.191366
9077.000000;0.191762
9076.000000;0.192519
9075.000000;0.193446
9074.000000;0.194150
9073.000000;0.194481
9072.000000;0.194643
9071.000000;0.194872
9070.000000;0.195209
9069.000000;0.195633
9068.000000;0.196206
9067.000000;0.196936
9066.000000;0.197670
