Criado como novo conjunto de dados;"0307_DANIEL.spp","45724.7 Secs"
cm-1;Abs
10000.000000;1.089491
9999.000000;1.088816
9998.000000;1.088228
9997.000000;1.087693
9996.000000;1.086953
9995.000000;1.085708
9994.000000;1.083930
9993.000000;1.081906
9992.000000;1.079970
9991.000000;1.078259
9990.000000;1.076770
9989.000000;1.075566
9988.000000;1.074786
9987.000000;1.074433
9986.000000;1.074250
9985.000000;1.073913
9984.000000;1.073253
9983.000000;1.072259
9982.000000;1.070953
9981.000000;1.069388
9980.000000;1.067704
9979.000000;1.066047
9978.000000;1.064454
9977.000000;1.062940
9976.000000;1.061656
9975.000000;1.060772
9974.000000;1.060162
9973.000000;1.059392
9972.000000;1.058138
9971.000000;1.056528
9970.000000;1.055001
9969.000000;1.053868
9968.000000;1.053053
9967.000000;1.052200
9966.000000;1.050975
9965.000000;1.049370
9964.000000;1.047748
9963.000000;1.046507
9962.000000;1.045632
9961.000000;1.044711
9960.000000;1.043441
9959.000000;1.041991
9958.000000;1.040709
9957.000000;1.039630
9956.000000;1.038468
9955.000000;1.037033
9954.000000;1.035430
9953.000000;1.033864
9952.000000;1.032472
9951.000000;1.031339
9950.000000;1.030466
9949.000000;1.029633
9948.000000;1.028486
9947.000000;1.026892
9946.000000;1.025076
9945.000000;1.023356
9944.000000;1.021891
9943.000000;1.020757
9942.000000;1.020036
9941.000000;1.019617
9940.000000;1.019054
9939.000000;1.017922
9938.000000;1.016299
9937.000000;1.014717
9936.000000;1.013613
9935.000000;1.012952
9934.000000;1.012346
9933.000000;1.011358
9932.000000;1.009740
9931.000000;1.007576
9930.000000;1.005292
9929.000000;1.003397
9928.000000;1.002123
9927.000000;1.001348
9926.000000;1.000811
9925.000000;1.000285
9924.000000;0.999564
9923.000000;0.998509
9922.000000;0.997184
9921.000000;0.995800
9920.000000;0.994436
9919.000000;0.992911
9918.000000;0.991031
9917.000000;0.988879
9916.000000;0.986755
9915.000000;0.984906
9914.000000;0.983402
9913.000000;0.982224
9912.000000;0.981357
9911.000000;0.980768
9910.000000;0.980314
9909.000000;0.979674
9908.000000;0.978438
9907.000000;0.976435
9906.000000;0.973994
9905.000000;0.971799
9904.000000;0.970367
9903.000000;0.969672
9902.000000;0.969232
9901.000000;0.968501
9900.000000;0.967198
9899.000000;0.965410
9898.000000;0.963442
9897.000000;0.961539
9896.000000;0.959716
9895.000000;0.957904
9894.000000;0.956160
9893.000000;0.954630
9892.000000;0.953344
9891.000000;0.952212
9890.000000;0.951185
9889.000000;0.950216
9888.000000;0.949091
9887.000000;0.947563
9886.000000;0.945757
9885.000000;0.944143
9884.000000;0.942974
9883.000000;0.941988
9882.000000;0.940836
9881.000000;0.939578
9880.000000;0.938470
9879.000000;0.937448
9878.000000;0.936134
9877.000000;0.934303
9876.000000;0.932108
9875.000000;0.929903
9874.000000;0.928051
9873.000000;0.926791
9872.000000;0.926005
9871.000000;0.925180
9870.000000;0.923868
9869.000000;0.922194
9868.000000;0.920668
9867.000000;0.919494
9866.000000;0.918378
9865.000000;0.917020
9864.000000;0.915486
9863.000000;0.913960
9862.000000;0.912406
9861.000000;0.910705
9860.000000;0.908945
9859.000000;0.907335
9858.000000;0.905921
9857.000000;0.904568
9856.000000;0.903203
9855.000000;0.901899
9854.000000;0.900721
9853.000000;0.899599
9852.000000;0.898417
9851.000000;0.897135
9850.000000;0.895785
9849.000000;0.894374
9848.000000;0.892861
9847.000000;0.891249
9846.000000;0.889614
9845.000000;0.887986
9844.000000;0.886283
9843.000000;0.884475
9842.000000;0.882778
9841.000000;0.881473
9840.000000;0.880466
9839.000000;0.879283
9838.000000;0.877665
9837.000000;0.875962
9836.000000;0.874670
9835.000000;0.873744
9834.000000;0.872689
9833.000000;0.871246
9832.000000;0.869604
9831.000000;0.867914
9830.000000;0.866010
9829.000000;0.863805
9828.000000;0.861656
9827.000000;0.860029
9826.000000;0.858962
9825.000000;0.858056
9824.000000;0.856913
9823.000000;0.855403
9822.000000;0.853594
9821.000000;0.851660
9820.000000;0.849827
9819.000000;0.848237
9818.000000;0.846827
9817.000000;0.845436
9816.000000;0.844053
9815.000000;0.842821
9814.000000;0.841771
9813.000000;0.840636
9812.000000;0.839045
9811.000000;0.836885
9810.000000;0.834415
9809.000000;0.832031
9808.000000;0.829942
9807.000000;0.828094
9806.000000;0.826322
9805.000000;0.824509
9804.000000;0.822621
9803.000000;0.820719
9802.000000;0.818979
9801.000000;0.817600
9800.000000;0.816589
9799.000000;0.815694
9798.000000;0.814634
9797.000000;0.813350
9796.000000;0.811944
9795.000000;0.810495
9794.000000;0.809031
9793.000000;0.807589
9792.000000;0.806176
9791.000000;0.804746
9790.000000;0.803355
9789.000000;0.802203
9788.000000;0.801301
9787.000000;0.800213
9786.000000;0.798447
9785.000000;0.796084
9784.000000;0.793699
9783.000000;0.791655
9782.000000;0.789777
9781.000000;0.787845
9780.000000;0.786019
9779.000000;0.784537
9778.000000;0.783246
9777.000000;0.781721
9776.000000;0.779751
9775.000000;0.777503
9774.000000;0.775286
9773.000000;0.773342
9772.000000;0.771758
9771.000000;0.770395
9770.000000;0.768963
9769.000000;0.767355
9768.000000;0.765810
9767.000000;0.764512
9766.000000;0.763156
9765.000000;0.761237
9764.000000;0.758784
9763.000000;0.756498
9762.000000;0.755001
9761.000000;0.754164
9760.000000;0.753325
9759.000000;0.752009
9758.000000;0.750220
9757.000000;0.748120
9756.000000;0.745726
9755.000000;0.743038
9754.000000;0.740301
9753.000000;0.737956
9752.000000;0.736303
9751.000000;0.735231
9750.000000;0.734262
9749.000000;0.732836
9748.000000;0.730668
9747.000000;0.727981
9746.000000;0.725359
9745.000000;0.723258
9744.000000;0.721592
9743.000000;0.719930
9742.000000;0.718105
9741.000000;0.716424
9740.000000;0.715167
9739.000000;0.714112
9738.000000;0.712826
9737.000000;0.711254
9736.000000;0.709668
9735.000000;0.708086
9734.000000;0.706148
9733.000000;0.703700
9732.000000;0.701134
9731.000000;0.698911
9730.000000;0.697027
9729.000000;0.695170
9728.000000;0.693230
9727.000000;0.691377
9726.000000;0.689753
9725.000000;0.688354
9724.000000;0.687126
9723.000000;0.685943
9722.000000;0.684532
9721.000000;0.682731
9720.000000;0.680796
9719.000000;0.679178
9718.000000;0.677936
9717.000000;0.676592
9716.000000;0.674686
9715.000000;0.672275
9714.000000;0.669749
9713.000000;0.667332
9712.000000;0.664973
9711.000000;0.662688
9710.000000;0.660713
9709.000000;0.659217
9708.000000;0.657939
9707.000000;0.656333
9706.000000;0.654124
9705.000000;0.651639
9704.000000;0.649436
9703.000000;0.647669
9702.000000;0.645970
9701.000000;0.643965
9700.000000;0.641713
9699.000000;0.639543
9698.000000;0.637644
9697.000000;0.635989
9696.000000;0.634507
9695.000000;0.633118
9694.000000;0.631626
9693.000000;0.629780
9692.000000;0.627503
9691.000000;0.624951
9690.000000;0.622352
9689.000000;0.619872
9688.000000;0.617600
9687.000000;0.615528
9686.000000;0.613549
9685.000000;0.611585
9684.000000;0.609686
9683.000000;0.607913
9682.000000;0.606175
9681.000000;0.604326
9680.000000;0.602395
9679.000000;0.600524
9678.000000;0.598680
9677.000000;0.596662
9676.000000;0.594433
9675.000000;0.592264
9674.000000;0.590409
9673.000000;0.588749
9672.000000;0.586862
9671.000000;0.584408
9670.000000;0.581433
9669.000000;0.578390
9668.000000;0.575841
9667.000000;0.573968
9666.000000;0.572320
9665.000000;0.570227
9664.000000;0.567543
9663.000000;0.564798
9662.000000;0.562531
9661.000000;0.560691
9660.000000;0.558877
9659.000000;0.556926
9658.000000;0.554990
9657.000000;0.553140
9656.000000;0.551254
9655.000000;0.549310
9654.000000;0.547485
9653.000000;0.545840
9652.000000;0.544118
9651.000000;0.542016
9650.000000;0.539541
9649.000000;0.536993
9648.000000;0.534691
9647.000000;0.532757
9646.000000;0.531070
9645.000000;0.529318
9644.000000;0.527212
9643.000000;0.524765
9642.000000;0.522291
9641.000000;0.520019
9640.000000;0.517817
9639.000000;0.515406
9638.000000;0.512791
9637.000000;0.510319
9636.000000;0.508275
9635.000000;0.506541
9634.000000;0.504703
9633.000000;0.502459
9632.000000;0.499885
9631.000000;0.497321
9630.000000;0.495038
9629.000000;0.492986
9628.000000;0.490875
9627.000000;0.488484
9626.000000;0.485854
9625.000000;0.483214
9624.000000;0.480792
9623.000000;0.478745
9622.000000;0.477107
9621.000000;0.475696
9620.000000;0.474139
9619.000000;0.472179
9618.000000;0.469911
9617.000000;0.467589
9616.000000;0.465202
9615.000000;0.462494
9614.000000;0.459445
9613.000000;0.456508
9612.000000;0.454140
9611.000000;0.452267
9610.000000;0.450412
9609.000000;0.448304
9608.000000;0.446124
9607.000000;0.444100
9606.000000;0.442083
9605.000000;0.439738
9604.000000;0.437035
9603.000000;0.434342
9602.000000;0.432029
9601.000000;0.430082
9600.000000;0.428152
9599.000000;0.425927
9598.000000;0.423385
9597.000000;0.420729
9596.000000;0.418149
9595.000000;0.415662
9594.000000;0.413165
9593.000000;0.410599
9592.000000;0.408056
9591.000000;0.405709
9590.000000;0.403649
9589.000000;0.401791
9588.000000;0.399956
9587.000000;0.398019
9586.000000;0.395918
9585.000000;0.393547
9584.000000;0.390755
9583.000000;0.387581
9582.000000;0.384388
9581.000000;0.381616
9580.000000;0.379339
9579.000000;0.377202
9578.000000;0.374850
9577.000000;0.372304
9576.000000;0.369835
9575.000000;0.367614
9574.000000;0.365627
9573.000000;0.363848
9572.000000;0.362225
9571.000000;0.360489
9570.000000;0.358223
9569.000000;0.355301
9568.000000;0.352111
9567.000000;0.349217
9566.000000;0.346835
9565.000000;0.344794
9564.000000;0.342890
9563.000000;0.341072
9562.000000;0.339242
9561.000000;0.337126
9560.000000;0.334529
9559.000000;0.331633
9558.000000;0.328853
9557.000000;0.326389
9556.000000;0.324066
9555.000000;0.321660
9554.000000;0.319234
9553.000000;0.317047
9552.000000;0.315178
9551.000000;0.313378
9550.000000;0.311338
9549.000000;0.309010
9548.000000;0.306632
9547.000000;0.304419
9546.000000;0.302290
9545.000000;0.299914
9544.000000;0.297081
9543.000000;0.294013
9542.000000;0.291269
9541.000000;0.289244
9540.000000;0.287789
9539.000000;0.286349
9538.000000;0.284480
9537.000000;0.282160
9536.000000;0.279625
9535.000000;0.277067
9534.000000;0.274607
9533.000000;0.272402
9532.000000;0.270561
9531.000000;0.268932
9530.000000;0.267139
9529.000000;0.264929
9528.000000;0.262429
9527.000000;0.259962
9526.000000;0.257693
9525.000000;0.255534
9524.000000;0.253330
9523.000000;0.251052
9522.000000;0.248785
9521.000000;0.246653
9520.000000;0.244753
9519.000000;0.243086
9518.000000;0.241513
9517.000000;0.239856
9516.000000;0.238104
9515.000000;0.236427
9514.000000;0.234944
9513.000000;0.233557
9512.000000;0.232123
9511.000000;0.230673
9510.000000;0.229266
9509.000000;0.227673
9508.000000;0.225476
9507.000000;0.222616
9506.000000;0.219653
9505.000000;0.217283
9504.000000;0.215660
9503.000000;0.214342
9502.000000;0.212830
9501.000000;0.210983
9500.000000;0.208936
9499.000000;0.206846
9498.000000;0.204854
9497.000000;0.203135
9496.000000;0.201779
9495.000000;0.200619
9494.000000;0.199332
9493.000000;0.197779
9492.000000;0.196153
9491.000000;0.194724
9490.000000;0.193461
9489.000000;0.192061
9488.000000;0.190367
9487.000000;0.188628
9486.000000;0.187197
9485.000000;0.186066
9484.000000;0.184914
9483.000000;0.183620
9482.000000;0.182479
9481.000000;0.181797
9480.000000;0.181466
9479.000000;0.181112
9478.000000;0.180507
9477.000000;0.179611
9476.000000;0.178332
9475.000000;0.176596
9474.000000;0.174669
9473.000000;0.173105
9472.000000;0.172230
9471.000000;0.171831
9470.000000;0.171457
9469.000000;0.170860
9468.000000;0.170048
9467.000000;0.169081
9466.000000;0.168015
9465.000000;0.166995
9464.000000;0.166209
9463.000000;0.165697
9462.000000;0.165265
9461.000000;0.164651
9460.000000;0.163779
9459.000000;0.162853
9458.000000;0.162158
9457.000000;0.161721
9456.000000;0.161253
9455.000000;0.160496
9454.000000;0.159594
9453.000000;0.158967
9452.000000;0.158848
9451.000000;0.159067
9450.000000;0.159290
9449.000000;0.159294
9448.000000;0.158995
9447.000000;0.158409
9446.000000;0.157684
9445.000000;0.157041
9444.000000;0.156594
9443.000000;0.156323
9442.000000;0.156255
9441.000000;0.156490
9440.000000;0.156980
9439.000000;0.157438
9438.000000;0.157622
9437.000000;0.157591
9436.000000;0.157541
9435.000000;0.157499
9434.000000;0.157342
9433.000000;0.157040
9432.000000;0.156754
9431.000000;0.156702
9430.000000;0.157010
9429.000000;0.157646
9428.000000;0.158399
9427.000000;0.159023
9426.000000;0.159473
9425.000000;0.159922
9424.000000;0.160462
9423.000000;0.160912
9422.000000;0.161076
9421.000000;0.161091
9420.000000;0.161311
9419.000000;0.161871
9418.000000;0.162559
9417.000000;0.163130
9416.000000;0.163577
9415.000000;0.164047
9414.000000;0.164598
9413.000000;0.165141
9412.000000;0.165576
9411.000000;0.165947
9410.000000;0.166448
9409.000000;0.167230
9408.000000;0.168219
9407.000000;0.169190
9406.000000;0.170070
9405.000000;0.171035
9404.000000;0.172199
9403.000000;0.173316
9402.000000;0.173992
9401.000000;0.174176
9400.000000;0.174304
9399.000000;0.174903
9398.000000;0.176134
9397.000000;0.177714
9396.000000;0.179159
9395.000000;0.180115
9394.000000;0.180573
9393.000000;0.180871
9392.000000;0.181430
9391.000000;0.182434
9390.000000;0.183714
9389.000000;0.184904
9388.000000;0.185724
9387.000000;0.186217
9386.000000;0.186760
9385.000000;0.187754
9384.000000;0.189206
9383.000000;0.190691
9382.000000;0.191811
9381.000000;0.192645
9380.000000;0.193583
9379.000000;0.194806
9378.000000;0.196113
9377.000000;0.197257
9376.000000;0.198248
9375.000000;0.199260
9374.000000;0.200393
9373.000000;0.201624
9372.000000;0.202885
9371.000000;0.204093
9370.000000;0.205143
9369.000000;0.205977
9368.000000;0.206663
9367.000000;0.207353
9366.000000;0.208202
9365.000000;0.209293
9364.000000;0.210621
9363.000000;0.212097
9362.000000;0.213607
9361.000000;0.215081
9360.000000;0.216472
9359.000000;0.217695
9358.000000;0.218656
9357.000000;0.219379
9356.000000;0.220038
9355.000000;0.220865
9354.000000;0.222003
9353.000000;0.223428
9352.000000;0.224935
9351.000000;0.226226
9350.000000;0.227128
9349.000000;0.227770
9348.000000;0.228526
9347.000000;0.229705
9346.000000;0.231308
9345.000000;0.233043
9344.000000;0.234577
9343.000000;0.235790
9342.000000;0.236834
9341.000000;0.237940
9340.000000;0.239168
9339.000000;0.240391
9338.000000;0.241541
9337.000000;0.242762
9336.000000;0.244221
9335.000000;0.245862
9334.000000;0.247461
9333.000000;0.248884
9332.000000;0.250138
9331.000000;0.251214
9330.000000;0.252072
9329.000000;0.252822
9328.000000;0.253730
9327.000000;0.254931
9326.000000;0.256254
9325.000000;0.257412
9324.000000;0.258286
9323.000000;0.258953
9322.000000;0.259551
9321.000000;0.260226
9320.000000;0.261116
9319.000000;0.262250
9318.000000;0.263511
9317.000000;0.264774
9316.000000;0.266033
9315.000000;0.267316
9314.000000;0.268559
9313.000000;0.269684
9312.000000;0.270719
9311.000000;0.271707
9310.000000;0.272579
9309.000000;0.273276
9308.000000;0.273997
9307.000000;0.275085
9306.000000;0.276634
9305.000000;0.278347
9304.000000;0.279897
9303.000000;0.281281
9302.000000;0.282682
9301.000000;0.284114
9300.000000;0.285383
9299.000000;0.286357
9298.000000;0.287121
9297.000000;0.287842
9296.000000;0.288624
9295.000000;0.289556
9294.000000;0.290728
9293.000000;0.292120
9292.000000;0.293524
9291.000000;0.294696
9290.000000;0.295587
9289.000000;0.296355
9288.000000;0.297192
9287.000000;0.298206
9286.000000;0.299432
9285.000000;0.300849
9284.000000;0.302338
9283.000000;0.303685
9282.000000;0.304705
9281.000000;0.305375
9280.000000;0.305856
9279.000000;0.306396
9278.000000;0.307155
9277.000000;0.308078
9276.000000;0.308970
9275.000000;0.309737
9274.000000;0.310509
9273.000000;0.311462
9272.000000;0.312571
9271.000000;0.313665
9270.000000;0.314720
9269.000000;0.315910
9268.000000;0.317310
9267.000000;0.318716
9266.000000;0.319870
9265.000000;0.320777
9264.000000;0.321631
9263.000000;0.322538
9262.000000;0.323450
9261.000000;0.324331
9260.000000;0.325199
9259.000000;0.326025
9258.000000;0.326748
9257.000000;0.327451
9256.000000;0.328339
9255.000000;0.329447
9254.000000;0.330502
9253.000000;0.331190
9252.000000;0.331530
9251.000000;0.331886
9250.000000;0.332612
9249.000000;0.333748
9248.000000;0.335045
9247.000000;0.336221
9246.000000;0.337184
9245.000000;0.338050
9244.000000;0.338993
9243.000000;0.340081
9242.000000;0.341241
9241.000000;0.342344
9240.000000;0.343285
9239.000000;0.344019
9238.000000;0.344586
9237.000000;0.345136
9236.000000;0.345848
9235.000000;0.346788
9234.000000;0.347849
9233.000000;0.348851
9232.000000;0.349709
9231.000000;0.350483
9230.000000;0.351324
9229.000000;0.352348
9228.000000;0.353507
9227.000000;0.354565
9226.000000;0.355298
9225.000000;0.355759
9224.000000;0.356295
9223.000000;0.357192
9222.000000;0.358344
9221.000000;0.359350
9220.000000;0.359938
9219.000000;0.360233
9218.000000;0.360604
9217.000000;0.361311
9216.000000;0.362325
9215.000000;0.363426
9214.000000;0.364409
9213.000000;0.365202
9212.000000;0.365862
9211.000000;0.366473
9210.000000;0.367098
9209.000000;0.367785
9208.000000;0.368572
9207.000000;0.369425
9206.000000;0.370207
9205.000000;0.370800
9204.000000;0.371269
9203.000000;0.371827
9202.000000;0.372582
9201.000000;0.373380
9200.000000;0.374007
9199.000000;0.374477
9198.000000;0.375015
9197.000000;0.375774
9196.000000;0.376686
9195.000000;0.377631
9194.000000;0.378607
9193.000000;0.379635
9192.000000;0.380605
9191.000000;0.381365
9190.000000;0.381930
9189.000000;0.382470
9188.000000;0.383090
9187.000000;0.383718
9186.000000;0.384251
9185.000000;0.384679
9184.000000;0.385034
9183.000000;0.385311
9182.000000;0.385509
9181.000000;0.385727
9180.000000;0.386134
9179.000000;0.386839
9178.000000;0.387773
9177.000000;0.388721
9176.000000;0.389459
9175.000000;0.389944
9174.000000;0.390348
9173.000000;0.390881
9172.000000;0.391590
9171.000000;0.392404
9170.000000;0.393289
9169.000000;0.394237
9168.000000;0.395088
9167.000000;0.395570
9166.000000;0.395639
9165.000000;0.395646
9164.000000;0.396042
9163.000000;0.396958
9162.000000;0.398150
9161.000000;0.399266
9160.000000;0.400077
9159.000000;0.400522
9158.000000;0.400700
9157.000000;0.400818
9156.000000;0.401026
9155.000000;0.401295
9154.000000;0.401538
9153.000000;0.401805
9152.000000;0.402240
9151.000000;0.402873
9150.000000;0.403580
9149.000000;0.404276
9148.000000;0.405000
9147.000000;0.405791
9146.000000;0.406592
9145.000000;0.407342
9144.000000;0.408057
9143.000000;0.408750
9142.000000;0.409348
9141.000000;0.409784
9140.000000;0.410106
9139.000000;0.410427
9138.000000;0.410808
9137.000000;0.411265
9136.000000;0.411837
9135.000000;0.412554
9134.000000;0.413333
9133.000000;0.413987
9132.000000;0.414401
9131.000000;0.414651
9130.000000;0.414919
9129.000000;0.415285
9128.000000;0.415689
9127.000000;0.416073
9126.000000;0.416512
9125.000000;0.417110
9124.000000;0.417807
9123.000000;0.418401
9122.000000;0.418783
9121.000000;0.419047
9120.000000;0.419284
9119.000000;0.419378
9118.000000;0.419184
9117.000000;0.418869
9116.000000;0.418883
9115.000000;0.419489
9114.000000;0.420453
9113.000000;0.421296
9112.000000;0.421789
9111.000000;0.422082
9110.000000;0.422429
9109.000000;0.422920
9108.000000;0.423520
9107.000000;0.424196
9106.000000;0.424916
9105.000000;0.425573
9104.000000;0.426035
9103.000000;0.426287
9102.000000;0.426439
9101.000000;0.426575
9100.000000;0.426658
9099.000000;0.426631
9098.000000;0.426583
9097.000000;0.426711
9096.000000;0.427121
9095.000000;0.427731
9094.000000;0.428387
9093.000000;0.428992
9092.000000;0.429504
9091.000000;0.429873
9090.000000;0.430071
9089.000000;0.430182
9088.000000;0.430353
9087.000000;0.430661
9086.000000;0.431061
9085.000000;0.431486
9084.000000;0.431938
9083.000000;0.432453
9082.000000;0.433015
9081.000000;0.433555
9080.000000;0.434035
9079.000000;0.434486
9078.000000;0.434950
9077.000000;0.435382
9076.000000;0.435645
9075.000000;0.435654
9074.000000;0.435524
9073.000000;0.435523
9072.000000;0.435817
9071.000000;0.436286
9070.000000;0.436642
9069.000000;0.436741
9068.000000;0.436734
9067.000000;0.436906
9066.000000;0.437362
9065.000000;0.437931
9064.000000;0.438369
9063.000000;0.438624
9062.000000;0.438857
9061.000000;0.439216
9060.000000;0.439649
9059.000000;0.439999
9058.000000;0.440201
9057.000000;0.440328
9056.000000;0.440465
9055.000000;0.440641
9054.000000;0.440890
9053.000000;0.441241
