Criado como novo conjunto de dados;"0307_DANIEL.spp","33123.9 Secs"
cm-1;Abs
10000.000000;1.147612
9999.000000;1.145964
9998.000000;1.144322
9997.000000;1.142686
9996.000000;1.141058
9995.000000;1.139433
9994.000000;1.137822
9993.000000;1.136270
9992.000000;1.134911
9991.000000;1.133880
9990.000000;1.132961
9989.000000;1.131870
9988.000000;1.130770
9987.000000;1.130030
9986.000000;1.129432
9985.000000;1.128251
9984.000000;1.126307
9983.000000;1.124358
9982.000000;1.123066
9981.000000;1.122140
9980.000000;1.120925
9979.000000;1.119404
9978.000000;1.118081
9977.000000;1.117151
9976.000000;1.116325
9975.000000;1.115317
9974.000000;1.114050
9973.000000;1.112489
9972.000000;1.110710
9971.000000;1.109102
9970.000000;1.108060
9969.000000;1.107471
9968.000000;1.106801
9967.000000;1.105703
9966.000000;1.104252
9965.000000;1.102615
9964.000000;1.100851
9963.000000;1.099107
9962.000000;1.097668
9961.000000;1.096648
9960.000000;1.095804
9959.000000;1.094757
9958.000000;1.093299
9957.000000;1.091457
9956.000000;1.089441
9955.000000;1.087606
9954.000000;1.086333
9953.000000;1.085758
9952.000000;1.085596
9951.000000;1.085332
9950.000000;1.084636
9949.000000;1.083563
9948.000000;1.082328
9947.000000;1.080988
9946.000000;1.079485
9945.000000;1.077922
9944.000000;1.076531
9943.000000;1.075260
9942.000000;1.073657
9941.000000;1.071443
9940.000000;1.069056
9939.000000;1.067299
9938.000000;1.066445
9937.000000;1.065958
9936.000000;1.065125
9935.000000;1.063760
9934.000000;1.062250
9933.000000;1.061102
9932.000000;1.060512
9931.000000;1.060203
9930.000000;1.059630
9929.000000;1.058470
9928.000000;1.056917
9927.000000;1.055397
9926.000000;1.054096
9925.000000;1.052951
9924.000000;1.051938
9923.000000;1.051043
9922.000000;1.049998
9921.000000;1.048462
9920.000000;1.046494
9919.000000;1.044515
9918.000000;1.042752
9917.000000;1.041082
9916.000000;1.039470
9915.000000;1.038170
9914.000000;1.037317
9913.000000;1.036638
9912.000000;1.035778
9911.000000;1.034656
9910.000000;1.033341
9909.000000;1.031823
9908.000000;1.030125
9907.000000;1.028433
9906.000000;1.026925
9905.000000;1.025609
9904.000000;1.024414
9903.000000;1.023271
9902.000000;1.021991
9901.000000;1.020324
9900.000000;1.018276
9899.000000;1.016214
9898.000000;1.014551
9897.000000;1.013454
9896.000000;1.012824
9895.000000;1.012330
9894.000000;1.011472
9893.000000;1.009932
9892.000000;1.007979
9891.000000;1.006236
9890.000000;1.004945
9889.000000;1.003765
9888.000000;1.002373
9887.000000;1.000918
9886.000000;0.999651
9885.000000;0.998472
9884.000000;0.997097
9883.000000;0.995482
9882.000000;0.993842
9881.000000;0.992411
9880.000000;0.991325
9879.000000;0.990576
9878.000000;0.989920
9877.000000;0.988992
9876.000000;0.987691
9875.000000;0.986268
9874.000000;0.984910
9873.000000;0.983442
9872.000000;0.981586
9871.000000;0.979323
9870.000000;0.976873
9869.000000;0.974510
9868.000000;0.972544
9867.000000;0.971242
9866.000000;0.970511
9865.000000;0.969827
9864.000000;0.968659
9863.000000;0.966941
9862.000000;0.965012
9861.000000;0.963245
9860.000000;0.961811
9859.000000;0.960619
9858.000000;0.959361
9857.000000;0.957759
9856.000000;0.955910
9855.000000;0.954232
9854.000000;0.953008
9853.000000;0.952135
9852.000000;0.951346
9851.000000;0.950453
9850.000000;0.949292
9849.000000;0.947742
9848.000000;0.945947
9847.000000;0.944275
9846.000000;0.942901
9845.000000;0.941627
9844.000000;0.940198
9843.000000;0.938566
9842.000000;0.936745
9841.000000;0.934753
9840.000000;0.932850
9839.000000;0.931474
9838.000000;0.930650
9837.000000;0.929756
9836.000000;0.928183
9835.000000;0.926033
9834.000000;0.923874
9833.000000;0.922040
9832.000000;0.920540
9831.000000;0.919405
9830.000000;0.918682
9829.000000;0.918101
9828.000000;0.917166
9827.000000;0.915645
9826.000000;0.913740
9825.000000;0.911731
9824.000000;0.909705
9823.000000;0.907661
9822.000000;0.905656
9821.000000;0.903779
9820.000000;0.902152
9819.000000;0.900961
9818.000000;0.900283
9817.000000;0.899793
9816.000000;0.898864
9815.000000;0.897119
9814.000000;0.894831
9813.000000;0.892620
9812.000000;0.890808
9811.000000;0.889196
9810.000000;0.887478
9809.000000;0.885661
9808.000000;0.883965
9807.000000;0.882412
9806.000000;0.880765
9805.000000;0.878898
9804.000000;0.877020
9803.000000;0.875417
9802.000000;0.874105
9801.000000;0.872906
9800.000000;0.871709
9799.000000;0.870480
9798.000000;0.869124
9797.000000;0.867565
9796.000000;0.865872
9795.000000;0.864162
9794.000000;0.862439
9793.000000;0.860690
9792.000000;0.859015
9791.000000;0.857470
9790.000000;0.855919
9789.000000;0.854290
9788.000000;0.852801
9787.000000;0.851657
9786.000000;0.850623
9785.000000;0.849244
9784.000000;0.847365
9783.000000;0.845139
9782.000000;0.842688
9781.000000;0.840173
9780.000000;0.838054
9779.000000;0.836694
9778.000000;0.835723
9777.000000;0.834333
9776.000000;0.832347
9775.000000;0.830470
9774.000000;0.829258
9773.000000;0.828366
9772.000000;0.827090
9771.000000;0.825245
9770.000000;0.823121
9769.000000;0.820909
9768.000000;0.818596
9767.000000;0.816277
9766.000000;0.814218
9765.000000;0.812656
9764.000000;0.811653
9763.000000;0.811015
9762.000000;0.810278
9761.000000;0.808996
9760.000000;0.807189
9759.000000;0.805274
9758.000000;0.803459
9757.000000;0.801496
9756.000000;0.799183
9755.000000;0.796795
9754.000000;0.794771
9753.000000;0.793219
9752.000000;0.791911
9751.000000;0.790542
9750.000000;0.788844
9749.000000;0.786726
9748.000000;0.784482
9747.000000;0.782581
9746.000000;0.781036
9745.000000;0.779274
9744.000000;0.776916
9743.000000;0.774386
9742.000000;0.772418
9741.000000;0.771160
9740.000000;0.770122
9739.000000;0.768836
9738.000000;0.767222
9737.000000;0.765416
9736.000000;0.763598
9735.000000;0.761982
9734.000000;0.760657
9733.000000;0.759390
9732.000000;0.757773
9731.000000;0.755596
9730.000000;0.752964
9729.000000;0.750109
9728.000000;0.747300
9727.000000;0.744876
9726.000000;0.743140
9725.000000;0.742125
9724.000000;0.741508
9723.000000;0.740762
9722.000000;0.739449
9721.000000;0.737504
9720.000000;0.735270
9719.000000;0.733110
9718.000000;0.730976
9717.000000;0.728561
9716.000000;0.725887
9715.000000;0.723439
9714.000000;0.721559
9713.000000;0.720004
9712.000000;0.718322
9711.000000;0.716435
9710.000000;0.714559
9709.000000;0.712730
9708.000000;0.710791
9707.000000;0.708770
9706.000000;0.706918
9705.000000;0.705322
9704.000000;0.703728
9703.000000;0.701830
9702.000000;0.699577
9701.000000;0.697153
9700.000000;0.694814
9699.000000;0.692759
9698.000000;0.691019
9697.000000;0.689386
9696.000000;0.687568
9695.000000;0.685468
9694.000000;0.683268
9693.000000;0.681211
9692.000000;0.679328
9691.000000;0.677441
9690.000000;0.675412
9689.000000;0.673340
9688.000000;0.671460
9687.000000;0.669834
9686.000000;0.668234
9685.000000;0.666398
9684.000000;0.664314
9683.000000;0.662141
9682.000000;0.659942
9681.000000;0.657681
9680.000000;0.655443
9679.000000;0.653446
9678.000000;0.651778
9677.000000;0.650268
9676.000000;0.648658
9675.000000;0.646770
9674.000000;0.644506
9673.000000;0.641898
9672.000000;0.639202
9671.000000;0.636772
9670.000000;0.634738
9669.000000;0.632904
9668.000000;0.631018
9667.000000;0.629025
9666.000000;0.627029
9665.000000;0.625148
9664.000000;0.623441
9663.000000;0.621835
9662.000000;0.620072
9661.000000;0.617878
9660.000000;0.615220
9659.000000;0.612323
9658.000000;0.609442
9657.000000;0.606787
9656.000000;0.604583
9655.000000;0.602921
9654.000000;0.601470
9653.000000;0.599645
9652.000000;0.597232
9651.000000;0.594686
9650.000000;0.592627
9649.000000;0.591128
9648.000000;0.589612
9647.000000;0.587390
9646.000000;0.584277
9645.000000;0.580800
9644.000000;0.577826
9643.000000;0.575897
9642.000000;0.574811
9641.000000;0.573885
9640.000000;0.572594
9639.000000;0.570860
9638.000000;0.568806
9637.000000;0.566492
9636.000000;0.563957
9635.000000;0.561314
9634.000000;0.558701
9633.000000;0.556204
9632.000000;0.553865
9631.000000;0.551650
9630.000000;0.549434
9629.000000;0.547184
9628.000000;0.545071
9627.000000;0.543228
9626.000000;0.541436
9625.000000;0.539309
9624.000000;0.536797
9623.000000;0.534223
9622.000000;0.531788
9621.000000;0.529338
9620.000000;0.526731
9619.000000;0.524162
9618.000000;0.521986
9617.000000;0.520363
9616.000000;0.519162
9615.000000;0.518017
9614.000000;0.516419
9613.000000;0.513983
9612.000000;0.510796
9611.000000;0.507363
9610.000000;0.504158
9609.000000;0.501354
9608.000000;0.498949
9607.000000;0.496898
9606.000000;0.495031
9605.000000;0.493084
9604.000000;0.490932
9603.000000;0.488655
9602.000000;0.486350
9601.000000;0.484024
9600.000000;0.481693
9599.000000;0.479358
9598.000000;0.476880
9597.000000;0.474130
9596.000000;0.471292
9595.000000;0.468750
9594.000000;0.466604
9593.000000;0.464604
9592.000000;0.462591
9591.000000;0.460639
9590.000000;0.458647
9589.000000;0.456240
9588.000000;0.453324
9587.000000;0.450402
9586.000000;0.448001
9585.000000;0.446023
9584.000000;0.444005
9583.000000;0.441805
9582.000000;0.439676
9581.000000;0.437764
9580.000000;0.435875
9579.000000;0.433753
9578.000000;0.431300
9577.000000;0.428535
9576.000000;0.425583
9575.000000;0.422761
9574.000000;0.420446
9573.000000;0.418708
9572.000000;0.417143
9571.000000;0.415156
9570.000000;0.412467
9569.000000;0.409378
9568.000000;0.406492
9567.000000;0.404133
9566.000000;0.402049
9565.000000;0.399740
9564.000000;0.397019
9563.000000;0.394154
9562.000000;0.391516
9561.000000;0.389286
9560.000000;0.387446
9559.000000;0.385814
9558.000000;0.384066
9557.000000;0.381909
9556.000000;0.379334
9555.000000;0.376556
9554.000000;0.373732
9553.000000;0.370938
9552.000000;0.368376
9551.000000;0.366277
9550.000000;0.364531
9549.000000;0.362687
9548.000000;0.360474
9547.000000;0.358104
9546.000000;0.355936
9545.000000;0.354037
9544.000000;0.352234
9543.000000;0.350391
9542.000000;0.348435
9541.000000;0.346277
9540.000000;0.343893
9539.000000;0.341415
9538.000000;0.339005
9537.000000;0.336700
9536.000000;0.334438
9535.000000;0.332134
9534.000000;0.329686
9533.000000;0.327056
9532.000000;0.324440
9531.000000;0.322185
9530.000000;0.320454
9529.000000;0.319052
9528.000000;0.317626
9527.000000;0.315924
9526.000000;0.313851
9525.000000;0.311478
9524.000000;0.309053
9523.000000;0.306832
9522.000000;0.304783
9521.000000;0.302614
9520.000000;0.300163
9519.000000;0.297585
9518.000000;0.295116
9517.000000;0.292856
9516.000000;0.290870
9515.000000;0.289283
9514.000000;0.288087
9513.000000;0.287030
9512.000000;0.285818
9511.000000;0.284311
9510.000000;0.282456
9509.000000;0.280209
9508.000000;0.277680
9507.000000;0.275215
9506.000000;0.273202
9505.000000;0.271823
9504.000000;0.270990
9503.000000;0.270357
9502.000000;0.269427
9501.000000;0.267862
9500.000000;0.265757
9499.000000;0.263441
9498.000000;0.261034
9497.000000;0.258481
9496.000000;0.256026
9495.000000;0.254240
9494.000000;0.253364
9493.000000;0.252925
9492.000000;0.252189
9491.000000;0.250821
9490.000000;0.248936
9489.000000;0.246809
9488.000000;0.244791
9487.000000;0.243273
9486.000000;0.242363
9485.000000;0.241680
9484.000000;0.240718
9483.000000;0.239367
9482.000000;0.237880
9481.000000;0.236461
9480.000000;0.235117
9479.000000;0.233828
9478.000000;0.232640
9477.000000;0.231600
9476.000000;0.230742
9475.000000;0.230087
9474.000000;0.229535
9473.000000;0.228851
9472.000000;0.227918
9471.000000;0.226894
9470.000000;0.225956
9469.000000;0.225003
9468.000000;0.223798
9467.000000;0.222330
9466.000000;0.220858
9465.000000;0.219635
9464.000000;0.218755
9463.000000;0.218221
9462.000000;0.217973
9461.000000;0.217865
9460.000000;0.217736
9459.000000;0.217521
9458.000000;0.217199
9457.000000;0.216691
9456.000000;0.215916
9455.000000;0.214923
9454.000000;0.213874
9453.000000;0.212924
9452.000000;0.212161
9451.000000;0.211612
9450.000000;0.211230
9449.000000;0.210965
9448.000000;0.210877
9447.000000;0.211071
9446.000000;0.211451
9445.000000;0.211690
9444.000000;0.211581
9443.000000;0.211263
9442.000000;0.210980
9441.000000;0.210733
9440.000000;0.210392
9439.000000;0.210055
9438.000000;0.210034
9437.000000;0.210448
9436.000000;0.211015
9435.000000;0.211331
9434.000000;0.211281
9433.000000;0.211133
9432.000000;0.211266
9431.000000;0.211815
9430.000000;0.212574
9429.000000;0.213231
9428.000000;0.213669
9427.000000;0.214012
9426.000000;0.214404
9425.000000;0.214848
9424.000000;0.215252
9423.000000;0.215544
9422.000000;0.215720
9421.000000;0.215869
9420.000000;0.216163
9419.000000;0.216712
9418.000000;0.217406
9417.000000;0.218013
9416.000000;0.218443
9415.000000;0.218800
9414.000000;0.219165
9413.000000;0.219518
9412.000000;0.219919
9411.000000;0.220568
9410.000000;0.221565
9409.000000;0.222750
9408.000000;0.223887
9407.000000;0.224889
9406.000000;0.225756
9405.000000;0.226469
9404.000000;0.227071
9403.000000;0.227720
9402.000000;0.228536
9401.000000;0.229460
9400.000000;0.230374
9399.000000;0.231242
9398.000000;0.232023
9397.000000;0.232603
9396.000000;0.232946
9395.000000;0.233231
9394.000000;0.233700
9393.000000;0.234459
9392.000000;0.235533
9391.000000;0.236961
9390.000000;0.238644
9389.000000;0.240192
9388.000000;0.241180
9387.000000;0.241611
9386.000000;0.241949
9385.000000;0.242652
9384.000000;0.243774
9383.000000;0.245052
9382.000000;0.246273
9381.000000;0.247464
9380.000000;0.248742
9379.000000;0.250075
9378.000000;0.251248
9377.000000;0.252107
9376.000000;0.252770
9375.000000;0.253533
9374.000000;0.254574
9373.000000;0.255858
9372.000000;0.257273
9371.000000;0.258729
9370.000000;0.260086
9369.000000;0.261152
9368.000000;0.261847
9367.000000;0.262318
9366.000000;0.262847
9365.000000;0.263684
9364.000000;0.264975
9363.000000;0.266679
9362.000000;0.268510
9361.000000;0.270071
9360.000000;0.271173
9359.000000;0.271983
9358.000000;0.272819
9357.000000;0.273856
9356.000000;0.275080
9355.000000;0.276438
9354.000000;0.277929
9353.000000;0.279537
9352.000000;0.281115
9351.000000;0.282389
9350.000000;0.283180
9349.000000;0.283674
9348.000000;0.284335
9347.000000;0.285461
9346.000000;0.286891
9345.000000;0.288291
9344.000000;0.289603
9343.000000;0.290985
9342.000000;0.292431
9341.000000;0.293740
9340.000000;0.294879
9339.000000;0.296063
9338.000000;0.297396
9337.000000;0.298694
9336.000000;0.299745
9335.000000;0.300568
9334.000000;0.301320
9333.000000;0.302161
9332.000000;0.303253
9331.000000;0.304666
9330.000000;0.306166
9329.000000;0.307353
9328.000000;0.308122
9327.000000;0.308796
9326.000000;0.309680
9325.000000;0.310723
9324.000000;0.311781
9323.000000;0.312944
9322.000000;0.314353
9321.000000;0.315870
9320.000000;0.317227
9319.000000;0.318420
9318.000000;0.319713
9317.000000;0.321268
9316.000000;0.322929
9315.000000;0.324374
9314.000000;0.325384
9313.000000;0.326003
9312.000000;0.326523
9311.000000;0.327263
9310.000000;0.328299
9309.000000;0.329492
9308.000000;0.330782
9307.000000;0.332262
9306.000000;0.333887
9305.000000;0.335302
9304.000000;0.336189
9303.000000;0.336670
9302.000000;0.337204
9301.000000;0.338112
9300.000000;0.339363
9299.000000;0.340717
9298.000000;0.341941
9297.000000;0.342910
9296.000000;0.343650
9295.000000;0.344292
9294.000000;0.344947
9293.000000;0.345658
9292.000000;0.346506
9291.000000;0.347640
9290.000000;0.349110
9289.000000;0.350733
9288.000000;0.352216
9287.000000;0.353396
9286.000000;0.354324
9285.000000;0.355203
9284.000000;0.356273
9283.000000;0.357621
9282.000000;0.359053
9281.000000;0.360261
9280.000000;0.361174
9279.000000;0.362023
9278.000000;0.362997
9277.000000;0.364022
9276.000000;0.364966
9275.000000;0.365874
9274.000000;0.366872
9273.000000;0.367962
9272.000000;0.369078
9271.000000;0.370236
9270.000000;0.371460
9269.000000;0.372657
9268.000000;0.373702
9267.000000;0.374614
9266.000000;0.375497
9265.000000;0.376393
9264.000000;0.377293
9263.000000;0.378242
9262.000000;0.379276
9261.000000;0.380286
9260.000000;0.381088
9259.000000;0.381626
9258.000000;0.382028
9257.000000;0.382486
9256.000000;0.383111
9255.000000;0.383886
9254.000000;0.384686
9253.000000;0.385422
9252.000000;0.386189
9251.000000;0.387200
9250.000000;0.388519
9249.000000;0.389928
9248.000000;0.391141
9247.000000;0.392054
9246.000000;0.392753
9245.000000;0.393382
9244.000000;0.394091
9243.000000;0.395006
9242.000000;0.396131
9241.000000;0.397320
9240.000000;0.398426
9239.000000;0.399425
9238.000000;0.400382
9237.000000;0.401343
9236.000000;0.402306
9235.000000;0.403224
9234.000000;0.404008
9233.000000;0.404623
9232.000000;0.405199
9231.000000;0.405936
9230.000000;0.406860
9229.000000;0.407826
9228.000000;0.408775
9227.000000;0.409819
9226.000000;0.410974
9225.000000;0.412021
9224.000000;0.412776
9223.000000;0.413349
9222.000000;0.413983
9221.000000;0.414744
9220.000000;0.415537
9219.000000;0.416313
9218.000000;0.417080
9217.000000;0.417779
9216.000000;0.418327
9215.000000;0.418768
9214.000000;0.419252
9213.000000;0.419893
9212.000000;0.420714
9211.000000;0.421685
9210.000000;0.422691
9209.000000;0.423533
9208.000000;0.424111
9207.000000;0.424565
9206.000000;0.425114
9205.000000;0.425781
9204.000000;0.426386
9203.000000;0.426806
9202.000000;0.427130
9201.000000;0.427567
9200.000000;0.428263
9199.000000;0.429219
9198.000000;0.430297
9197.000000;0.431316
9196.000000;0.432203
9195.000000;0.433030
9194.000000;0.433877
9193.000000;0.434694
9192.000000;0.435380
9191.000000;0.435924
9190.000000;0.436404
9189.000000;0.436885
9188.000000;0.437402
9187.000000;0.438012
9186.000000;0.438779
9185.000000;0.439712
9184.000000;0.440742
9183.000000;0.441720
9182.000000;0.442422
9181.000000;0.442678
9180.000000;0.442600
9179.000000;0.442635
9178.000000;0.443223
9177.000000;0.444366
9176.000000;0.445612
9175.000000;0.446484
9174.000000;0.446886
9173.000000;0.447098
9172.000000;0.447461
9171.000000;0.448076
9170.000000;0.448782
9169.000000;0.449364
9168.000000;0.449783
9167.000000;0.450197
9166.000000;0.450764
9165.000000;0.451457
9164.000000;0.452120
9163.000000;0.452676
9162.000000;0.453223
9161.000000;0.453896
9160.000000;0.454675
9159.000000;0.455393
9158.000000;0.455945
9157.000000;0.456423
9156.000000;0.456994
9155.000000;0.457660
9154.000000;0.458263
9153.000000;0.458722
9152.000000;0.459157
9151.000000;0.459706
9150.000000;0.460322
9149.000000;0.460857
9148.000000;0.461300
9147.000000;0.461800
9146.000000;0.462468
9145.000000;0.463240
9144.000000;0.463950
9143.000000;0.464492
9142.000000;0.464903
9141.000000;0.465333
9140.000000;0.465891
9139.000000;0.466518
9138.000000;0.467043
9137.000000;0.467403
9136.000000;0.467724
9135.000000;0.468123
9134.000000;0.468556
9133.000000;0.468957
9132.000000;0.469403
9131.000000;0.469988
9130.000000;0.470606
9129.000000;0.471035
9128.000000;0.471226
9127.000000;0.471374
9126.000000;0.471712
9125.000000;0.472329
9124.000000;0.473140
9123.000000;0.473921
9122.000000;0.474442
9121.000000;0.474687
9120.000000;0.474880
9119.000000;0.475158
9118.000000;0.475375
9117.000000;0.475414
9116.000000;0.475558
9115.000000;0.476225
9114.000000;0.477342
9113.000000;0.478304
9112.000000;0.478652
9111.000000;0.478551
9110.000000;0.478503
9109.000000;0.478802
9108.000000;0.479400
9107.000000;0.480098
9106.000000;0.480704
9105.000000;0.481124
9104.000000;0.481450
9103.000000;0.481896
9102.000000;0.482537
9101.000000;0.483194
9100.000000;0.483648
9099.000000;0.483864
9098.000000;0.483965
9097.000000;0.484063
9096.000000;0.484209
9095.000000;0.484450
9094.000000;0.484825
9093.000000;0.485322
9092.000000;0.485844
9091.000000;0.486234
9090.000000;0.486396
9089.000000;0.486442
9088.000000;0.486652
9087.000000;0.487148
9086.000000;0.487702
9085.000000;0.488010
9084.000000;0.488099
9083.000000;0.488272
9082.000000;0.488649
9081.000000;0.489010
9080.000000;0.489145
9079.000000;0.489152
9078.000000;0.489290
9077.000000;0.489684
9076.000000;0.490245
9075.000000;0.490793
9074.000000;0.491178
9073.000000;0.491379
9072.000000;0.491543
9071.000000;0.491824
9070.000000;0.492192
9069.000000;0.492510
9068.000000;0.492785
9067.000000;0.493180
9066.000000;0.493751
9065.000000;0.494357
9064.000000;0.494881
9063.000000;0.495371
9062.000000;0.495874
9061.000000;0.496285
9060.000000;0.496493
9059.000000;0.496560
9058.000000;0.496649
9057.000000;0.496843
9056.000000;0.497115
9055.000000;0.497401
9054.000000;0.497645
9053.000000;0.497820
