Criado como novo conjunto de dados;"0307_DANIEL.spp","46444.7 Secs"
cm-1;Abs
10000.000000;1.120959
9999.000000;1.118894
9998.000000;1.116840
9997.000000;1.114795
9996.000000;1.112760
9995.000000;1.110734
9994.000000;1.108718
9993.000000;1.106710
9992.000000;1.104715
9991.000000;1.102673
9990.000000;1.100867
9989.000000;1.099370
9988.000000;1.098071
9987.000000;1.096973
9986.000000;1.096165
9985.000000;1.095483
9984.000000;1.094525
9983.000000;1.093171
9982.000000;1.091813
9981.000000;1.090850
9980.000000;1.090117
9979.000000;1.089132
9978.000000;1.087804
9977.000000;1.086548
9976.000000;1.085658
9975.000000;1.084873
9974.000000;1.083737
9973.000000;1.082163
9972.000000;1.080477
9971.000000;1.078978
9970.000000;1.077660
9969.000000;1.076327
9968.000000;1.074886
9967.000000;1.073455
9966.000000;1.072214
9965.000000;1.071164
9964.000000;1.070092
9963.000000;1.068828
9962.000000;1.067490
9961.000000;1.066334
9960.000000;1.065405
9959.000000;1.064471
9958.000000;1.063313
9957.000000;1.061894
9956.000000;1.060282
9955.000000;1.058610
9954.000000;1.057163
9953.000000;1.056267
9952.000000;1.055913
9951.000000;1.055665
9950.000000;1.055095
9949.000000;1.054189
9948.000000;1.053190
9947.000000;1.052218
9946.000000;1.051214
9945.000000;1.050087
9944.000000;1.048662
9943.000000;1.046636
9942.000000;1.043931
9941.000000;1.041092
9940.000000;1.038972
9939.000000;1.037899
9938.000000;1.037356
9937.000000;1.036617
9936.000000;1.035505
9935.000000;1.034371
9934.000000;1.033448
9933.000000;1.032532
9932.000000;1.031308
9931.000000;1.029801
9930.000000;1.028359
9929.000000;1.027272
9928.000000;1.026526
9927.000000;1.025911
9926.000000;1.025207
9925.000000;1.024174
9924.000000;1.022558
9923.000000;1.020367
9922.000000;1.018117
9921.000000;1.016474
9920.000000;1.015541
9919.000000;1.014710
9918.000000;1.013356
9917.000000;1.011480
9916.000000;1.009482
9915.000000;1.007586
9914.000000;1.005838
9913.000000;1.004440
9912.000000;1.003611
9911.000000;1.003095
9910.000000;1.002251
9909.000000;1.000802
9908.000000;0.999170
9907.000000;0.997896
9906.000000;0.997001
9905.000000;0.996097
9904.000000;0.994890
9903.000000;0.993324
9902.000000;0.991447
9901.000000;0.989430
9900.000000;0.987648
9899.000000;0.986434
9898.000000;0.985733
9897.000000;0.985138
9896.000000;0.984284
9895.000000;0.983057
9894.000000;0.981448
9893.000000;0.979423
9892.000000;0.977072
9891.000000;0.974767
9890.000000;0.973004
9889.000000;0.972029
9888.000000;0.971635
9887.000000;0.971339
9886.000000;0.970771
9885.000000;0.969828
9884.000000;0.968495
9883.000000;0.966692
9882.000000;0.964478
9881.000000;0.962292
9880.000000;0.960700
9879.000000;0.959798
9878.000000;0.959034
9877.000000;0.957738
9876.000000;0.955752
9875.000000;0.953491
9874.000000;0.951517
9873.000000;0.950136
9872.000000;0.949268
9871.000000;0.948513
9870.000000;0.947418
9869.000000;0.945815
9868.000000;0.943921
9867.000000;0.942068
9866.000000;0.940422
9865.000000;0.939004
9864.000000;0.937804
9863.000000;0.936725
9862.000000;0.935519
9861.000000;0.934005
9860.000000;0.932323
9859.000000;0.930821
9858.000000;0.929649
9857.000000;0.928573
9856.000000;0.927242
9855.000000;0.925570
9854.000000;0.923793
9853.000000;0.922205
9852.000000;0.920858
9851.000000;0.919542
9850.000000;0.918064
9849.000000;0.916463
9848.000000;0.914907
9847.000000;0.913422
9846.000000;0.911912
9845.000000;0.910437
9844.000000;0.909260
9843.000000;0.908467
9842.000000;0.907670
9841.000000;0.906283
9840.000000;0.904067
9839.000000;0.901319
9838.000000;0.898615
9837.000000;0.896425
9836.000000;0.894897
9835.000000;0.893815
9834.000000;0.892805
9833.000000;0.891652
9832.000000;0.890379
9831.000000;0.889009
9830.000000;0.887448
9829.000000;0.885757
9828.000000;0.884312
9827.000000;0.883400
9826.000000;0.882717
9825.000000;0.881581
9824.000000;0.879679
9823.000000;0.877373
9822.000000;0.875206
9821.000000;0.873392
9820.000000;0.871911
9819.000000;0.870765
9818.000000;0.869902
9817.000000;0.869020
9816.000000;0.867742
9815.000000;0.865978
9814.000000;0.863928
9813.000000;0.861766
9812.000000;0.859534
9811.000000;0.857394
9810.000000;0.855761
9809.000000;0.854968
9808.000000;0.854794
9807.000000;0.854484
9806.000000;0.853339
9805.000000;0.851304
9804.000000;0.848898
9803.000000;0.846623
9802.000000;0.844538
9801.000000;0.842467
9800.000000;0.840465
9799.000000;0.838894
9798.000000;0.837975
9797.000000;0.837406
9796.000000;0.836525
9795.000000;0.834850
9794.000000;0.832428
9793.000000;0.829729
9792.000000;0.827306
9791.000000;0.825541
9790.000000;0.824489
9789.000000;0.823778
9788.000000;0.822725
9787.000000;0.820798
9786.000000;0.818122
9785.000000;0.815433
9784.000000;0.813402
9783.000000;0.812020
9782.000000;0.810717
9781.000000;0.809022
9780.000000;0.806949
9779.000000;0.804786
9778.000000;0.802762
9777.000000;0.801018
9776.000000;0.799674
9775.000000;0.798715
9774.000000;0.797893
9773.000000;0.796905
9772.000000;0.795650
9771.000000;0.794192
9770.000000;0.792553
9769.000000;0.790705
9768.000000;0.788759
9767.000000;0.786949
9766.000000;0.785377
9765.000000;0.783886
9764.000000;0.782237
9763.000000;0.780333
9762.000000;0.778250
9761.000000;0.776151
9760.000000;0.774234
9759.000000;0.772658
9758.000000;0.771433
9757.000000;0.770381
9756.000000;0.769231
9755.000000;0.767778
9754.000000;0.765965
9753.000000;0.763869
9752.000000;0.761634
9751.000000;0.759379
9750.000000;0.757164
9749.000000;0.755047
9748.000000;0.753124
9747.000000;0.751459
9746.000000;0.749960
9745.000000;0.748428
9744.000000;0.746726
9743.000000;0.744865
9742.000000;0.742901
9741.000000;0.740849
9740.000000;0.738759
9739.000000;0.736810
9738.000000;0.735175
9737.000000;0.733767
9736.000000;0.732204
9735.000000;0.730150
9734.000000;0.727704
9733.000000;0.725352
9732.000000;0.723485
9731.000000;0.722047
9730.000000;0.720705
9729.000000;0.719251
9728.000000;0.717720
9727.000000;0.716161
9726.000000;0.714516
9725.000000;0.712765
9724.000000;0.711000
9723.000000;0.709240
9722.000000;0.707294
9721.000000;0.704995
9720.000000;0.702476
9719.000000;0.700068
9718.000000;0.697961
9717.000000;0.696113
9716.000000;0.694457
9715.000000;0.693001
9714.000000;0.691698
9713.000000;0.690339
9712.000000;0.688677
9711.000000;0.686630
9710.000000;0.684329
9709.000000;0.682000
9708.000000;0.679808
9707.000000;0.677768
9706.000000;0.675781
9705.000000;0.673772
9704.000000;0.671785
9703.000000;0.669924
9702.000000;0.668256
9701.000000;0.666782
9700.000000;0.665445
9699.000000;0.664101
9698.000000;0.662553
9697.000000;0.660711
9696.000000;0.658657
9695.000000;0.656502
9694.000000;0.654266
9693.000000;0.651975
9692.000000;0.649777
9691.000000;0.647772
9690.000000;0.645825
9689.000000;0.643718
9688.000000;0.641477
9687.000000;0.639337
9686.000000;0.637366
9685.000000;0.635336
9684.000000;0.633064
9683.000000;0.630697
9682.000000;0.628541
9681.000000;0.626700
9680.000000;0.624995
9679.000000;0.623181
9678.000000;0.621148
9677.000000;0.618941
9676.000000;0.616696
9675.000000;0.614552
9674.000000;0.612586
9673.000000;0.610771
9672.000000;0.608989
9671.000000;0.607073
9670.000000;0.604883
9669.000000;0.602444
9668.000000;0.599979
9667.000000;0.597732
9666.000000;0.595767
9665.000000;0.594009
9664.000000;0.592391
9663.000000;0.590843
9662.000000;0.589162
9661.000000;0.587087
9660.000000;0.584594
9659.000000;0.581968
9658.000000;0.579526
9657.000000;0.577354
9656.000000;0.575350
9655.000000;0.573409
9654.000000;0.571463
9653.000000;0.569415
9652.000000;0.567178
9651.000000;0.564757
9650.000000;0.562284
9649.000000;0.559937
9648.000000;0.557819
9647.000000;0.555847
9646.000000;0.553807
9645.000000;0.551614
9644.000000;0.549451
9643.000000;0.547510
9642.000000;0.545614
9641.000000;0.543324
9640.000000;0.540520
9639.000000;0.537655
9638.000000;0.535300
9637.000000;0.533537
9636.000000;0.531940
9635.000000;0.530034
9634.000000;0.527664
9633.000000;0.525025
9632.000000;0.522481
9631.000000;0.520300
9630.000000;0.518397
9629.000000;0.516399
9628.000000;0.514056
9627.000000;0.511524
9626.000000;0.509085
9625.000000;0.506720
9624.000000;0.504199
9623.000000;0.501548
9622.000000;0.499173
9621.000000;0.497419
9620.000000;0.496180
9619.000000;0.495002
9618.000000;0.493477
9617.000000;0.491440
9616.000000;0.488932
9615.000000;0.486125
9614.000000;0.483268
9613.000000;0.480589
9612.000000;0.478176
9611.000000;0.475941
9610.000000;0.473708
9609.000000;0.471372
9608.000000;0.469008
9607.000000;0.466762
9606.000000;0.464605
9605.000000;0.462258
9604.000000;0.459482
9603.000000;0.456411
9602.000000;0.453502
9601.000000;0.451108
9600.000000;0.449195
9599.000000;0.447425
9598.000000;0.445432
9597.000000;0.443016
9596.000000;0.440237
9595.000000;0.437410
9594.000000;0.434909
9593.000000;0.432853
9592.000000;0.430994
9591.000000;0.428980
9590.000000;0.426676
9589.000000;0.424215
9588.000000;0.421791
9587.000000;0.419498
9586.000000;0.417310
9585.000000;0.415147
9584.000000;0.412911
9583.000000;0.410529
9582.000000;0.407989
9581.000000;0.405348
9580.000000;0.402718
9579.000000;0.400220
9578.000000;0.397923
9577.000000;0.395800
9576.000000;0.393743
9575.000000;0.391628
9574.000000;0.389346
9573.000000;0.386822
9572.000000;0.384091
9571.000000;0.381344
9570.000000;0.378816
9569.000000;0.376583
9568.000000;0.374507
9567.000000;0.372399
9566.000000;0.370190
9565.000000;0.367900
9564.000000;0.365509
9563.000000;0.362948
9562.000000;0.360228
9561.000000;0.357537
9560.000000;0.355150
9559.000000;0.353199
9558.000000;0.351508
9557.000000;0.349669
9556.000000;0.347393
9555.000000;0.344776
9554.000000;0.342177
9553.000000;0.339802
9552.000000;0.337496
9551.000000;0.334963
9550.000000;0.332126
9549.000000;0.329234
9548.000000;0.326649
9547.000000;0.324576
9546.000000;0.322910
9545.000000;0.321321
9544.000000;0.319529
9543.000000;0.317542
9542.000000;0.315576
9541.000000;0.313720
9540.000000;0.311784
9539.000000;0.309554
9538.000000;0.307110
9537.000000;0.304754
9536.000000;0.302665
9535.000000;0.300749
9534.000000;0.298798
9533.000000;0.296662
9532.000000;0.294273
9531.000000;0.291645
9530.000000;0.288929
9529.000000;0.286364
9528.000000;0.284097
9527.000000;0.282056
9526.000000;0.280048
9525.000000;0.277975
9524.000000;0.275888
9523.000000;0.273873
9522.000000;0.271941
9521.000000;0.270039
9520.000000;0.268151
9519.000000;0.266355
9518.000000;0.264766
9517.000000;0.263388
9516.000000;0.262049
9515.000000;0.260497
9514.000000;0.258593
9513.000000;0.256414
9512.000000;0.254185
9511.000000;0.252102
9510.000000;0.250187
9509.000000;0.248312
9508.000000;0.246357
9507.000000;0.244341
9506.000000;0.242362
9505.000000;0.240438
9504.000000;0.238475
9503.000000;0.236437
9502.000000;0.234437
9501.000000;0.232614
9500.000000;0.230966
9499.000000;0.229369
9498.000000;0.227745
9497.000000;0.226111
9496.000000;0.224482
9495.000000;0.222800
9494.000000;0.221000
9493.000000;0.219161
9492.000000;0.217546
9491.000000;0.216413
9490.000000;0.215721
9489.000000;0.215045
9488.000000;0.213929
9487.000000;0.212323
9486.000000;0.210581
9485.000000;0.209008
9484.000000;0.207604
9483.000000;0.206265
9482.000000;0.205024
9481.000000;0.203937
9480.000000;0.202922
9479.000000;0.201895
9478.000000;0.200939
9477.000000;0.200103
9476.000000;0.199191
9475.000000;0.197973
9474.000000;0.196560
9473.000000;0.195271
9472.000000;0.194190
9471.000000;0.193147
9470.000000;0.192133
9469.000000;0.191395
9468.000000;0.191005
9467.000000;0.190635
9466.000000;0.189945
9465.000000;0.188994
9464.000000;0.188078
9463.000000;0.187334
9462.000000;0.186691
9461.000000;0.186059
9460.000000;0.185387
9459.000000;0.184620
9458.000000;0.183779
9457.000000;0.183036
9456.000000;0.182565
9455.000000;0.182374
9454.000000;0.182393
9453.000000;0.182611
9452.000000;0.182961
9451.000000;0.183124
9450.000000;0.182690
9449.000000;0.181594
9448.000000;0.180295
9447.000000;0.179422
9446.000000;0.179283
9445.000000;0.179684
9444.000000;0.180163
9443.000000;0.180364
9442.000000;0.180257
9441.000000;0.180083
9440.000000;0.180126
9439.000000;0.180506
9438.000000;0.181102
9437.000000;0.181584
9436.000000;0.181596
9435.000000;0.181024
9434.000000;0.180121
9433.000000;0.179307
9432.000000;0.178854
9431.000000;0.178801
9430.000000;0.179121
9429.000000;0.179754
9428.000000;0.180504
9427.000000;0.181076
9426.000000;0.181358
9425.000000;0.181531
9424.000000;0.181840
9423.000000;0.182361
9422.000000;0.183056
9421.000000;0.183893
9420.000000;0.184797
9419.000000;0.185617
9418.000000;0.186276
9417.000000;0.186861
9416.000000;0.187443
9415.000000;0.187929
9414.000000;0.188203
9413.000000;0.188328
9412.000000;0.188459
9411.000000;0.188679
9410.000000;0.189069
9409.000000;0.189822
9408.000000;0.191038
9407.000000;0.192446
9406.000000;0.193564
9405.000000;0.194216
9404.000000;0.194717
9403.000000;0.195474
9402.000000;0.196527
9401.000000;0.197559
9400.000000;0.198259
9399.000000;0.198593
9398.000000;0.198785
9397.000000;0.199117
9396.000000;0.199766
9395.000000;0.200775
9394.000000;0.202076
9393.000000;0.203484
9392.000000;0.204694
9391.000000;0.205485
9390.000000;0.205997
9389.000000;0.206647
9388.000000;0.207661
9387.000000;0.208804
9386.000000;0.209749
9385.000000;0.210593
9384.000000;0.211762
9383.000000;0.213401
9382.000000;0.215118
9381.000000;0.216397
9380.000000;0.217099
9379.000000;0.217464
9378.000000;0.217806
9377.000000;0.218346
9376.000000;0.219240
9375.000000;0.220547
9374.000000;0.222169
9373.000000;0.223890
9372.000000;0.225515
9371.000000;0.226926
9370.000000;0.228073
9369.000000;0.228976
9368.000000;0.229734
9367.000000;0.230472
9366.000000;0.231271
9365.000000;0.232198
9364.000000;0.233359
9363.000000;0.234849
9362.000000;0.236584
9361.000000;0.238257
9360.000000;0.239583
9359.000000;0.240581
9358.000000;0.241531
9357.000000;0.242613
9356.000000;0.243705
9355.000000;0.244618
9354.000000;0.245428
9353.000000;0.246410
9352.000000;0.247675
9351.000000;0.249029
9350.000000;0.250237
9349.000000;0.251244
9348.000000;0.252103
9347.000000;0.252878
9346.000000;0.253741
9345.000000;0.254982
9344.000000;0.256733
9343.000000;0.258736
9342.000000;0.260567
9341.000000;0.262017
9340.000000;0.263165
9339.000000;0.264128
9338.000000;0.264968
9337.000000;0.265793
9336.000000;0.266742
9335.000000;0.267807
9334.000000;0.268815
9333.000000;0.269658
9332.000000;0.270427
9331.000000;0.271291
9330.000000;0.272342
9329.000000;0.273569
9328.000000;0.274877
9327.000000;0.276096
9326.000000;0.277087
9325.000000;0.277938
9324.000000;0.278961
9323.000000;0.280394
9322.000000;0.282138
9321.000000;0.283829
9320.000000;0.285156
9319.000000;0.286083
9318.000000;0.286826
9317.000000;0.287679
9316.000000;0.288841
9315.000000;0.290334
9314.000000;0.291990
9313.000000;0.293528
9312.000000;0.294702
9311.000000;0.295502
9310.000000;0.296235
9309.000000;0.297310
9308.000000;0.298838
9307.000000;0.300479
9306.000000;0.301769
9305.000000;0.302585
9304.000000;0.303208
9303.000000;0.303964
9302.000000;0.304882
9301.000000;0.305744
9300.000000;0.306380
9299.000000;0.306908
9298.000000;0.307665
9297.000000;0.308883
9296.000000;0.310427
9295.000000;0.311932
9294.000000;0.313202
9293.000000;0.314394
9292.000000;0.315735
9291.000000;0.317179
9290.000000;0.318471
9289.000000;0.319464
9288.000000;0.320206
9287.000000;0.320794
9286.000000;0.321303
9285.000000;0.321874
9284.000000;0.322669
9283.000000;0.323722
9282.000000;0.324922
9281.000000;0.326178
9280.000000;0.327473
9279.000000;0.328752
9278.000000;0.329913
9277.000000;0.330932
9276.000000;0.331900
9275.000000;0.332890
9274.000000;0.333882
9273.000000;0.334856
9272.000000;0.335859
9271.000000;0.336940
9270.000000;0.338093
9269.000000;0.339273
9268.000000;0.340388
9267.000000;0.341285
9266.000000;0.341882
9265.000000;0.342354
9264.000000;0.343032
9263.000000;0.344070
9262.000000;0.345290
9261.000000;0.346411
9260.000000;0.347318
9259.000000;0.348083
9258.000000;0.348835
9257.000000;0.349711
9256.000000;0.350834
9255.000000;0.352213
9254.000000;0.353677
9253.000000;0.354975
9252.000000;0.355924
9251.000000;0.356517
9250.000000;0.356966
9249.000000;0.357621
9248.000000;0.358700
9247.000000;0.360036
9246.000000;0.361199
9245.000000;0.361934
9244.000000;0.362415
9243.000000;0.363005
9242.000000;0.363882
9241.000000;0.364960
9240.000000;0.366058
9239.000000;0.367025
9238.000000;0.367791
9237.000000;0.368399
9236.000000;0.368981
9235.000000;0.369606
9234.000000;0.370222
9233.000000;0.370801
9232.000000;0.371507
9231.000000;0.372584
9230.000000;0.374081
9229.000000;0.375736
9228.000000;0.377166
9227.000000;0.378144
9226.000000;0.378720
9225.000000;0.379098
9224.000000;0.379445
9223.000000;0.379827
9222.000000;0.380286
9221.000000;0.380910
9220.000000;0.381732
9219.000000;0.382637
9218.000000;0.383481
9217.000000;0.384270
9216.000000;0.385105
9215.000000;0.385974
9214.000000;0.386743
9213.000000;0.387406
9212.000000;0.388145
9211.000000;0.389086
9210.000000;0.390077
9209.000000;0.390835
9208.000000;0.391247
9207.000000;0.391433
9206.000000;0.391609
9205.000000;0.391948
9204.000000;0.392519
9203.000000;0.393282
9202.000000;0.394159
9201.000000;0.395131
9200.000000;0.396197
9199.000000;0.397212
9198.000000;0.397919
9197.000000;0.398255
9196.000000;0.398542
9195.000000;0.399210
9194.000000;0.400353
9193.000000;0.401647
9192.000000;0.402713
9191.000000;0.403461
9190.000000;0.404074
9189.000000;0.404726
9188.000000;0.405394
9187.000000;0.405958
9186.000000;0.406417
9185.000000;0.406932
9184.000000;0.407599
9183.000000;0.408274
9182.000000;0.408760
9181.000000;0.409130
9180.000000;0.409716
9179.000000;0.410725
9178.000000;0.411987
9177.000000;0.413121
9176.000000;0.413826
9175.000000;0.413999
9174.000000;0.413758
9173.000000;0.413488
9172.000000;0.413695
9171.000000;0.414615
9170.000000;0.415962
9169.000000;0.417169
9168.000000;0.417879
9167.000000;0.418150
9166.000000;0.418261
9165.000000;0.418457
9164.000000;0.418857
9163.000000;0.419461
9162.000000;0.420173
9161.000000;0.420865
9160.000000;0.421461
9159.000000;0.421945
9158.000000;0.422346
9157.000000;0.422735
9156.000000;0.423219
9155.000000;0.423866
9154.000000;0.424661
9153.000000;0.425535
9152.000000;0.426414
9151.000000;0.427216
9150.000000;0.427848
9149.000000;0.428259
9148.000000;0.428452
9147.000000;0.428473
9146.000000;0.428451
9145.000000;0.428623
9144.000000;0.429173
9143.000000;0.430008
9142.000000;0.430793
9141.000000;0.431303
9140.000000;0.431629
9139.000000;0.432000
9138.000000;0.432534
9137.000000;0.433228
9136.000000;0.434066
9135.000000;0.434977
9134.000000;0.435753
9133.000000;0.436209
9132.000000;0.436413
9131.000000;0.436648
9130.000000;0.437117
9129.000000;0.437754
9128.000000;0.438309
9127.000000;0.438568
9126.000000;0.438555
9125.000000;0.438561
9124.000000;0.438944
9123.000000;0.439798
9122.000000;0.440839
9121.000000;0.441668
9120.000000;0.442107
9119.000000;0.442245
9118.000000;0.442273
9117.000000;0.442372
9116.000000;0.442700
9115.000000;0.443300
9114.000000;0.444030
9113.000000;0.444644
9112.000000;0.445007
9111.000000;0.445180
9110.000000;0.445343
9109.000000;0.445674
9108.000000;0.446239
9107.000000;0.446929
9106.000000;0.447525
9105.000000;0.447894
9104.000000;0.448089
9103.000000;0.448259
9102.000000;0.448519
9101.000000;0.448955
9100.000000;0.449619
9099.000000;0.450395
9098.000000;0.450975
9097.000000;0.451119
9096.000000;0.450921
9095.000000;0.450733
9094.000000;0.450836
9093.000000;0.451275
9092.000000;0.451907
9091.000000;0.452516
9090.000000;0.452933
9089.000000;0.453189
9088.000000;0.453511
9087.000000;0.454058
9086.000000;0.454703
9085.000000;0.455171
9084.000000;0.455373
9083.000000;0.455463
9082.000000;0.455643
9081.000000;0.456032
9080.000000;0.456650
9079.000000;0.457359
9078.000000;0.457846
9077.000000;0.457904
9076.000000;0.457726
9075.000000;0.457743
9074.000000;0.458123
9073.000000;0.458613
9072.000000;0.458928
9071.000000;0.459089
9070.000000;0.459280
9069.000000;0.459564
9068.000000;0.459870
9067.000000;0.460149
9066.000000;0.460382
9065.000000;0.460513
9064.000000;0.460525
9063.000000;0.460567
9062.000000;0.460868
9061.000000;0.461522
9060.000000;0.462405
9059.000000;0.463298
9058.000000;0.464013
9057.000000;0.464436
9056.000000;0.464554
9055.000000;0.464479
9054.000000;0.464399
9053.000000;0.464454
