Criado como novo conjunto de dados;"0307_DANIEL.spp","33663.8 Secs"
cm-1;Abs
10000.000000;1.186513
9999.000000;1.185190
9998.000000;1.183196
9997.000000;1.180987
9996.000000;1.179096
9995.000000;1.177826
9994.000000;1.177036
9993.000000;1.176348
9992.000000;1.175548
9991.000000;1.174599
9990.000000;1.173376
9989.000000;1.171718
9988.000000;1.169783
9987.000000;1.168035
9986.000000;1.166739
9985.000000;1.165674
9984.000000;1.164488
9983.000000;1.163176
9982.000000;1.161970
9981.000000;1.160873
9980.000000;1.159596
9979.000000;1.157982
9978.000000;1.156256
9977.000000;1.154793
9976.000000;1.153825
9975.000000;1.153409
9974.000000;1.153449
9973.000000;1.153544
9972.000000;1.153070
9971.000000;1.151761
9970.000000;1.150144
9969.000000;1.149003
9968.000000;1.148337
9967.000000;1.147221
9966.000000;1.144965
9965.000000;1.142131
9964.000000;1.140002
9963.000000;1.139170
9962.000000;1.139024
9961.000000;1.138589
9960.000000;1.137498
9959.000000;1.136035
9958.000000;1.134591
9957.000000;1.133334
9956.000000;1.132208
9955.000000;1.131016
9954.000000;1.129578
9953.000000;1.127968
9952.000000;1.126505
9951.000000;1.125394
9950.000000;1.124519
9949.000000;1.123650
9948.000000;1.122681
9947.000000;1.121548
9946.000000;1.120097
9945.000000;1.118293
9944.000000;1.116406
9943.000000;1.114746
9942.000000;1.113318
9941.000000;1.111997
9940.000000;1.110888
9939.000000;1.110154
9938.000000;1.109548
9937.000000;1.108500
9936.000000;1.106796
9935.000000;1.104860
9934.000000;1.103224
9933.000000;1.101963
9932.000000;1.100854
9931.000000;1.099827
9930.000000;1.098992
9929.000000;1.098316
9928.000000;1.097572
9927.000000;1.096590
9926.000000;1.095315
9925.000000;1.093628
9924.000000;1.091347
9923.000000;1.088559
9922.000000;1.085844
9921.000000;1.083992
9920.000000;1.083442
9919.000000;1.083933
9918.000000;1.084644
9917.000000;1.084668
9916.000000;1.083497
9915.000000;1.081237
9914.000000;1.078481
9913.000000;1.075943
9912.000000;1.074082
9911.000000;1.072863
9910.000000;1.071851
9909.000000;1.070610
9908.000000;1.069123
9907.000000;1.067740
9906.000000;1.066681
9905.000000;1.065667
9904.000000;1.064204
9903.000000;1.062240
9902.000000;1.060360
9901.000000;1.059191
9900.000000;1.058715
9899.000000;1.058287
9898.000000;1.057288
9897.000000;1.055624
9896.000000;1.053607
9895.000000;1.051614
9894.000000;1.049930
9893.000000;1.048703
9892.000000;1.047831
9891.000000;1.046968
9890.000000;1.045840
9889.000000;1.044514
9888.000000;1.043192
9887.000000;1.041848
9886.000000;1.040299
9885.000000;1.038603
9884.000000;1.037055
9883.000000;1.035684
9882.000000;1.034067
9881.000000;1.031897
9880.000000;1.029566
9879.000000;1.027890
9878.000000;1.027279
9877.000000;1.027359
9876.000000;1.027376
9875.000000;1.026788
9874.000000;1.025451
9873.000000;1.023478
9872.000000;1.021153
9871.000000;1.018901
9870.000000;1.017125
9869.000000;1.015918
9868.000000;1.014969
9867.000000;1.013857
9866.000000;1.012472
9865.000000;1.011094
9864.000000;1.010029
9863.000000;1.009216
9862.000000;1.008268
9861.000000;1.006871
9860.000000;1.005048
9859.000000;1.003037
9858.000000;1.001084
9857.000000;0.999370
9856.000000;0.997992
9855.000000;0.996866
9854.000000;0.995738
9853.000000;0.994407
9852.000000;0.992936
9851.000000;0.991536
9850.000000;0.990270
9849.000000;0.988958
9848.000000;0.987398
9847.000000;0.985645
9846.000000;0.984018
9845.000000;0.982802
9844.000000;0.981927
9843.000000;0.980934
9842.000000;0.979350
9841.000000;0.977118
9840.000000;0.974640
9839.000000;0.972394
9838.000000;0.970564
9837.000000;0.969005
9836.000000;0.967473
9835.000000;0.965864
9834.000000;0.964299
9833.000000;0.963002
9832.000000;0.962058
9831.000000;0.961298
9830.000000;0.960432
9829.000000;0.959283
9828.000000;0.957831
9827.000000;0.956122
9826.000000;0.954243
9825.000000;0.952361
9824.000000;0.950625
9823.000000;0.949030
9822.000000;0.947483
9821.000000;0.945937
9820.000000;0.944315
9819.000000;0.942405
9818.000000;0.940119
9817.000000;0.937851
9816.000000;0.936256
9815.000000;0.935525
9814.000000;0.935082
9813.000000;0.934160
9812.000000;0.932510
9811.000000;0.930453
9810.000000;0.928412
9809.000000;0.926607
9808.000000;0.925002
9807.000000;0.923354
9806.000000;0.921411
9805.000000;0.919269
9804.000000;0.917450
9803.000000;0.916401
9802.000000;0.915983
9801.000000;0.915576
9800.000000;0.914628
9799.000000;0.912999
9798.000000;0.910922
9797.000000;0.908781
9796.000000;0.906846
9795.000000;0.905027
9794.000000;0.902946
9793.000000;0.900396
9792.000000;0.897679
9791.000000;0.895347
9790.000000;0.893673
9789.000000;0.892507
9788.000000;0.891507
9787.000000;0.890346
9786.000000;0.888767
9785.000000;0.886698
9784.000000;0.884317
9783.000000;0.881892
9782.000000;0.879602
9781.000000;0.877574
9780.000000;0.875957
9779.000000;0.874751
9778.000000;0.873692
9777.000000;0.872498
9776.000000;0.871202
9775.000000;0.870050
9774.000000;0.869140
9773.000000;0.868337
9772.000000;0.867405
9771.000000;0.866046
9770.000000;0.863969
9769.000000;0.861253
9768.000000;0.858543
9767.000000;0.856544
9766.000000;0.855297
9765.000000;0.854227
9764.000000;0.852868
9763.000000;0.851206
9762.000000;0.849328
9761.000000;0.847193
9760.000000;0.844924
9759.000000;0.842916
9758.000000;0.841349
9757.000000;0.839851
9756.000000;0.837925
9755.000000;0.835581
9754.000000;0.833262
9753.000000;0.831270
9752.000000;0.829532
9751.000000;0.827880
9750.000000;0.826300
9749.000000;0.824836
9748.000000;0.823438
9747.000000;0.821994
9746.000000;0.820454
9745.000000;0.818869
9744.000000;0.817311
9743.000000;0.815764
9742.000000;0.814095
9741.000000;0.812201
9740.000000;0.810179
9739.000000;0.808271
9738.000000;0.806630
9737.000000;0.805177
9736.000000;0.803685
9735.000000;0.801922
9734.000000;0.799754
9733.000000;0.797236
9732.000000;0.794668
9731.000000;0.792412
9730.000000;0.790584
9729.000000;0.789004
9728.000000;0.787489
9727.000000;0.786081
9726.000000;0.784862
9725.000000;0.783668
9724.000000;0.782160
9723.000000;0.780158
9722.000000;0.777834
9721.000000;0.775549
9720.000000;0.773559
9719.000000;0.771846
9718.000000;0.770169
9717.000000;0.768276
9716.000000;0.766134
9715.000000;0.763939
9714.000000;0.761887
9713.000000;0.759972
9712.000000;0.758067
9711.000000;0.756166
9710.000000;0.754446
9709.000000;0.753011
9708.000000;0.751655
9707.000000;0.749984
9706.000000;0.747827
9705.000000;0.745412
9704.000000;0.743053
9703.000000;0.740766
9702.000000;0.738348
9701.000000;0.735795
9700.000000;0.733431
9699.000000;0.731527
9698.000000;0.730002
9697.000000;0.728625
9696.000000;0.727337
9695.000000;0.726155
9694.000000;0.724878
9693.000000;0.723182
9692.000000;0.721032
9691.000000;0.718768
9690.000000;0.716678
9689.000000;0.714668
9688.000000;0.712426
9687.000000;0.709818
9686.000000;0.707026
9685.000000;0.704377
9684.000000;0.702136
9683.000000;0.700395
9682.000000;0.699067
9681.000000;0.697901
9680.000000;0.696583
9679.000000;0.694923
9678.000000;0.692987
9677.000000;0.691014
9676.000000;0.689103
9675.000000;0.687051
9674.000000;0.684654
9673.000000;0.682123
9672.000000;0.679933
9671.000000;0.678171
9670.000000;0.676327
9669.000000;0.673918
9668.000000;0.671120
9667.000000;0.668492
9666.000000;0.666279
9665.000000;0.664298
9664.000000;0.662389
9663.000000;0.660567
9662.000000;0.658736
9661.000000;0.656644
9660.000000;0.654266
9659.000000;0.651928
9658.000000;0.649878
9657.000000;0.647942
9656.000000;0.645772
9655.000000;0.643295
9654.000000;0.640773
9653.000000;0.638540
9652.000000;0.636739
9651.000000;0.635194
9650.000000;0.633501
9649.000000;0.631370
9648.000000;0.628917
9647.000000;0.626489
9646.000000;0.624214
9645.000000;0.621952
9644.000000;0.619668
9643.000000;0.617593
9642.000000;0.615885
9641.000000;0.614353
9640.000000;0.612649
9639.000000;0.610554
9638.000000;0.608002
9637.000000;0.605086
9636.000000;0.602165
9635.000000;0.599687
9634.000000;0.597678
9633.000000;0.595631
9632.000000;0.593131
9631.000000;0.590399
9630.000000;0.587947
9629.000000;0.585908
9628.000000;0.584025
9627.000000;0.582135
9626.000000;0.580273
9625.000000;0.578342
9624.000000;0.576109
9623.000000;0.573610
9622.000000;0.571225
9621.000000;0.569209
9620.000000;0.567390
9619.000000;0.565448
9618.000000;0.563281
9617.000000;0.560962
9616.000000;0.558555
9615.000000;0.556147
9614.000000;0.553899
9613.000000;0.551880
9612.000000;0.549936
9611.000000;0.547861
9610.000000;0.545620
9609.000000;0.543275
9608.000000;0.540807
9607.000000;0.538187
9606.000000;0.535584
9605.000000;0.533277
9604.000000;0.531302
9603.000000;0.529359
9602.000000;0.527130
9601.000000;0.524593
9600.000000;0.521938
9599.000000;0.519271
9598.000000;0.516544
9597.000000;0.513759
9596.000000;0.511101
9595.000000;0.508818
9594.000000;0.506972
9593.000000;0.505318
9592.000000;0.503401
9591.000000;0.500864
9590.000000;0.497773
9589.000000;0.494675
9588.000000;0.492168
9587.000000;0.490344
9586.000000;0.488693
9585.000000;0.486653
9584.000000;0.484186
9583.000000;0.481685
9582.000000;0.479436
9581.000000;0.477341
9580.000000;0.475164
9579.000000;0.472810
9578.000000;0.470293
9577.000000;0.467651
9576.000000;0.465011
9575.000000;0.462602
9574.000000;0.460510
9573.000000;0.458504
9572.000000;0.456291
9571.000000;0.453864
9570.000000;0.451422
9569.000000;0.448989
9568.000000;0.446340
9567.000000;0.443365
9566.000000;0.440303
9565.000000;0.437514
9564.000000;0.435155
9563.000000;0.433178
9562.000000;0.431483
9561.000000;0.429899
9560.000000;0.428117
9559.000000;0.425871
9558.000000;0.423232
9557.000000;0.420546
9556.000000;0.418059
9555.000000;0.415719
9554.000000;0.413392
9553.000000;0.411097
9552.000000;0.408910
9551.000000;0.406771
9550.000000;0.404576
9549.000000;0.402371
9548.000000;0.400262
9547.000000;0.398134
9546.000000;0.395716
9545.000000;0.392997
9544.000000;0.390386
9543.000000;0.388290
9542.000000;0.386633
9541.000000;0.384966
9540.000000;0.383000
9539.000000;0.380883
9538.000000;0.378922
9537.000000;0.377176
9536.000000;0.375410
9535.000000;0.373371
9534.000000;0.371053
9533.000000;0.368657
9532.000000;0.366326
9531.000000;0.363985
9530.000000;0.361494
9529.000000;0.358933
9528.000000;0.356625
9527.000000;0.354837
9526.000000;0.353507
9525.000000;0.352305
9524.000000;0.350860
9523.000000;0.348901
9522.000000;0.346380
9521.000000;0.343588
9520.000000;0.341022
9519.000000;0.338949
9518.000000;0.337145
9517.000000;0.335218
9516.000000;0.333108
9515.000000;0.331070
9514.000000;0.329231
9513.000000;0.327448
9512.000000;0.325608
9511.000000;0.323772
9510.000000;0.321937
9509.000000;0.319918
9508.000000;0.317660
9507.000000;0.315474
9506.000000;0.313745
9505.000000;0.312475
9504.000000;0.311264
9503.000000;0.309693
9502.000000;0.307607
9501.000000;0.305151
9500.000000;0.302675
9499.000000;0.300540
9498.000000;0.298860
9497.000000;0.297423
9496.000000;0.295943
9495.000000;0.294345
9494.000000;0.292720
9493.000000;0.291107
9492.000000;0.289472
9491.000000;0.287828
9490.000000;0.286258
9489.000000;0.284838
9488.000000;0.283671
9487.000000;0.282882
9486.000000;0.282409
9485.000000;0.281843
9484.000000;0.280744
9483.000000;0.279148
9482.000000;0.277551
9481.000000;0.276318
9480.000000;0.275334
9479.000000;0.274316
9478.000000;0.273260
9477.000000;0.272348
9476.000000;0.271544
9475.000000;0.270540
9474.000000;0.269154
9473.000000;0.267599
9472.000000;0.266273
9471.000000;0.265347
9470.000000;0.264627
9469.000000;0.263810
9468.000000;0.262836
9467.000000;0.261945
9466.000000;0.261389
9465.000000;0.261096
9464.000000;0.260697
9463.000000;0.259929
9462.000000;0.258912
9461.000000;0.257964
9460.000000;0.257207
9459.000000;0.256510
9458.000000;0.255802
9457.000000;0.255281
9456.000000;0.255175
9455.000000;0.255403
9454.000000;0.255593
9453.000000;0.255459
9452.000000;0.255045
9451.000000;0.254574
9450.000000;0.254157
9449.000000;0.253758
9448.000000;0.253382
9447.000000;0.253148
9446.000000;0.253145
9445.000000;0.253285
9444.000000;0.253366
9443.000000;0.253236
9442.000000;0.252875
9441.000000;0.252366
9440.000000;0.251868
9439.000000;0.251582
9438.000000;0.251648
9437.000000;0.252036
9436.000000;0.252561
9435.000000;0.253041
9434.000000;0.253406
9433.000000;0.253655
9432.000000;0.253767
9431.000000;0.253693
9430.000000;0.253451
9429.000000;0.253191
9428.000000;0.253119
9427.000000;0.253344
9426.000000;0.253834
9425.000000;0.254491
9424.000000;0.255240
9423.000000;0.255994
9422.000000;0.256611
9421.000000;0.256978
9420.000000;0.257156
9419.000000;0.257324
9418.000000;0.257566
9417.000000;0.257820
9416.000000;0.258095
9415.000000;0.258593
9414.000000;0.259455
9413.000000;0.260481
9412.000000;0.261262
9411.000000;0.261623
9410.000000;0.261794
9409.000000;0.262115
9408.000000;0.262711
9407.000000;0.263492
9406.000000;0.264362
9405.000000;0.265284
9404.000000;0.266215
9403.000000;0.267076
9402.000000;0.267814
9401.000000;0.268469
9400.000000;0.269167
9399.000000;0.270006
9398.000000;0.270911
9397.000000;0.271669
9396.000000;0.272188
9395.000000;0.272706
9394.000000;0.273596
9393.000000;0.274924
9392.000000;0.276356
9391.000000;0.277543
9390.000000;0.278492
9389.000000;0.279443
9388.000000;0.280521
9387.000000;0.281668
9386.000000;0.282816
9385.000000;0.283943
9384.000000;0.284957
9383.000000;0.285729
9382.000000;0.286302
9381.000000;0.286908
9380.000000;0.287719
9379.000000;0.288651
9378.000000;0.289538
9377.000000;0.290417
9376.000000;0.291522
9375.000000;0.292967
9374.000000;0.294533
9373.000000;0.295847
9372.000000;0.296765
9371.000000;0.297525
9370.000000;0.298471
9369.000000;0.299669
9368.000000;0.300874
9367.000000;0.301895
9366.000000;0.302876
9365.000000;0.304118
9364.000000;0.305691
9363.000000;0.307329
9362.000000;0.308719
9361.000000;0.309788
9360.000000;0.310693
9359.000000;0.311633
9358.000000;0.312738
9357.000000;0.314052
9356.000000;0.315519
9355.000000;0.317004
9354.000000;0.318374
9353.000000;0.319590
9352.000000;0.320702
9351.000000;0.321750
9350.000000;0.322716
9349.000000;0.323558
9348.000000;0.324317
9347.000000;0.325183
9346.000000;0.326402
9345.000000;0.328034
9344.000000;0.329834
9343.000000;0.331473
9342.000000;0.332870
9341.000000;0.334182
9340.000000;0.335470
9339.000000;0.336541
9338.000000;0.337236
9337.000000;0.337733
9336.000000;0.338418
9335.000000;0.339526
9334.000000;0.341035
9333.000000;0.342810
9332.000000;0.344647
9331.000000;0.346225
9330.000000;0.347254
9329.000000;0.347765
9328.000000;0.348126
9327.000000;0.348717
9326.000000;0.349688
9325.000000;0.351032
9324.000000;0.352677
9323.000000;0.354410
9322.000000;0.355902
9321.000000;0.356997
9320.000000;0.357896
9319.000000;0.358907
9318.000000;0.360087
9317.000000;0.361273
9316.000000;0.362369
9315.000000;0.363409
9314.000000;0.364392
9313.000000;0.365281
9312.000000;0.366167
9311.000000;0.367244
9310.000000;0.368540
9309.000000;0.369848
9308.000000;0.371003
9307.000000;0.372086
9306.000000;0.373261
9305.000000;0.374530
9304.000000;0.375754
9303.000000;0.376846
9302.000000;0.377817
9301.000000;0.378695
9300.000000;0.379518
9299.000000;0.380381
9298.000000;0.381394
9297.000000;0.382605
9296.000000;0.384012
9295.000000;0.385603
9294.000000;0.387276
9293.000000;0.388786
9292.000000;0.389900
9291.000000;0.390649
9290.000000;0.391323
9289.000000;0.392198
9288.000000;0.393331
9287.000000;0.394600
9286.000000;0.395846
9285.000000;0.396958
9284.000000;0.397937
9283.000000;0.398896
9282.000000;0.399941
9281.000000;0.401016
9280.000000;0.401954
9279.000000;0.402708
9278.000000;0.403427
9277.000000;0.404243
9276.000000;0.405082
9275.000000;0.405772
9274.000000;0.406283
9273.000000;0.406777
9272.000000;0.407458
9271.000000;0.408446
9270.000000;0.409741
9269.000000;0.411185
9268.000000;0.412511
9267.000000;0.413543
9266.000000;0.414388
9265.000000;0.415315
9264.000000;0.416440
9263.000000;0.417610
9262.000000;0.418645
9261.000000;0.419571
9260.000000;0.420558
9259.000000;0.421698
9258.000000;0.422914
9257.000000;0.424051
9256.000000;0.424976
9255.000000;0.425637
9254.000000;0.426095
9253.000000;0.426516
9252.000000;0.427065
9251.000000;0.427787
9250.000000;0.428600
9249.000000;0.429411
9248.000000;0.430212
9247.000000;0.431100
9246.000000;0.432194
9245.000000;0.433507
9244.000000;0.434860
9243.000000;0.435993
9242.000000;0.436810
9241.000000;0.437475
9240.000000;0.438206
9239.000000;0.439026
9238.000000;0.439794
9237.000000;0.440460
9236.000000;0.441172
9235.000000;0.442091
9234.000000;0.443177
9233.000000;0.444217
9232.000000;0.445057
9231.000000;0.445746
9230.000000;0.446470
9229.000000;0.447354
9228.000000;0.448360
9227.000000;0.449352
9226.000000;0.450247
9225.000000;0.451054
9224.000000;0.451797
9223.000000;0.452474
9222.000000;0.453138
9221.000000;0.453915
9220.000000;0.454867
9219.000000;0.455879
9218.000000;0.456791
9217.000000;0.457591
9216.000000;0.458385
9215.000000;0.459205
9214.000000;0.460019
9213.000000;0.460888
9212.000000;0.461930
9211.000000;0.463039
9210.000000;0.463845
9209.000000;0.464111
9208.000000;0.464054
9207.000000;0.464105
9206.000000;0.464448
9205.000000;0.464964
9204.000000;0.465566
9203.000000;0.466338
9202.000000;0.467305
9201.000000;0.468266
9200.000000;0.469008
9199.000000;0.469578
9198.000000;0.470209
9197.000000;0.471003
9196.000000;0.471845
9195.000000;0.472629
9194.000000;0.473460
9193.000000;0.474497
9192.000000;0.475658
9191.000000;0.476607
9190.000000;0.477120
9189.000000;0.477380
9188.000000;0.477793
9187.000000;0.478516
9186.000000;0.479297
9185.000000;0.479842
9184.000000;0.480219
9183.000000;0.480762
9182.000000;0.481632
9181.000000;0.482629
9180.000000;0.483445
9179.000000;0.483976
9178.000000;0.484350
9177.000000;0.484732
9176.000000;0.485198
9175.000000;0.485739
9174.000000;0.486305
9173.000000;0.486857
9172.000000;0.487417
9171.000000;0.488055
9170.000000;0.488789
9169.000000;0.489513
9168.000000;0.490090
9167.000000;0.490532
9166.000000;0.491017
9165.000000;0.491700
9164.000000;0.492502
9163.000000;0.493150
9162.000000;0.493456
9161.000000;0.493539
9160.000000;0.493736
9159.000000;0.494277
9158.000000;0.495066
9157.000000;0.495801
9156.000000;0.496290
9155.000000;0.496620
9154.000000;0.497041
9153.000000;0.497698
9152.000000;0.498508
9151.000000;0.499243
9150.000000;0.499746
9149.000000;0.500066
9148.000000;0.500393
9147.000000;0.500849
9146.000000;0.501357
9145.000000;0.501774
9144.000000;0.502143
9143.000000;0.502709
9142.000000;0.503620
9141.000000;0.504676
9140.000000;0.505485
9139.000000;0.505881
9138.000000;0.506077
9137.000000;0.506391
9136.000000;0.506926
9135.000000;0.507583
9134.000000;0.508266
9133.000000;0.508940
9132.000000;0.509500
9131.000000;0.509761
9130.000000;0.509678
9129.000000;0.509479
9128.000000;0.509502
9127.000000;0.509920
9126.000000;0.510657
9125.000000;0.511524
9124.000000;0.512353
9123.000000;0.513037
9122.000000;0.513538
9121.000000;0.513912
9120.000000;0.514298
9119.000000;0.514837
9118.000000;0.515552
9117.000000;0.516291
9116.000000;0.516788
9115.000000;0.516867
9114.000000;0.516615
9113.000000;0.516345
9112.000000;0.516350
9111.000000;0.516724
9110.000000;0.517401
9109.000000;0.518289
9108.000000;0.519266
9107.000000;0.520116
9106.000000;0.520641
9105.000000;0.520866
9104.000000;0.521021
9103.000000;0.521258
9102.000000;0.521457
9101.000000;0.521422
9100.000000;0.521230
9099.000000;0.521267
9098.000000;0.521872
9097.000000;0.522984
9096.000000;0.524169
9095.000000;0.524995
9094.000000;0.525349
9093.000000;0.525416
9092.000000;0.525435
9091.000000;0.525538
9090.000000;0.525770
9089.000000;0.526150
9088.000000;0.526643
9087.000000;0.527157
9086.000000;0.527624
9085.000000;0.528055
9084.000000;0.528474
9083.000000;0.528843
9082.000000;0.529093
9081.000000;0.529192
9080.000000;0.529141
9079.000000;0.528973
9078.000000;0.528822
9077.000000;0.528922
9076.000000;0.529441
9075.000000;0.530309
9074.000000;0.531276
9073.000000;0.532063
9072.000000;0.532468
9071.000000;0.532436
9070.000000;0.532202
9069.000000;0.532225
9068.000000;0.532790
9067.000000;0.533659
9066.000000;0.534302
9065.000000;0.534472
9064.000000;0.534404
9063.000000;0.534439
9062.000000;0.534648
9061.000000;0.534908
9060.000000;0.535148
9059.000000;0.535369
9058.000000;0.535566
9057.000000;0.535742
9056.000000;0.535976
9055.000000;0.536361
9054.000000;0.536892
9053.000000;0.537456
