Criado como novo conjunto de dados;"0307_DANIEL.spp","50404.9 Secs"
cm-1;Abs
10000.000000;0.483053
9999.000000;0.481924
9998.000000;0.480798
9997.000000;0.479675
9996.000000;0.478554
9995.000000;0.477437
9994.000000;0.476322
9993.000000;0.475212
9992.000000;0.474100
9991.000000;0.472999
9990.000000;0.471884
9989.000000;0.470844
9988.000000;0.469889
9987.000000;0.468940
9986.000000;0.468014
9985.000000;0.467108
9984.000000;0.466194
9983.000000;0.465223
9982.000000;0.464171
9981.000000;0.463022
9980.000000;0.461760
9979.000000;0.460418
9978.000000;0.459102
9977.000000;0.457921
9976.000000;0.456883
9975.000000;0.455894
9974.000000;0.454860
9973.000000;0.453752
9972.000000;0.452600
9971.000000;0.451465
9970.000000;0.450417
9969.000000;0.449454
9968.000000;0.448445
9967.000000;0.447237
9966.000000;0.445856
9965.000000;0.444540
9964.000000;0.443503
9963.000000;0.442681
9962.000000;0.441787
9961.000000;0.440592
9960.000000;0.439113
9959.000000;0.437576
9958.000000;0.436232
9957.000000;0.435174
9956.000000;0.434264
9955.000000;0.433255
9954.000000;0.432022
9953.000000;0.430661
9952.000000;0.429334
9951.000000;0.428070
9950.000000;0.426809
9949.000000;0.425563
9948.000000;0.424408
9947.000000;0.423332
9946.000000;0.422217
9945.000000;0.420996
9944.000000;0.419733
9943.000000;0.418526
9942.000000;0.417396
9941.000000;0.416314
9940.000000;0.415226
9939.000000;0.414052
9938.000000;0.412750
9937.000000;0.411426
9936.000000;0.410283
9935.000000;0.409389
9934.000000;0.408569
9933.000000;0.407608
9932.000000;0.406472
9931.000000;0.405242
9930.000000;0.403929
9929.000000;0.402501
9928.000000;0.401049
9927.000000;0.399777
9926.000000;0.398777
9925.000000;0.397889
9924.000000;0.396869
9923.000000;0.395628
9922.000000;0.394280
9921.000000;0.392969
9920.000000;0.391723
9919.000000;0.390459
9918.000000;0.389092
9917.000000;0.387624
9916.000000;0.386134
9915.000000;0.384723
9914.000000;0.383465
9913.000000;0.382361
9912.000000;0.381311
9911.000000;0.380171
9910.000000;0.378881
9909.000000;0.377541
9908.000000;0.376295
9907.000000;0.375160
9906.000000;0.374024
9905.000000;0.372797
9904.000000;0.371476
9903.000000;0.370070
9902.000000;0.368569
9901.000000;0.367041
9900.000000;0.365653
9899.000000;0.364506
9898.000000;0.363496
9897.000000;0.362418
9896.000000;0.361163
9895.000000;0.359757
9894.000000;0.358267
9893.000000;0.356758
9892.000000;0.355331
9891.000000;0.354081
9890.000000;0.352987
9889.000000;0.351908
9888.000000;0.350729
9887.000000;0.349462
9886.000000;0.348187
9885.000000;0.346932
9884.000000;0.345661
9883.000000;0.344339
9882.000000;0.343006
9881.000000;0.341762
9880.000000;0.340667
9879.000000;0.339639
9878.000000;0.338479
9877.000000;0.337039
9876.000000;0.335367
9875.000000;0.333670
9874.000000;0.332129
9873.000000;0.330787
9872.000000;0.329589
9871.000000;0.328472
9870.000000;0.327379
9869.000000;0.326228
9868.000000;0.324916
9867.000000;0.323370
9866.000000;0.321617
9865.000000;0.319818
9864.000000;0.318195
9863.000000;0.316896
9862.000000;0.315880
9861.000000;0.314947
9860.000000;0.313883
9859.000000;0.312598
9858.000000;0.311138
9857.000000;0.309616
9856.000000;0.308119
9855.000000;0.306681
9854.000000;0.305297
9853.000000;0.303946
9852.000000;0.302605
9851.000000;0.301241
9850.000000;0.299829
9849.000000;0.298385
9848.000000;0.296963
9847.000000;0.295605
9846.000000;0.294296
9845.000000;0.292984
9844.000000;0.291624
9843.000000;0.290217
9842.000000;0.288805
9841.000000;0.287443
9840.000000;0.286140
9839.000000;0.284840
9838.000000;0.283458
9837.000000;0.281967
9836.000000;0.280414
9835.000000;0.278861
9834.000000;0.277325
9833.000000;0.275799
9832.000000;0.274292
9831.000000;0.272817
9830.000000;0.271358
9829.000000;0.269870
9828.000000;0.268329
9827.000000;0.266788
9826.000000;0.265371
9825.000000;0.264176
9824.000000;0.263142
9823.000000;0.262027
9822.000000;0.260601
9821.000000;0.258869
9820.000000;0.257068
9819.000000;0.255420
9818.000000;0.253948
9817.000000;0.252546
9816.000000;0.251131
9815.000000;0.249694
9814.000000;0.248254
9813.000000;0.246841
9812.000000;0.245482
9811.000000;0.244139
9810.000000;0.242686
9809.000000;0.241039
9808.000000;0.239291
9807.000000;0.237642
9806.000000;0.236200
9805.000000;0.234894
9804.000000;0.233584
9803.000000;0.232187
9802.000000;0.230684
9801.000000;0.229070
9800.000000;0.227363
9799.000000;0.225636
9798.000000;0.223997
9797.000000;0.222518
9796.000000;0.221169
9795.000000;0.219838
9794.000000;0.218420
9793.000000;0.216916
9792.000000;0.215403
9791.000000;0.213910
9790.000000;0.212378
9789.000000;0.210755
9788.000000;0.209106
9787.000000;0.207533
9786.000000;0.206031
9785.000000;0.204482
9784.000000;0.202816
9783.000000;0.201093
9782.000000;0.199424
9781.000000;0.197842
9780.000000;0.196306
9779.000000;0.194756
9778.000000;0.193144
9777.000000;0.191441
9776.000000;0.189661
9775.000000;0.187873
9774.000000;0.186159
9773.000000;0.184550
9772.000000;0.183004
9771.000000;0.181460
9770.000000;0.179885
9769.000000;0.178289
9768.000000;0.176683
9767.000000;0.175066
9766.000000;0.173448
9765.000000;0.171867
9764.000000;0.170325
9763.000000;0.168725
9762.000000;0.166963
9761.000000;0.165083
9760.000000;0.163271
9759.000000;0.161622
9758.000000;0.159999
9757.000000;0.158236
9756.000000;0.156411
9755.000000;0.154781
9754.000000;0.153434
9753.000000;0.152157
9752.000000;0.150697
9751.000000;0.149030
9750.000000;0.147312
9749.000000;0.145647
9748.000000;0.144001
9747.000000;0.142297
9746.000000;0.140489
9745.000000;0.138597
9744.000000;0.136729
9743.000000;0.135031
9742.000000;0.133523
9741.000000;0.132011
9740.000000;0.130270
9739.000000;0.128318
9738.000000;0.126425
9737.000000;0.124797
9736.000000;0.123356
9735.000000;0.121841
9734.000000;0.120080
9733.000000;0.118092
9732.000000;0.116005
9731.000000;0.113944
9730.000000;0.111996
9729.000000;0.110187
9728.000000;0.108482
9727.000000;0.106823
9726.000000;0.105176
9725.000000;0.103529
9724.000000;0.101861
9723.000000;0.100157
9722.000000;0.098440
9721.000000;0.096743
9720.000000;0.095052
9719.000000;0.093308
9718.000000;0.091481
9717.000000;0.089620
9716.000000;0.087804
9715.000000;0.086077
9714.000000;0.084420
9713.000000;0.082764
9712.000000;0.081021
9711.000000;0.079149
9710.000000;0.077200
9709.000000;0.075286
9708.000000;0.073470
9707.000000;0.071707
9706.000000;0.069898
9705.000000;0.068009
9704.000000;0.066101
9703.000000;0.064265
9702.000000;0.062534
9701.000000;0.060841
9700.000000;0.059077
9699.000000;0.057204
9698.000000;0.055311
9697.000000;0.053510
9696.000000;0.051785
9695.000000;0.049982
9694.000000;0.047994
9693.000000;0.045913
9692.000000;0.043909
9691.000000;0.042013
9690.000000;0.040090
9689.000000;0.038055
9688.000000;0.036023
9687.000000;0.034183
9686.000000;0.032552
9685.000000;0.030909
9684.000000;0.028997
9683.000000;0.026766
9682.000000;0.024420
9681.000000;0.022228
9680.000000;0.020293
9679.000000;0.018492
9678.000000;0.016633
9677.000000;0.014647
9676.000000;0.012608
9675.000000;0.010612
9674.000000;0.008682
9673.000000;0.006799
9672.000000;0.004935
9671.000000;0.003055
9670.000000;0.001108
9669.000000;-0.000908
9668.000000;-0.002916
9667.000000;-0.004844
9666.000000;-0.006751
9665.000000;-0.008802
9664.000000;-0.011071
9663.000000;-0.013412
9662.000000;-0.015566
9661.000000;-0.017420
9660.000000;-0.019121
9659.000000;-0.020902
9658.000000;-0.022863
9657.000000;-0.024946
9656.000000;-0.027075
9655.000000;-0.029232
9654.000000;-0.031387
9653.000000;-0.033462
9652.000000;-0.035433
9651.000000;-0.037381
9650.000000;-0.039384
9649.000000;-0.041409
9648.000000;-0.043399
9647.000000;-0.045405
9646.000000;-0.047530
9645.000000;-0.049753
9644.000000;-0.051925
9643.000000;-0.053971
9642.000000;-0.055990
9641.000000;-0.058110
9640.000000;-0.060315
9639.000000;-0.062507
9638.000000;-0.064648
9637.000000;-0.066782
9636.000000;-0.068945
9635.000000;-0.071127
9634.000000;-0.073323
9633.000000;-0.075542
9632.000000;-0.077733
9631.000000;-0.079790
9630.000000;-0.081643
9629.000000;-0.083372
9628.000000;-0.085186
9627.000000;-0.087264
9626.000000;-0.089605
9625.000000;-0.092013
9624.000000;-0.094273
9623.000000;-0.096340
9622.000000;-0.098349
9621.000000;-0.100443
9620.000000;-0.102628
9619.000000;-0.104826
9618.000000;-0.107001
9617.000000;-0.109180
9616.000000;-0.111375
9615.000000;-0.113548
9614.000000;-0.115678
9613.000000;-0.117831
9612.000000;-0.120119
9611.000000;-0.122583
9610.000000;-0.125123
9609.000000;-0.127560
9608.000000;-0.129767
9607.000000;-0.131771
9606.000000;-0.133724
9605.000000;-0.135790
9604.000000;-0.138042
9603.000000;-0.140450
9602.000000;-0.142927
9601.000000;-0.145368
9600.000000;-0.147684
9599.000000;-0.149840
9598.000000;-0.151877
9597.000000;-0.153903
9596.000000;-0.156044
9595.000000;-0.158351
9594.000000;-0.160749
9593.000000;-0.163097
9592.000000;-0.165307
9591.000000;-0.167401
9590.000000;-0.169457
9589.000000;-0.171534
9588.000000;-0.173676
9587.000000;-0.175926
9586.000000;-0.178276
9585.000000;-0.180639
9584.000000;-0.182924
9583.000000;-0.185143
9582.000000;-0.187374
9581.000000;-0.189639
9580.000000;-0.191881
9579.000000;-0.194074
9578.000000;-0.196299
9577.000000;-0.198659
9576.000000;-0.201154
9575.000000;-0.203665
9574.000000;-0.206036
9573.000000;-0.208193
9572.000000;-0.210217
9571.000000;-0.212288
9570.000000;-0.214532
9569.000000;-0.216900
9568.000000;-0.219240
9567.000000;-0.221463
9566.000000;-0.223588
9565.000000;-0.225664
9564.000000;-0.227723
9563.000000;-0.229830
9562.000000;-0.232068
9561.000000;-0.234430
9560.000000;-0.236808
9559.000000;-0.239111
9558.000000;-0.241340
9557.000000;-0.243529
9556.000000;-0.245687
9555.000000;-0.247850
9554.000000;-0.250091
9553.000000;-0.252426
9552.000000;-0.254772
9551.000000;-0.257071
9550.000000;-0.259363
9549.000000;-0.261670
9548.000000;-0.263890
9547.000000;-0.265921
9546.000000;-0.267837
9545.000000;-0.269818
9544.000000;-0.271911
9543.000000;-0.273987
9542.000000;-0.275940
9541.000000;-0.277829
9540.000000;-0.279782
9539.000000;-0.281848
9538.000000;-0.283987
9537.000000;-0.286148
9536.000000;-0.288318
9535.000000;-0.290518
9534.000000;-0.292772
9533.000000;-0.295061
9532.000000;-0.297301
9531.000000;-0.299413
9530.000000;-0.301412
9529.000000;-0.303394
9528.000000;-0.305409
9527.000000;-0.307409
9526.000000;-0.309335
9525.000000;-0.311222
9524.000000;-0.313166
9523.000000;-0.315207
9522.000000;-0.317285
9521.000000;-0.319311
9520.000000;-0.321274
9519.000000;-0.323255
9518.000000;-0.325331
9517.000000;-0.327460
9516.000000;-0.329490
9515.000000;-0.331303
9514.000000;-0.332947
9513.000000;-0.334588
9512.000000;-0.336332
9511.000000;-0.338153
9510.000000;-0.339975
9509.000000;-0.341769
9508.000000;-0.343523
9507.000000;-0.345175
9506.000000;-0.346656
9505.000000;-0.348016
9504.000000;-0.349433
9503.000000;-0.351068
9502.000000;-0.352906
9501.000000;-0.354771
9500.000000;-0.356499
9499.000000;-0.358092
9498.000000;-0.359693
9497.000000;-0.361421
9496.000000;-0.363253
9495.000000;-0.365044
9494.000000;-0.366658
9493.000000;-0.368047
9492.000000;-0.369252
9491.000000;-0.370374
9490.000000;-0.371528
9489.000000;-0.372759
9488.000000;-0.373987
9487.000000;-0.375071
9486.000000;-0.375997
9485.000000;-0.376955
9484.000000;-0.378185
9483.000000;-0.379728
9482.000000;-0.381367
9481.000000;-0.382815
9480.000000;-0.383920
9479.000000;-0.384712
9478.000000;-0.385323
9477.000000;-0.385935
9476.000000;-0.386727
9475.000000;-0.387788
9474.000000;-0.389032
9473.000000;-0.390249
9472.000000;-0.391273
9471.000000;-0.392085
9470.000000;-0.392792
9469.000000;-0.393530
9468.000000;-0.394405
9467.000000;-0.395425
9466.000000;-0.396446
9465.000000;-0.397223
9464.000000;-0.397625
9463.000000;-0.397786
9462.000000;-0.398010
9461.000000;-0.398492
9460.000000;-0.399183
9459.000000;-0.399917
9458.000000;-0.400593
9457.000000;-0.401191
9456.000000;-0.401671
9455.000000;-0.401983
9454.000000;-0.402155
9453.000000;-0.402301
9452.000000;-0.402502
9451.000000;-0.402730
9450.000000;-0.402930
9449.000000;-0.403113
9448.000000;-0.403327
9447.000000;-0.403540
9446.000000;-0.403630
9445.000000;-0.403509
9444.000000;-0.403223
9443.000000;-0.402930
9442.000000;-0.402788
9441.000000;-0.402863
9440.000000;-0.403092
9439.000000;-0.403317
9438.000000;-0.403394
9437.000000;-0.403311
9436.000000;-0.403162
9435.000000;-0.403017
9434.000000;-0.402841
9433.000000;-0.402588
9432.000000;-0.402304
9431.000000;-0.402078
9430.000000;-0.401900
9429.000000;-0.401644
9428.000000;-0.401215
9427.000000;-0.400648
9426.000000;-0.400044
9425.000000;-0.399456
9424.000000;-0.398887
9423.000000;-0.398354
9422.000000;-0.397891
9421.000000;-0.397480
9420.000000;-0.397036
9419.000000;-0.396490
9418.000000;-0.395863
9417.000000;-0.395247
9416.000000;-0.394712
9415.000000;-0.394250
9414.000000;-0.393799
9413.000000;-0.393304
9412.000000;-0.392742
9411.000000;-0.392094
9410.000000;-0.391325
9409.000000;-0.390432
9408.000000;-0.389486
9407.000000;-0.388590
9406.000000;-0.387779
9405.000000;-0.386989
9404.000000;-0.386140
9403.000000;-0.385238
9402.000000;-0.384345
9401.000000;-0.383460
9400.000000;-0.382497
9399.000000;-0.381419
9398.000000;-0.380339
9397.000000;-0.379431
9396.000000;-0.378722
9395.000000;-0.378034
9394.000000;-0.377178
9393.000000;-0.376154
9392.000000;-0.375101
9391.000000;-0.374085
9390.000000;-0.373030
9389.000000;-0.371893
9388.000000;-0.370786
9387.000000;-0.369848
9386.000000;-0.369027
9385.000000;-0.368109
9384.000000;-0.366964
9383.000000;-0.365686
9382.000000;-0.364450
9381.000000;-0.363322
9380.000000;-0.362260
9379.000000;-0.361219
9378.000000;-0.360182
9377.000000;-0.359116
9376.000000;-0.357985
9375.000000;-0.356833
9374.000000;-0.355762
9373.000000;-0.354783
9372.000000;-0.353749
9371.000000;-0.352500
9370.000000;-0.351058
9369.000000;-0.349611
9368.000000;-0.348292
9367.000000;-0.347047
9366.000000;-0.345742
9365.000000;-0.344349
9364.000000;-0.342968
9363.000000;-0.341681
9362.000000;-0.340457
9361.000000;-0.339233
9360.000000;-0.338001
9359.000000;-0.336787
9358.000000;-0.335596
9357.000000;-0.334443
9356.000000;-0.333381
9355.000000;-0.332410
9354.000000;-0.331370
9353.000000;-0.330045
9352.000000;-0.328437
9351.000000;-0.326850
9350.000000;-0.325621
9349.000000;-0.324771
9348.000000;-0.323997
9347.000000;-0.322978
9346.000000;-0.321633
9345.000000;-0.320108
9344.000000;-0.318576
9343.000000;-0.317110
9342.000000;-0.315711
9341.000000;-0.314393
9340.000000;-0.313215
9339.000000;-0.312202
9338.000000;-0.311262
9337.000000;-0.310213
9336.000000;-0.308947
9335.000000;-0.307539
9334.000000;-0.306156
9333.000000;-0.304884
9332.000000;-0.303676
9331.000000;-0.302473
9330.000000;-0.301280
9329.000000;-0.300119
9328.000000;-0.298963
9327.000000;-0.297771
9326.000000;-0.296540
9325.000000;-0.295279
9324.000000;-0.293977
9323.000000;-0.292634
9322.000000;-0.291299
9321.000000;-0.290018
9320.000000;-0.288762
9319.000000;-0.287466
9318.000000;-0.286129
9317.000000;-0.284827
9316.000000;-0.283598
9315.000000;-0.282410
9314.000000;-0.281227
9313.000000;-0.280073
9312.000000;-0.278970
9311.000000;-0.277870
9310.000000;-0.276705
9309.000000;-0.275475
9308.000000;-0.274246
9307.000000;-0.273059
9306.000000;-0.271901
9305.000000;-0.270758
9304.000000;-0.269639
9303.000000;-0.268538
9302.000000;-0.267418
9301.000000;-0.266272
9300.000000;-0.265156
9299.000000;-0.264105
9298.000000;-0.263054
9297.000000;-0.261876
9296.000000;-0.260512
9295.000000;-0.259031
9294.000000;-0.257569
9293.000000;-0.256242
9292.000000;-0.255114
9291.000000;-0.254184
9290.000000;-0.253361
9289.000000;-0.252479
9288.000000;-0.251401
9287.000000;-0.250131
9286.000000;-0.248798
9285.000000;-0.247533
9284.000000;-0.246374
9283.000000;-0.245269
9282.000000;-0.244158
9281.000000;-0.243021
9280.000000;-0.241887
9279.000000;-0.240796
9278.000000;-0.239776
9277.000000;-0.238817
9276.000000;-0.237881
9275.000000;-0.236910
9274.000000;-0.235855
9273.000000;-0.234713
9272.000000;-0.233557
9271.000000;-0.232471
9270.000000;-0.231446
9269.000000;-0.230364
9268.000000;-0.229152
9267.000000;-0.227925
9266.000000;-0.226888
9265.000000;-0.226101
9264.000000;-0.225376
9263.000000;-0.224466
9262.000000;-0.223294
9261.000000;-0.221978
9260.000000;-0.220690
9259.000000;-0.219546
9258.000000;-0.218580
9257.000000;-0.217744
9256.000000;-0.216917
9255.000000;-0.215995
9254.000000;-0.214989
9253.000000;-0.213993
9252.000000;-0.213073
9251.000000;-0.212204
9250.000000;-0.211332
9249.000000;-0.210429
9248.000000;-0.209490
9247.000000;-0.208507
9246.000000;-0.207499
9245.000000;-0.206514
9244.000000;-0.205579
9243.000000;-0.204655
9242.000000;-0.203683
9241.000000;-0.202655
9240.000000;-0.201621
9239.000000;-0.200622
9238.000000;-0.199649
9237.000000;-0.198661
9236.000000;-0.197633
9235.000000;-0.196591
9234.000000;-0.195607
9233.000000;-0.194738
9232.000000;-0.193973
9231.000000;-0.193228
9230.000000;-0.192424
9229.000000;-0.191548
9228.000000;-0.190643
9227.000000;-0.189755
9226.000000;-0.188902
9225.000000;-0.188086
9224.000000;-0.187311
9223.000000;-0.186557
9222.000000;-0.185775
9221.000000;-0.184916
9220.000000;-0.183992
9219.000000;-0.183089
9218.000000;-0.182290
9217.000000;-0.181578
9216.000000;-0.180830
9215.000000;-0.179942
9214.000000;-0.178944
9213.000000;-0.177965
9212.000000;-0.177097
9211.000000;-0.176315
9210.000000;-0.175547
9209.000000;-0.174771
9208.000000;-0.174027
9207.000000;-0.173350
9206.000000;-0.172709
9205.000000;-0.172034
9204.000000;-0.171270
9203.000000;-0.170427
9202.000000;-0.169558
9201.000000;-0.168692
9200.000000;-0.167814
9199.000000;-0.166915
9198.000000;-0.166054
9197.000000;-0.165306
9196.000000;-0.164659
9195.000000;-0.164004
9194.000000;-0.163253
9193.000000;-0.162434
9192.000000;-0.161652
9191.000000;-0.160977
9190.000000;-0.160386
9189.000000;-0.159796
9188.000000;-0.159116
9187.000000;-0.158303
9186.000000;-0.157403
9185.000000;-0.156538
9184.000000;-0.155799
9183.000000;-0.155155
9182.000000;-0.154482
9181.000000;-0.153701
9180.000000;-0.152849
9179.000000;-0.152044
9178.000000;-0.151382
9177.000000;-0.150858
9176.000000;-0.150366
9175.000000;-0.149759
9174.000000;-0.148969
9173.000000;-0.148055
9172.000000;-0.147151
9171.000000;-0.146348
9170.000000;-0.145644
9169.000000;-0.144999
9168.000000;-0.144396
9167.000000;-0.143831
9166.000000;-0.143281
9165.000000;-0.142702
9164.000000;-0.142073
9163.000000;-0.141415
9162.000000;-0.140768
9161.000000;-0.140150
9160.000000;-0.139538
9159.000000;-0.138900
9158.000000;-0.138250
9157.000000;-0.137643
9156.000000;-0.137111
9155.000000;-0.136597
9154.000000;-0.136005
9153.000000;-0.135300
9152.000000;-0.134547
9151.000000;-0.133834
9150.000000;-0.133195
9149.000000;-0.132597
9148.000000;-0.131997
9147.000000;-0.131376
9146.000000;-0.130740
9145.000000;-0.130118
9144.000000;-0.129534
9143.000000;-0.128977
9142.000000;-0.128400
9141.000000;-0.127776
9140.000000;-0.127147
9139.000000;-0.126591
9138.000000;-0.126118
9137.000000;-0.125643
9136.000000;-0.125068
9135.000000;-0.124404
9134.000000;-0.123769
9133.000000;-0.123271
9132.000000;-0.122891
9131.000000;-0.122509
9130.000000;-0.122021
9129.000000;-0.121419
9128.000000;-0.120765
9127.000000;-0.120121
9126.000000;-0.119538
9125.000000;-0.119065
9124.000000;-0.118710
9123.000000;-0.118399
9122.000000;-0.117997
9121.000000;-0.117419
9120.000000;-0.116718
9119.000000;-0.116041
9118.000000;-0.115511
9117.000000;-0.115132
9116.000000;-0.114810
9115.000000;-0.114431
9114.000000;-0.113939
9113.000000;-0.113359
9112.000000;-0.112750
9111.000000;-0.112137
9110.000000;-0.111505
9109.000000;-0.110851
9108.000000;-0.110229
9107.000000;-0.109732
9106.000000;-0.109404
9105.000000;-0.109203
9104.000000;-0.109023
9103.000000;-0.108763
9102.000000;-0.108378
9101.000000;-0.107889
9100.000000;-0.107352
9099.000000;-0.106806
9098.000000;-0.106250
9097.000000;-0.105692
9096.000000;-0.105187
9095.000000;-0.104801
9094.000000;-0.104517
9093.000000;-0.104236
9092.000000;-0.103868
9091.000000;-0.103412
9090.000000;-0.102912
9089.000000;-0.102394
9088.000000;-0.101896
9087.000000;-0.101516
9086.000000;-0.101335
9085.000000;-0.101280
9084.000000;-0.101128
9083.000000;-0.100712
9082.000000;-0.100076
9081.000000;-0.099404
