Criado como novo conjunto de dados;"0307_DANIEL.spp","23403.0 Secs"
cm-1;Abs
10000.000000;1.083826
9999.000000;1.081979
9998.000000;1.080812
9997.000000;1.080122
9996.000000;1.079571
9995.000000;1.078987
9994.000000;1.078289
9993.000000;1.077299
9992.000000;1.075805
9991.000000;1.073835
9990.000000;1.071744
9989.000000;1.069900
9988.000000;1.068364
9987.000000;1.067007
9986.000000;1.065895
9985.000000;1.065248
9984.000000;1.064952
9983.000000;1.064414
9982.000000;1.063146
9981.000000;1.061357
9980.000000;1.059717
9979.000000;1.058583
9978.000000;1.057684
9977.000000;1.056546
9976.000000;1.055079
9975.000000;1.053659
9974.000000;1.052693
9973.000000;1.052159
9972.000000;1.051559
9971.000000;1.050371
9970.000000;1.048552
9969.000000;1.046524
9968.000000;1.044701
9967.000000;1.043163
9966.000000;1.041825
9965.000000;1.040709
9964.000000;1.039891
9963.000000;1.039273
9962.000000;1.038571
9961.000000;1.037556
9960.000000;1.036271
9959.000000;1.035009
9958.000000;1.034034
9957.000000;1.033221
9956.000000;1.032057
9955.000000;1.030184
9954.000000;1.027939
9953.000000;1.026112
9952.000000;1.025098
9951.000000;1.024524
9950.000000;1.023787
9949.000000;1.022705
9948.000000;1.021458
9947.000000;1.020168
9946.000000;1.018825
9945.000000;1.017489
9944.000000;1.016263
9943.000000;1.015070
9942.000000;1.013665
9941.000000;1.011929
9940.000000;1.010056
9939.000000;1.008486
9938.000000;1.007632
9937.000000;1.007524
9936.000000;1.007627
9935.000000;1.007175
9934.000000;1.005803
9933.000000;1.003759
9932.000000;1.001487
9931.000000;0.999303
9930.000000;0.997544
9929.000000;0.996589
9928.000000;0.996354
9927.000000;0.996028
9926.000000;0.994772
9925.000000;0.992576
9924.000000;0.990109
9923.000000;0.987891
9922.000000;0.986028
9921.000000;0.984604
9920.000000;0.983754
9919.000000;0.983252
9918.000000;0.982506
9917.000000;0.981213
9916.000000;0.979707
9915.000000;0.978441
9914.000000;0.977410
9913.000000;0.976322
9912.000000;0.975077
9911.000000;0.973820
9910.000000;0.972631
9909.000000;0.971444
9908.000000;0.970210
9907.000000;0.968954
9906.000000;0.967648
9905.000000;0.966151
9904.000000;0.964345
9903.000000;0.962346
9902.000000;0.960573
9901.000000;0.959485
9900.000000;0.959091
9899.000000;0.958748
9898.000000;0.957687
9897.000000;0.955841
9896.000000;0.953934
9895.000000;0.952647
9894.000000;0.951894
9893.000000;0.951062
9892.000000;0.949738
9891.000000;0.947951
9890.000000;0.945870
9889.000000;0.943673
9888.000000;0.941732
9887.000000;0.940501
9886.000000;0.939962
9885.000000;0.939390
9884.000000;0.938003
9883.000000;0.935846
9882.000000;0.933771
9881.000000;0.932515
9880.000000;0.931998
9879.000000;0.931576
9878.000000;0.930733
9877.000000;0.929392
9876.000000;0.927736
9875.000000;0.926044
9874.000000;0.924608
9873.000000;0.923510
9872.000000;0.922410
9871.000000;0.920816
9870.000000;0.918688
9869.000000;0.916553
9868.000000;0.914875
9867.000000;0.913538
9866.000000;0.912128
9865.000000;0.910566
9864.000000;0.909162
9863.000000;0.908127
9862.000000;0.907258
9861.000000;0.906139
9860.000000;0.904486
9859.000000;0.902332
9858.000000;0.900050
9857.000000;0.898168
9856.000000;0.896964
9855.000000;0.896175
9854.000000;0.895264
9853.000000;0.893999
9852.000000;0.892599
9851.000000;0.891325
9850.000000;0.890134
9849.000000;0.888849
9848.000000;0.887439
9847.000000;0.885987
9846.000000;0.884517
9845.000000;0.883015
9844.000000;0.881512
9843.000000;0.879977
9842.000000;0.878229
9841.000000;0.876152
9840.000000;0.873959
9839.000000;0.872065
9838.000000;0.870650
9837.000000;0.869485
9836.000000;0.868250
9835.000000;0.866887
9834.000000;0.865568
9833.000000;0.864407
9832.000000;0.863290
9831.000000;0.861965
9830.000000;0.860243
9829.000000;0.858154
9828.000000;0.855949
9827.000000;0.853898
9826.000000;0.852086
9825.000000;0.850434
9824.000000;0.848897
9823.000000;0.847518
9822.000000;0.846224
9821.000000;0.844771
9820.000000;0.843071
9819.000000;0.841483
9818.000000;0.840490
9817.000000;0.840061
9816.000000;0.839544
9815.000000;0.838316
9814.000000;0.836405
9813.000000;0.834363
9812.000000;0.832675
9811.000000;0.831431
9810.000000;0.830400
9809.000000;0.829216
9808.000000;0.827566
9807.000000;0.825413
9806.000000;0.823058
9805.000000;0.820888
9804.000000;0.819085
9803.000000;0.817648
9802.000000;0.816544
9801.000000;0.815646
9800.000000;0.814615
9799.000000;0.813135
9798.000000;0.811312
9797.000000;0.809590
9796.000000;0.808207
9795.000000;0.806905
9794.000000;0.805252
9793.000000;0.803089
9792.000000;0.800582
9791.000000;0.798021
9790.000000;0.795686
9789.000000;0.793767
9788.000000;0.792253
9787.000000;0.790958
9786.000000;0.789720
9785.000000;0.788492
9784.000000;0.787216
9783.000000;0.785764
9782.000000;0.784131
9781.000000;0.782531
9780.000000;0.781173
9779.000000;0.780003
9778.000000;0.778798
9777.000000;0.777412
9776.000000;0.775796
9775.000000;0.773864
9774.000000;0.771523
9773.000000;0.768859
9772.000000;0.766173
9771.000000;0.763811
9770.000000;0.761988
9769.000000;0.760686
9768.000000;0.759627
9767.000000;0.758412
9766.000000;0.756845
9765.000000;0.755128
9764.000000;0.753632
9763.000000;0.752467
9762.000000;0.751372
9761.000000;0.750022
9760.000000;0.748341
9759.000000;0.746474
9758.000000;0.744564
9757.000000;0.742641
9756.000000;0.740701
9755.000000;0.738789
9754.000000;0.736926
9753.000000;0.734985
9752.000000;0.732771
9751.000000;0.730315
9750.000000;0.728016
9749.000000;0.726300
9748.000000;0.725126
9747.000000;0.723968
9746.000000;0.722388
9745.000000;0.720480
9744.000000;0.718650
9743.000000;0.717088
9742.000000;0.715624
9741.000000;0.714039
9740.000000;0.712311
9739.000000;0.710526
9738.000000;0.708720
9737.000000;0.706890
9736.000000;0.705089
9735.000000;0.703381
9734.000000;0.701744
9733.000000;0.700051
9732.000000;0.698214
9731.000000;0.696293
9730.000000;0.694428
9729.000000;0.692634
9728.000000;0.690745
9727.000000;0.688630
9726.000000;0.686447
9725.000000;0.684549
9724.000000;0.683092
9723.000000;0.681816
9722.000000;0.680276
9721.000000;0.678231
9720.000000;0.675796
9719.000000;0.673307
9718.000000;0.671115
9717.000000;0.669376
9716.000000;0.667918
9715.000000;0.666351
9714.000000;0.664435
9713.000000;0.662341
9712.000000;0.660441
9711.000000;0.658889
9710.000000;0.657499
9709.000000;0.656007
9708.000000;0.654297
9707.000000;0.652364
9706.000000;0.650210
9705.000000;0.647890
9704.000000;0.645571
9703.000000;0.643442
9702.000000;0.641554
9701.000000;0.639818
9700.000000;0.638101
9699.000000;0.636300
9698.000000;0.634335
9697.000000;0.632179
9696.000000;0.629910
9695.000000;0.627665
9694.000000;0.625524
9693.000000;0.623477
9692.000000;0.621514
9691.000000;0.619674
9690.000000;0.617932
9689.000000;0.616094
9688.000000;0.613964
9687.000000;0.611633
9686.000000;0.609460
9685.000000;0.607644
9684.000000;0.605936
9683.000000;0.603920
9682.000000;0.601570
9681.000000;0.599328
9680.000000;0.597570
9679.000000;0.596141
9678.000000;0.594532
9677.000000;0.592424
9676.000000;0.589943
9675.000000;0.587432
9674.000000;0.585116
9673.000000;0.583019
9672.000000;0.581068
9671.000000;0.579159
9670.000000;0.577190
9669.000000;0.575131
9668.000000;0.573086
9667.000000;0.571212
9666.000000;0.569520
9665.000000;0.567782
9664.000000;0.565701
9663.000000;0.563191
9662.000000;0.560473
9661.000000;0.557877
9660.000000;0.555592
9659.000000;0.553589
9658.000000;0.551736
9657.000000;0.549923
9656.000000;0.548094
9655.000000;0.546187
9654.000000;0.544106
9653.000000;0.541763
9652.000000;0.539182
9651.000000;0.536513
9650.000000;0.533944
9649.000000;0.531578
9648.000000;0.529456
9647.000000;0.527621
9646.000000;0.526073
9645.000000;0.524642
9644.000000;0.523018
9643.000000;0.520977
9642.000000;0.518579
9641.000000;0.516109
9640.000000;0.513838
9639.000000;0.511826
9638.000000;0.509892
9637.000000;0.507783
9636.000000;0.505441
9635.000000;0.503085
9634.000000;0.500956
9633.000000;0.498994
9632.000000;0.496905
9631.000000;0.494546
9630.000000;0.492076
9629.000000;0.489713
9628.000000;0.487501
9627.000000;0.485387
9626.000000;0.483342
9625.000000;0.481290
9624.000000;0.479109
9623.000000;0.476818
9622.000000;0.474614
9621.000000;0.472555
9620.000000;0.470402
9619.000000;0.467989
9618.000000;0.465556
9617.000000;0.463435
9616.000000;0.461533
9615.000000;0.459452
9614.000000;0.457051
9613.000000;0.454552
9612.000000;0.452093
9611.000000;0.449542
9610.000000;0.446888
9609.000000;0.444474
9608.000000;0.442634
9607.000000;0.441220
9606.000000;0.439689
9605.000000;0.437595
9604.000000;0.434901
9603.000000;0.431915
9602.000000;0.429026
9601.000000;0.426439
9600.000000;0.424086
9599.000000;0.421770
9598.000000;0.419373
9597.000000;0.416903
9596.000000;0.414410
9595.000000;0.412009
9594.000000;0.409912
9593.000000;0.408245
9592.000000;0.406804
9591.000000;0.405146
9590.000000;0.402963
9589.000000;0.400250
9588.000000;0.397164
9587.000000;0.393917
9586.000000;0.390839
9585.000000;0.388261
9584.000000;0.386194
9583.000000;0.384261
9582.000000;0.382051
9581.000000;0.379470
9580.000000;0.376740
9579.000000;0.374179
9578.000000;0.372016
9577.000000;0.370235
9576.000000;0.368533
9575.000000;0.366568
9574.000000;0.364323
9573.000000;0.362073
9572.000000;0.359962
9571.000000;0.357785
9570.000000;0.355258
9569.000000;0.352322
9568.000000;0.349157
9567.000000;0.346091
9566.000000;0.343567
9565.000000;0.341909
9564.000000;0.340906
9563.000000;0.339794
9562.000000;0.337887
9561.000000;0.335167
9560.000000;0.332147
9559.000000;0.329291
9558.000000;0.326717
9557.000000;0.324324
9556.000000;0.321989
9555.000000;0.319694
9554.000000;0.317574
9553.000000;0.315749
9552.000000;0.313999
9551.000000;0.311814
9550.000000;0.308956
9549.000000;0.305845
9548.000000;0.303131
9547.000000;0.300978
9546.000000;0.299010
9545.000000;0.296911
9544.000000;0.294771
9543.000000;0.292783
9542.000000;0.290870
9541.000000;0.288791
9540.000000;0.286468
9539.000000;0.284057
9538.000000;0.281705
9537.000000;0.279380
9536.000000;0.276969
9535.000000;0.274492
9534.000000;0.272130
9533.000000;0.270009
9532.000000;0.268033
9531.000000;0.266037
9530.000000;0.264059
9529.000000;0.262288
9528.000000;0.260700
9527.000000;0.258933
9526.000000;0.256681
9525.000000;0.254094
9524.000000;0.251623
9523.000000;0.249544
9522.000000;0.247758
9521.000000;0.246009
9520.000000;0.244153
9519.000000;0.242236
9518.000000;0.240410
9517.000000;0.238779
9516.000000;0.237250
9515.000000;0.235595
9514.000000;0.233711
9513.000000;0.231758
9512.000000;0.229927
9511.000000;0.228174
9510.000000;0.226297
9509.000000;0.224235
9508.000000;0.222121
9507.000000;0.220096
9506.000000;0.218191
9505.000000;0.216404
9504.000000;0.214757
9503.000000;0.213250
9502.000000;0.211817
9501.000000;0.210344
9500.000000;0.208667
9499.000000;0.206650
9498.000000;0.204380
9497.000000;0.202246
9496.000000;0.200622
9495.000000;0.199449
9494.000000;0.198291
9493.000000;0.196836
9492.000000;0.195208
9491.000000;0.193713
9490.000000;0.192429
9489.000000;0.191174
9488.000000;0.189794
9487.000000;0.188310
9486.000000;0.186810
9485.000000;0.185307
9484.000000;0.183796
9483.000000;0.182395
9482.000000;0.181312
9481.000000;0.180633
9480.000000;0.180149
9479.000000;0.179493
9478.000000;0.178470
9477.000000;0.177216
9476.000000;0.176008
9475.000000;0.174985
9474.000000;0.174106
9473.000000;0.173300
9472.000000;0.172551
9471.000000;0.171841
9470.000000;0.171109
9469.000000;0.170287
9468.000000;0.169334
9467.000000;0.168243
9466.000000;0.167061
9465.000000;0.165914
9464.000000;0.164934
9463.000000;0.164147
9462.000000;0.163472
9461.000000;0.162831
9460.000000;0.162225
9459.000000;0.161692
9458.000000;0.161228
9457.000000;0.160780
9456.000000;0.160299
9455.000000;0.159794
9454.000000;0.159331
9453.000000;0.158960
9452.000000;0.158604
9451.000000;0.158077
9450.000000;0.157298
9449.000000;0.156490
9448.000000;0.156063
9447.000000;0.156231
9446.000000;0.156774
9445.000000;0.157244
9444.000000;0.157393
9443.000000;0.157322
9442.000000;0.157253
9441.000000;0.157272
9440.000000;0.157335
9439.000000;0.157386
9438.000000;0.157355
9437.000000;0.157108
9436.000000;0.156599
9435.000000;0.156064
9434.000000;0.155896
9433.000000;0.156238
9432.000000;0.156791
9431.000000;0.157137
9430.000000;0.157202
9429.000000;0.157278
9428.000000;0.157657
9427.000000;0.158348
9426.000000;0.159148
9425.000000;0.159848
9424.000000;0.160341
9423.000000;0.160617
9422.000000;0.160721
9421.000000;0.160737
9420.000000;0.160800
9419.000000;0.161082
9418.000000;0.161687
9417.000000;0.162536
9416.000000;0.163423
9415.000000;0.164238
9414.000000;0.165054
9413.000000;0.165926
9412.000000;0.166711
9411.000000;0.167231
9410.000000;0.167551
9409.000000;0.167897
9408.000000;0.168355
9407.000000;0.168844
9406.000000;0.169398
9405.000000;0.170211
9404.000000;0.171313
9403.000000;0.172383
9402.000000;0.173083
9401.000000;0.173488
9400.000000;0.174001
9399.000000;0.174896
9398.000000;0.176078
9397.000000;0.177272
9396.000000;0.178284
9395.000000;0.179059
9394.000000;0.179616
9393.000000;0.180028
9392.000000;0.180449
9391.000000;0.181059
9390.000000;0.181931
9389.000000;0.182951
9388.000000;0.183938
9387.000000;0.184894
9386.000000;0.186088
9385.000000;0.187775
9384.000000;0.189816
9383.000000;0.191672
9382.000000;0.192864
9381.000000;0.193400
9380.000000;0.193708
9379.000000;0.194200
9378.000000;0.195007
9377.000000;0.196091
9376.000000;0.197419
9375.000000;0.198935
9374.000000;0.200448
9373.000000;0.201714
9372.000000;0.202684
9371.000000;0.203607
9370.000000;0.204785
9369.000000;0.206242
9368.000000;0.207707
9367.000000;0.208904
9366.000000;0.209811
9365.000000;0.210652
9364.000000;0.211672
9363.000000;0.212974
9362.000000;0.214478
9361.000000;0.216007
9360.000000;0.217412
9359.000000;0.218660
9358.000000;0.219773
9357.000000;0.220741
9356.000000;0.221570
9355.000000;0.222413
9354.000000;0.223488
9353.000000;0.224792
9352.000000;0.226033
9351.000000;0.226976
9350.000000;0.227747
9349.000000;0.228645
9348.000000;0.229734
9347.000000;0.230822
9346.000000;0.231847
9345.000000;0.233034
9344.000000;0.234588
9343.000000;0.236386
9342.000000;0.238119
9341.000000;0.239610
9340.000000;0.240864
9339.000000;0.241890
9338.000000;0.242653
9337.000000;0.243221
9336.000000;0.243839
9335.000000;0.244759
9334.000000;0.246035
9333.000000;0.247493
9332.000000;0.248889
9331.000000;0.250074
9330.000000;0.251054
9329.000000;0.251966
9328.000000;0.252985
9327.000000;0.254207
9326.000000;0.255556
9325.000000;0.256844
9324.000000;0.257973
9323.000000;0.259045
9322.000000;0.260198
9321.000000;0.261384
9320.000000;0.262423
9319.000000;0.263306
9318.000000;0.264308
9317.000000;0.265685
9316.000000;0.267348
9315.000000;0.268944
9314.000000;0.270201
9313.000000;0.271111
9312.000000;0.271836
9311.000000;0.272586
9310.000000;0.273580
9309.000000;0.274950
9308.000000;0.276588
9307.000000;0.278169
9306.000000;0.279420
9305.000000;0.280366
9304.000000;0.281283
9303.000000;0.282415
9302.000000;0.283752
9301.000000;0.285073
9300.000000;0.286170
9299.000000;0.287015
9298.000000;0.287738
9297.000000;0.288493
9296.000000;0.289391
9295.000000;0.290497
9294.000000;0.291789
9293.000000;0.293103
9292.000000;0.294239
9291.000000;0.295193
9290.000000;0.296185
9289.000000;0.297397
9288.000000;0.298743
9287.000000;0.299972
9286.000000;0.300947
9285.000000;0.301745
9284.000000;0.302563
9283.000000;0.303589
9282.000000;0.304887
9281.000000;0.306289
9280.000000;0.307461
9279.000000;0.308199
9278.000000;0.308666
9277.000000;0.309235
9276.000000;0.310143
9275.000000;0.311358
9274.000000;0.312744
9273.000000;0.314202
9272.000000;0.315660
9271.000000;0.317016
9270.000000;0.318141
9269.000000;0.318927
9268.000000;0.319389
9267.000000;0.319764
9266.000000;0.320398
9265.000000;0.321437
9264.000000;0.322675
9263.000000;0.323819
9262.000000;0.324825
9261.000000;0.325815
9260.000000;0.326780
9259.000000;0.327580
9258.000000;0.328262
9257.000000;0.329119
9256.000000;0.330330
9255.000000;0.331693
9254.000000;0.332824
9253.000000;0.333535
9252.000000;0.333963
9251.000000;0.334419
9250.000000;0.335161
9249.000000;0.336195
9248.000000;0.337248
9247.000000;0.338004
9246.000000;0.338469
9245.000000;0.339000
9244.000000;0.339932
9243.000000;0.341245
9242.000000;0.342649
9241.000000;0.343918
9240.000000;0.345018
9239.000000;0.345995
9238.000000;0.346859
9237.000000;0.347599
9236.000000;0.348230
9235.000000;0.348821
9234.000000;0.349459
9233.000000;0.350205
9232.000000;0.351036
9231.000000;0.351875
9230.000000;0.352671
9229.000000;0.353440
9228.000000;0.354228
9227.000000;0.355077
9226.000000;0.356026
9225.000000;0.357087
9224.000000;0.358214
9223.000000;0.359325
9222.000000;0.360356
9221.000000;0.361260
9220.000000;0.361975
9219.000000;0.362451
9218.000000;0.362729
9217.000000;0.362934
9216.000000;0.363189
9215.000000;0.363582
9214.000000;0.364209
9213.000000;0.365136
9212.000000;0.366316
9211.000000;0.367581
9210.000000;0.368777
9209.000000;0.369835
9208.000000;0.370735
9207.000000;0.371461
9206.000000;0.372068
9205.000000;0.372686
9204.000000;0.373419
9203.000000;0.374249
9202.000000;0.375104
9201.000000;0.375954
9200.000000;0.376819
9199.000000;0.377664
9198.000000;0.378362
9197.000000;0.378778
9196.000000;0.378922
9195.000000;0.379009
9194.000000;0.379321
9193.000000;0.379975
9192.000000;0.380846
9191.000000;0.381757
9190.000000;0.382708
9189.000000;0.383806
9188.000000;0.384992
9187.000000;0.385979
9186.000000;0.386550
9185.000000;0.386833
9184.000000;0.387180
9183.000000;0.387794
9182.000000;0.388566
9181.000000;0.389288
9180.000000;0.389936
9179.000000;0.390649
9178.000000;0.391489
9177.000000;0.392302
9176.000000;0.392888
9175.000000;0.393233
9174.000000;0.393505
9173.000000;0.393868
9172.000000;0.394399
9171.000000;0.395136
9170.000000;0.396032
9169.000000;0.396876
9168.000000;0.397433
9167.000000;0.397758
9166.000000;0.398187
9165.000000;0.398904
9164.000000;0.399674
9163.000000;0.400177
9162.000000;0.400470
9161.000000;0.400901
9160.000000;0.401647
9159.000000;0.402574
9158.000000;0.403498
9157.000000;0.404323
9156.000000;0.404930
9155.000000;0.405204
9154.000000;0.405271
9153.000000;0.405487
9152.000000;0.406060
9151.000000;0.406825
9150.000000;0.407489
9149.000000;0.407952
9148.000000;0.408295
9147.000000;0.408615
9146.000000;0.408991
9145.000000;0.409511
9144.000000;0.410186
9143.000000;0.410908
9142.000000;0.411586
9141.000000;0.412240
9140.000000;0.412872
9139.000000;0.413356
9138.000000;0.413586
9137.000000;0.413657
9136.000000;0.413786
9135.000000;0.414094
9134.000000;0.414577
9133.000000;0.415201
9132.000000;0.415892
9131.000000;0.416491
9130.000000;0.416885
9129.000000;0.417176
9128.000000;0.417590
9127.000000;0.418206
9126.000000;0.418872
9125.000000;0.419404
9124.000000;0.419764
9123.000000;0.420017
9122.000000;0.420225
9121.000000;0.420435
9120.000000;0.420683
9119.000000;0.420990
9118.000000;0.421382
9117.000000;0.421950
9116.000000;0.422781
9115.000000;0.423787
9114.000000;0.424697
9113.000000;0.425294
9112.000000;0.425627
9111.000000;0.425910
9110.000000;0.426250
9109.000000;0.426569
9108.000000;0.426784
9107.000000;0.426946
9106.000000;0.427173
9105.000000;0.427512
9104.000000;0.427944
9103.000000;0.428475
9102.000000;0.429099
9101.000000;0.429724
9100.000000;0.430208
9099.000000;0.430519
9098.000000;0.430765
9097.000000;0.431039
9096.000000;0.431326
9095.000000;0.431603
9094.000000;0.431954
9093.000000;0.432465
9092.000000;0.433059
9091.000000;0.433543
9090.000000;0.433840
9089.000000;0.434058
9088.000000;0.434329
9087.000000;0.434644
9086.000000;0.434914
9085.000000;0.435135
9084.000000;0.435428
9083.000000;0.435914
9082.000000;0.436555
9081.000000;0.437132
9080.000000;0.437412
9079.000000;0.437391
9078.000000;0.437336
9077.000000;0.437542
9076.000000;0.438059
9075.000000;0.438683
9074.000000;0.439210
9073.000000;0.439597
9072.000000;0.439905
9071.000000;0.440188
9070.000000;0.440484
9069.000000;0.440828
9068.000000;0.441186
9067.000000;0.441434
9066.000000;0.441485
9065.000000;0.441420
9064.000000;0.441432
9063.000000;0.441630
9062.000000;0.441939
9061.000000;0.442217
9060.000000;0.442434
9059.000000;0.442730
9058.000000;0.443269
9057.000000;0.444040
9056.000000;0.444817
9055.000000;0.445342
9054.000000;0.445527
9053.000000;0.445479
