Criado como novo conjunto de dados;"0307_DANIEL.spp","12602.6 Secs"
cm-1;Abs
10000.000000;0.809915
9999.000000;0.808275
9998.000000;0.806620
9997.000000;0.805015
9996.000000;0.803204
9995.000000;0.801186
9994.000000;0.799374
9993.000000;0.798116
9992.000000;0.797541
9991.000000;0.797369
9990.000000;0.797115
9989.000000;0.796443
9988.000000;0.795409
9987.000000;0.794320
9986.000000;0.793366
9985.000000;0.792443
9984.000000;0.791311
9983.000000;0.789847
9982.000000;0.788115
9981.000000;0.786283
9980.000000;0.784530
9979.000000;0.782967
9978.000000;0.781583
9977.000000;0.780290
9976.000000;0.779051
9975.000000;0.777924
9974.000000;0.776934
9973.000000;0.775983
9972.000000;0.774935
9971.000000;0.773803
9970.000000;0.772747
9969.000000;0.771884
9968.000000;0.771112
9967.000000;0.770198
9966.000000;0.769031
9965.000000;0.767760
9964.000000;0.766626
9963.000000;0.765660
9962.000000;0.764639
9961.000000;0.763344
9960.000000;0.761797
9959.000000;0.760205
9958.000000;0.758728
9957.000000;0.757402
9956.000000;0.756213
9955.000000;0.755123
9954.000000;0.754033
9953.000000;0.752839
9952.000000;0.751561
9951.000000;0.750337
9950.000000;0.749248
9949.000000;0.748196
9948.000000;0.746998
9947.000000;0.745549
9946.000000;0.743896
9945.000000;0.742204
9944.000000;0.740677
9943.000000;0.739449
9942.000000;0.738487
9941.000000;0.737583
9940.000000;0.736521
9939.000000;0.735282
9938.000000;0.734072
9937.000000;0.733097
9936.000000;0.732294
9935.000000;0.731365
9934.000000;0.730124
9933.000000;0.728713
9932.000000;0.727362
9931.000000;0.726053
9930.000000;0.724624
9929.000000;0.723124
9928.000000;0.721792
9927.000000;0.720651
9926.000000;0.719428
9925.000000;0.717998
9924.000000;0.716614
9923.000000;0.715505
9922.000000;0.714493
9921.000000;0.713293
9920.000000;0.712002
9919.000000;0.710949
9918.000000;0.710134
9917.000000;0.709178
9916.000000;0.707834
9915.000000;0.706294
9914.000000;0.704890
9913.000000;0.703718
9912.000000;0.702591
9911.000000;0.701211
9910.000000;0.699384
9909.000000;0.697231
9908.000000;0.695205
9907.000000;0.693707
9906.000000;0.692692
9905.000000;0.691821
9904.000000;0.690945
9903.000000;0.690188
9902.000000;0.689524
9901.000000;0.688597
9900.000000;0.687122
9899.000000;0.685250
9898.000000;0.683367
9897.000000;0.681674
9896.000000;0.680106
9895.000000;0.678531
9894.000000;0.676916
9893.000000;0.675391
9892.000000;0.674197
9891.000000;0.673449
9890.000000;0.672874
9889.000000;0.671948
9888.000000;0.670411
9887.000000;0.668516
9886.000000;0.666679
9885.000000;0.665058
9884.000000;0.663599
9883.000000;0.662276
9882.000000;0.661068
9881.000000;0.659819
9880.000000;0.658386
9879.000000;0.656893
9878.000000;0.655624
9877.000000;0.654654
9876.000000;0.653758
9875.000000;0.652713
9874.000000;0.651511
9873.000000;0.650220
9872.000000;0.648802
9871.000000;0.647197
9870.000000;0.645497
9869.000000;0.643901
9868.000000;0.642507
9867.000000;0.641247
9866.000000;0.640016
9865.000000;0.638782
9864.000000;0.637537
9863.000000;0.636226
9862.000000;0.634808
9861.000000;0.633355
9860.000000;0.631982
9859.000000;0.630656
9858.000000;0.629195
9857.000000;0.627522
9856.000000;0.625801
9855.000000;0.624228
9854.000000;0.622776
9853.000000;0.621288
9852.000000;0.619771
9851.000000;0.618395
9850.000000;0.617214
9849.000000;0.616047
9848.000000;0.614736
9847.000000;0.613356
9846.000000;0.612071
9845.000000;0.610871
9844.000000;0.609562
9843.000000;0.607980
9842.000000;0.606133
9841.000000;0.604169
9840.000000;0.602282
9839.000000;0.600631
9838.000000;0.599278
9837.000000;0.598147
9836.000000;0.597064
9835.000000;0.595843
9834.000000;0.594373
9833.000000;0.592669
9832.000000;0.590842
9831.000000;0.589002
9830.000000;0.587210
9829.000000;0.585532
9828.000000;0.584055
9827.000000;0.582775
9826.000000;0.581519
9825.000000;0.580090
9824.000000;0.578514
9823.000000;0.577039
9822.000000;0.575858
9821.000000;0.574888
9820.000000;0.573862
9819.000000;0.572578
9818.000000;0.571034
9817.000000;0.569376
9816.000000;0.567752
9815.000000;0.566193
9814.000000;0.564617
9813.000000;0.562962
9812.000000;0.561288
9811.000000;0.559708
9810.000000;0.558214
9809.000000;0.556656
9808.000000;0.554911
9807.000000;0.553052
9806.000000;0.551319
9805.000000;0.549913
9804.000000;0.548790
9803.000000;0.547643
9802.000000;0.546141
9801.000000;0.544215
9800.000000;0.542117
9799.000000;0.540178
9798.000000;0.538562
9797.000000;0.537235
9796.000000;0.536080
9795.000000;0.534960
9794.000000;0.533767
9793.000000;0.532471
9792.000000;0.531088
9791.000000;0.529550
9790.000000;0.527699
9789.000000;0.525509
9788.000000;0.523236
9787.000000;0.521223
9786.000000;0.519608
9785.000000;0.518298
9784.000000;0.517121
9783.000000;0.515898
9782.000000;0.514465
9781.000000;0.512791
9780.000000;0.511056
9779.000000;0.509450
9778.000000;0.507937
9777.000000;0.506327
9776.000000;0.504550
9775.000000;0.502701
9774.000000;0.500844
9773.000000;0.498958
9772.000000;0.497078
9771.000000;0.495309
9770.000000;0.493690
9769.000000;0.492149
9768.000000;0.490617
9767.000000;0.489062
9766.000000;0.487426
9765.000000;0.485670
9764.000000;0.483880
9763.000000;0.482220
9762.000000;0.480721
9761.000000;0.479258
9760.000000;0.477717
9759.000000;0.476089
9758.000000;0.474407
9757.000000;0.472725
9756.000000;0.471142
9755.000000;0.469678
9754.000000;0.468147
9753.000000;0.466297
9752.000000;0.464135
9751.000000;0.461938
9750.000000;0.459940
9749.000000;0.458136
9748.000000;0.456415
9747.000000;0.454723
9746.000000;0.453041
9745.000000;0.451357
9744.000000;0.449714
9743.000000;0.448174
9742.000000;0.446693
9741.000000;0.445156
9740.000000;0.443547
9739.000000;0.441927
9738.000000;0.440245
9737.000000;0.438361
9736.000000;0.436336
9735.000000;0.434468
9734.000000;0.432921
9733.000000;0.431444
9732.000000;0.429629
9731.000000;0.427346
9730.000000;0.424860
9729.000000;0.422575
9728.000000;0.420739
9727.000000;0.419294
9726.000000;0.417927
9725.000000;0.416326
9724.000000;0.414447
9723.000000;0.412457
9722.000000;0.410464
9721.000000;0.408433
9720.000000;0.406380
9719.000000;0.404448
9718.000000;0.402710
9717.000000;0.401057
9716.000000;0.399341
9715.000000;0.397539
9714.000000;0.395686
9713.000000;0.393820
9712.000000;0.392030
9711.000000;0.390407
9710.000000;0.388853
9709.000000;0.387123
9708.000000;0.385163
9707.000000;0.383214
9706.000000;0.381436
9705.000000;0.379622
9704.000000;0.377489
9703.000000;0.375114
9702.000000;0.372867
9701.000000;0.370957
9700.000000;0.369265
9699.000000;0.367556
9698.000000;0.365694
9697.000000;0.363657
9696.000000;0.361505
9695.000000;0.359369
9694.000000;0.357368
9693.000000;0.355530
9692.000000;0.353825
9691.000000;0.352208
9690.000000;0.350582
9689.000000;0.348807
9688.000000;0.346869
9687.000000;0.344931
9686.000000;0.343099
9685.000000;0.341217
9684.000000;0.339056
9683.000000;0.336626
9682.000000;0.334187
9681.000000;0.331975
9680.000000;0.330062
9679.000000;0.328399
9678.000000;0.326814
9677.000000;0.325016
9676.000000;0.322802
9675.000000;0.320295
9674.000000;0.317848
9673.000000;0.315687
9672.000000;0.313754
9671.000000;0.311901
9670.000000;0.310068
9669.000000;0.308234
9668.000000;0.306352
9667.000000;0.304412
9666.000000;0.302466
9665.000000;0.300511
9664.000000;0.298415
9663.000000;0.296043
9662.000000;0.293442
9661.000000;0.290853
9660.000000;0.288547
9659.000000;0.286643
9658.000000;0.285009
9657.000000;0.283353
9656.000000;0.281442
9655.000000;0.279283
9654.000000;0.277048
9653.000000;0.274838
9652.000000;0.272602
9651.000000;0.270285
9650.000000;0.267965
9649.000000;0.265767
9648.000000;0.263693
9647.000000;0.261606
9646.000000;0.259389
9645.000000;0.257107
9644.000000;0.254958
9643.000000;0.253075
9642.000000;0.251355
9641.000000;0.249550
9640.000000;0.247543
9639.000000;0.245462
9638.000000;0.243469
9637.000000;0.241517
9636.000000;0.239435
9635.000000;0.237211
9634.000000;0.235037
9633.000000;0.233010
9632.000000;0.230951
9631.000000;0.228633
9630.000000;0.226129
9629.000000;0.223754
9628.000000;0.221660
9627.000000;0.219626
9626.000000;0.217333
9625.000000;0.214776
9624.000000;0.212288
9623.000000;0.210153
9622.000000;0.208294
9621.000000;0.206412
9620.000000;0.204338
9619.000000;0.202147
9618.000000;0.199943
9617.000000;0.197703
9616.000000;0.195369
9615.000000;0.192994
9614.000000;0.190670
9613.000000;0.188378
9612.000000;0.186033
9611.000000;0.183666
9610.000000;0.181420
9609.000000;0.179350
9608.000000;0.177321
9607.000000;0.175171
9606.000000;0.172881
9605.000000;0.170499
9604.000000;0.167997
9603.000000;0.165343
9602.000000;0.162679
9601.000000;0.160254
9600.000000;0.158127
9599.000000;0.156043
9598.000000;0.153719
9597.000000;0.151184
9596.000000;0.148717
9595.000000;0.146489
9594.000000;0.144393
9593.000000;0.142239
9592.000000;0.139987
9591.000000;0.137721
9590.000000;0.135486
9589.000000;0.133272
9588.000000;0.131110
9587.000000;0.129051
9586.000000;0.127039
9585.000000;0.124899
9584.000000;0.122505
9583.000000;0.119914
9582.000000;0.117278
9581.000000;0.114690
9580.000000;0.112171
9579.000000;0.109798
9578.000000;0.107711
9577.000000;0.105929
9576.000000;0.104202
9575.000000;0.102144
9574.000000;0.099573
9573.000000;0.096684
9572.000000;0.093874
9571.000000;0.091421
9570.000000;0.089328
9569.000000;0.087370
9568.000000;0.085249
9567.000000;0.082777
9566.000000;0.080036
9565.000000;0.077349
9564.000000;0.075006
9563.000000;0.073003
9562.000000;0.071094
9561.000000;0.069065
9560.000000;0.066838
9559.000000;0.064372
9558.000000;0.061665
9557.000000;0.058900
9556.000000;0.056415
9555.000000;0.054370
9554.000000;0.052556
9553.000000;0.050627
9552.000000;0.048453
9551.000000;0.046132
9550.000000;0.043748
9549.000000;0.041298
9548.000000;0.038827
9547.000000;0.036484
9546.000000;0.034409
9545.000000;0.032631
9544.000000;0.031083
9543.000000;0.029597
9542.000000;0.027910
9541.000000;0.025784
9540.000000;0.023191
9539.000000;0.020357
9538.000000;0.017601
9537.000000;0.015143
9536.000000;0.013018
9535.000000;0.011101
9534.000000;0.009218
9533.000000;0.007266
9532.000000;0.005230
9531.000000;0.003086
9530.000000;0.000781
9529.000000;-0.001609
9528.000000;-0.003824
9527.000000;-0.005659
9526.000000;-0.007242
9525.000000;-0.008942
9524.000000;-0.010993
9523.000000;-0.013312
9522.000000;-0.015671
9521.000000;-0.017922
9520.000000;-0.020036
9519.000000;-0.022051
9518.000000;-0.024027
9517.000000;-0.025988
9516.000000;-0.027856
9515.000000;-0.029519
9514.000000;-0.030984
9513.000000;-0.032399
9512.000000;-0.033916
9511.000000;-0.035611
9510.000000;-0.037535
9509.000000;-0.039682
9508.000000;-0.041878
9507.000000;-0.043823
9506.000000;-0.045387
9505.000000;-0.046797
9504.000000;-0.048397
9503.000000;-0.050241
9502.000000;-0.052036
9501.000000;-0.053517
9500.000000;-0.054797
9499.000000;-0.056248
9498.000000;-0.058070
9497.000000;-0.060065
9496.000000;-0.061886
9495.000000;-0.063438
9494.000000;-0.064911
9493.000000;-0.066443
9492.000000;-0.067897
9491.000000;-0.069101
9490.000000;-0.070166
9489.000000;-0.071372
9488.000000;-0.072775
9487.000000;-0.074110
9486.000000;-0.075165
9485.000000;-0.076088
9484.000000;-0.077227
9483.000000;-0.078722
9482.000000;-0.080369
9481.000000;-0.081839
9480.000000;-0.082981
9479.000000;-0.083907
9478.000000;-0.084847
9477.000000;-0.085937
9476.000000;-0.087126
9475.000000;-0.088281
9474.000000;-0.089340
9473.000000;-0.090332
9472.000000;-0.091280
9471.000000;-0.092174
9470.000000;-0.093033
9469.000000;-0.093913
9468.000000;-0.094832
9467.000000;-0.095733
9466.000000;-0.096536
9465.000000;-0.097167
9464.000000;-0.097554
9463.000000;-0.097707
9462.000000;-0.097817
9461.000000;-0.098171
9460.000000;-0.098886
9459.000000;-0.099794
9458.000000;-0.100636
9457.000000;-0.101304
9456.000000;-0.101837
9455.000000;-0.102255
9454.000000;-0.102520
9453.000000;-0.102629
9452.000000;-0.102667
9451.000000;-0.102758
9450.000000;-0.103013
9449.000000;-0.103497
9448.000000;-0.104167
9447.000000;-0.104834
9446.000000;-0.105255
9445.000000;-0.105314
9444.000000;-0.105122
9443.000000;-0.104929
9442.000000;-0.104933
9441.000000;-0.105144
9440.000000;-0.105404
9439.000000;-0.105546
9438.000000;-0.105540
9437.000000;-0.105463
9436.000000;-0.105334
9435.000000;-0.105055
9434.000000;-0.104543
9433.000000;-0.103882
9432.000000;-0.103276
9431.000000;-0.102865
9430.000000;-0.102649
9429.000000;-0.102565
9428.000000;-0.102568
9427.000000;-0.102603
9426.000000;-0.102549
9425.000000;-0.102264
9424.000000;-0.101683
9423.000000;-0.100895
9422.000000;-0.100108
9421.000000;-0.099528
9420.000000;-0.099218
9419.000000;-0.099060
9418.000000;-0.098857
9417.000000;-0.098480
9416.000000;-0.097936
9415.000000;-0.097295
9414.000000;-0.096596
9413.000000;-0.095855
9412.000000;-0.095111
9411.000000;-0.094425
9410.000000;-0.093802
9409.000000;-0.093183
9408.000000;-0.092529
9407.000000;-0.091880
9406.000000;-0.091266
9405.000000;-0.090612
9404.000000;-0.089795
9403.000000;-0.088799
9402.000000;-0.087730
9401.000000;-0.086660
9400.000000;-0.085565
9399.000000;-0.084446
9398.000000;-0.083433
9397.000000;-0.082679
9396.000000;-0.082181
9395.000000;-0.081780
9394.000000;-0.081283
9393.000000;-0.080554
9392.000000;-0.079534
9391.000000;-0.078295
9390.000000;-0.077057
9389.000000;-0.076039
9388.000000;-0.075255
9387.000000;-0.074501
9386.000000;-0.073544
9385.000000;-0.072308
9384.000000;-0.070892
9383.000000;-0.069498
9382.000000;-0.068302
9381.000000;-0.067330
9380.000000;-0.066444
9379.000000;-0.065487
9378.000000;-0.064431
9377.000000;-0.063328
9376.000000;-0.062166
9375.000000;-0.060887
9374.000000;-0.059555
9373.000000;-0.058344
9372.000000;-0.057301
9371.000000;-0.056236
9370.000000;-0.054934
9369.000000;-0.053450
9368.000000;-0.052075
9367.000000;-0.051034
9366.000000;-0.050266
9365.000000;-0.049517
9364.000000;-0.048601
9363.000000;-0.047506
9362.000000;-0.046300
9361.000000;-0.044994
9360.000000;-0.043568
9359.000000;-0.042100
9358.000000;-0.040764
9357.000000;-0.039641
9356.000000;-0.038611
9355.000000;-0.037482
9354.000000;-0.036195
9353.000000;-0.034826
9352.000000;-0.033463
9351.000000;-0.032169
9350.000000;-0.031041
9349.000000;-0.030164
9348.000000;-0.029460
9347.000000;-0.028688
9346.000000;-0.027623
9345.000000;-0.026218
9344.000000;-0.024585
9343.000000;-0.022896
9342.000000;-0.021307
9341.000000;-0.019891
9340.000000;-0.018611
9339.000000;-0.017380
9338.000000;-0.016197
9337.000000;-0.015161
9336.000000;-0.014338
9335.000000;-0.013645
9334.000000;-0.012864
9333.000000;-0.011781
9332.000000;-0.010349
9331.000000;-0.008776
9330.000000;-0.007400
9329.000000;-0.006388
9328.000000;-0.005577
9327.000000;-0.004666
9326.000000;-0.003536
9325.000000;-0.002271
9324.000000;-0.000943
9323.000000;0.000472
9322.000000;0.001951
9321.000000;0.003349
9320.000000;0.004549
9319.000000;0.005588
9318.000000;0.006594
9317.000000;0.007677
9316.000000;0.008892
9315.000000;0.010210
9314.000000;0.011484
9313.000000;0.012558
9312.000000;0.013463
9311.000000;0.014412
9310.000000;0.015552
9309.000000;0.016821
9308.000000;0.018096
9307.000000;0.019365
9306.000000;0.020675
9305.000000;0.022029
9304.000000;0.023414
9303.000000;0.024839
9302.000000;0.026252
9301.000000;0.027486
9300.000000;0.028432
9299.000000;0.029223
9298.000000;0.030126
9297.000000;0.031261
9296.000000;0.032490
9295.000000;0.033590
9294.000000;0.034459
9293.000000;0.035176
9292.000000;0.035900
9291.000000;0.036746
9290.000000;0.037732
9289.000000;0.038844
9288.000000;0.040120
9287.000000;0.041561
9286.000000;0.043014
9285.000000;0.044267
9284.000000;0.045323
9283.000000;0.046405
9282.000000;0.047617
9281.000000;0.048750
9280.000000;0.049582
9279.000000;0.050251
9278.000000;0.051116
9277.000000;0.052281
9276.000000;0.053487
9275.000000;0.054499
9274.000000;0.055386
9273.000000;0.056364
9272.000000;0.057514
9271.000000;0.058782
9270.000000;0.060117
9269.000000;0.061456
9268.000000;0.062630
9267.000000;0.063450
9266.000000;0.063947
9265.000000;0.064413
9264.000000;0.065155
9263.000000;0.066227
9262.000000;0.067440
9261.000000;0.068576
9260.000000;0.069568
9259.000000;0.070475
9258.000000;0.071365
9257.000000;0.072246
9256.000000;0.073102
9255.000000;0.073935
9254.000000;0.074786
9253.000000;0.075705
9252.000000;0.076722
9251.000000;0.077824
9250.000000;0.078951
9249.000000;0.080004
9248.000000;0.080891
9247.000000;0.081594
9246.000000;0.082218
9245.000000;0.082936
9244.000000;0.083836
9243.000000;0.084820
9242.000000;0.085702
9241.000000;0.086416
9240.000000;0.087101
9239.000000;0.087943
9238.000000;0.089006
9237.000000;0.090214
9236.000000;0.091451
9235.000000;0.092595
9234.000000;0.093527
9233.000000;0.094226
9232.000000;0.094849
9231.000000;0.095634
9230.000000;0.096683
9229.000000;0.097881
9228.000000;0.099011
9227.000000;0.099915
9226.000000;0.100558
9225.000000;0.101019
9224.000000;0.101457
9223.000000;0.102036
9222.000000;0.102839
9221.000000;0.103840
9220.000000;0.104936
9219.000000;0.105987
9218.000000;0.106890
9217.000000;0.107661
9216.000000;0.108419
9215.000000;0.109231
9214.000000;0.109998
9213.000000;0.110586
9212.000000;0.111031
9211.000000;0.111538
9210.000000;0.112285
9209.000000;0.113292
9208.000000;0.114446
9207.000000;0.115559
9206.000000;0.116429
9205.000000;0.116959
9204.000000;0.117264
9203.000000;0.117598
9202.000000;0.118138
9201.000000;0.118903
9200.000000;0.119848
9199.000000;0.120917
9198.000000;0.121999
9197.000000;0.122939
9196.000000;0.123678
9195.000000;0.124300
9194.000000;0.124911
9193.000000;0.125541
9192.000000;0.126177
9191.000000;0.126824
9190.000000;0.127462
9189.000000;0.128031
9188.000000;0.128488
9187.000000;0.128878
9186.000000;0.129307
9185.000000;0.129892
9184.000000;0.130711
9183.000000;0.131713
9182.000000;0.132670
9181.000000;0.133340
9180.000000;0.133729
9179.000000;0.134110
9178.000000;0.134712
9177.000000;0.135491
9176.000000;0.136247
9175.000000;0.136898
9174.000000;0.137531
9173.000000;0.138253
9172.000000;0.139079
9171.000000;0.139958
9170.000000;0.140832
9169.000000;0.141657
9168.000000;0.142384
9167.000000;0.142958
9166.000000;0.143353
9165.000000;0.143665
9164.000000;0.144114
9163.000000;0.144864
9162.000000;0.145817
9161.000000;0.146671
9160.000000;0.147229
9159.000000;0.147581
9158.000000;0.147940
9157.000000;0.148406
9156.000000;0.148940
9155.000000;0.149500
9154.000000;0.150088
9153.000000;0.150697
9152.000000;0.151289
9151.000000;0.151841
9150.000000;0.152362
9149.000000;0.152859
9148.000000;0.153329
9147.000000;0.153783
9146.000000;0.154277
9145.000000;0.154911
9144.000000;0.155739
9143.000000;0.156674
9142.000000;0.157500
9141.000000;0.158064
9140.000000;0.158430
9139.000000;0.158785
9138.000000;0.159218
9137.000000;0.159646
9136.000000;0.159961
9135.000000;0.160161
9134.000000;0.160343
9133.000000;0.160645
9132.000000;0.161174
9131.000000;0.161914
9130.000000;0.162695
9129.000000;0.163353
9128.000000;0.163912
9127.000000;0.164500
9126.000000;0.165115
9125.000000;0.165621
9124.000000;0.165990
9123.000000;0.166356
9122.000000;0.166790
9121.000000;0.167207
9120.000000;0.167558
9119.000000;0.167943
9118.000000;0.168426
9117.000000;0.168894
9116.000000;0.169259
9115.000000;0.169647
9114.000000;0.170220
9113.000000;0.170914
9112.000000;0.171529
9111.000000;0.172010
9110.000000;0.172461
9109.000000;0.172941
9108.000000;0.173417
9107.000000;0.173886
9106.000000;0.174383
9105.000000;0.174865
9104.000000;0.175237
9103.000000;0.175495
9102.000000;0.175738
9101.000000;0.176019
9100.000000;0.176321
9099.000000;0.176656
9098.000000;0.177078
9097.000000;0.177574
9096.000000;0.178065
9095.000000;0.178539
9094.000000;0.179070
9093.000000;0.179666
9092.000000;0.180203
9091.000000;0.180565
9090.000000;0.180758
9089.000000;0.180863
9088.000000;0.180954
9087.000000;0.181116
9086.000000;0.181461
9085.000000;0.182026
9084.000000;0.182699
9083.000000;0.183302
9082.000000;0.183737
9081.000000;0.184029
9080.000000;0.184260
9079.000000;0.184503
9078.000000;0.184814
9077.000000;0.185220
9076.000000;0.185698
9075.000000;0.186187
9074.000000;0.186630
9073.000000;0.187020
9072.000000;0.187399
9071.000000;0.187787
9070.000000;0.188110
9069.000000;0.188265
9068.000000;0.188285
9067.000000;0.188364
9066.000000;0.188659
9065.000000;0.189100
9064.000000;0.189497
9063.000000;0.189798
