Criado como novo conjunto de dados;"0307_DANIEL.spp","40863.9 Secs"
cm-1;Abs
10000.000000;1.045589
9999.000000;1.044376
9998.000000;1.042564
9997.000000;1.040624
9996.000000;1.038953
9995.000000;1.037433
9994.000000;1.035982
9993.000000;1.034713
9992.000000;1.033772
9991.000000;1.032856
9990.000000;1.031472
9989.000000;1.029645
9988.000000;1.028058
9987.000000;1.027214
9986.000000;1.026751
9985.000000;1.025899
9984.000000;1.024451
9983.000000;1.022853
9982.000000;1.021444
9981.000000;1.020112
9980.000000;1.018781
9979.000000;1.017670
9978.000000;1.016830
9977.000000;1.015858
9976.000000;1.014456
9975.000000;1.012961
9974.000000;1.011902
9973.000000;1.011232
9972.000000;1.010434
9971.000000;1.009272
9970.000000;1.007990
9969.000000;1.006765
9968.000000;1.005422
9967.000000;1.003830
9966.000000;1.002219
9965.000000;1.000876
9964.000000;0.999751
9963.000000;0.998587
9962.000000;0.997304
9961.000000;0.996037
9960.000000;0.994911
9959.000000;0.993936
9958.000000;0.993081
9957.000000;0.992294
9956.000000;0.991445
9955.000000;0.990343
9954.000000;0.988868
9953.000000;0.987101
9952.000000;0.985300
9951.000000;0.983744
9950.000000;0.982516
9949.000000;0.981426
9948.000000;0.980188
9947.000000;0.978716
9946.000000;0.977186
9945.000000;0.975823
9944.000000;0.974697
9943.000000;0.973751
9942.000000;0.972924
9941.000000;0.972159
9940.000000;0.971332
9939.000000;0.970242
9938.000000;0.968720
9937.000000;0.966754
9936.000000;0.964563
9935.000000;0.962559
9934.000000;0.961122
9933.000000;0.960322
9932.000000;0.959854
9931.000000;0.959276
9930.000000;0.958301
9929.000000;0.956915
9928.000000;0.955318
9927.000000;0.953807
9926.000000;0.952594
9925.000000;0.951584
9924.000000;0.950400
9923.000000;0.948724
9922.000000;0.946671
9921.000000;0.944719
9920.000000;0.943249
9919.000000;0.942220
9918.000000;0.941289
9917.000000;0.940158
9916.000000;0.938750
9915.000000;0.937143
9914.000000;0.935471
9913.000000;0.933886
9912.000000;0.932528
9911.000000;0.931483
9910.000000;0.930732
9909.000000;0.930110
9908.000000;0.929324
9907.000000;0.928102
9906.000000;0.926433
9905.000000;0.924614
9904.000000;0.922970
9903.000000;0.921532
9902.000000;0.920095
9901.000000;0.918543
9900.000000;0.916972
9899.000000;0.915475
9898.000000;0.913984
9897.000000;0.912433
9896.000000;0.910920
9895.000000;0.909551
9894.000000;0.908230
9893.000000;0.906790
9892.000000;0.905269
9891.000000;0.903891
9890.000000;0.902754
9889.000000;0.901700
9888.000000;0.900521
9887.000000;0.899150
9886.000000;0.897646
9885.000000;0.896129
9884.000000;0.894795
9883.000000;0.893846
9882.000000;0.893276
9881.000000;0.892760
9880.000000;0.891862
9879.000000;0.890343
9878.000000;0.888317
9877.000000;0.886180
9876.000000;0.884401
9875.000000;0.883238
9874.000000;0.882524
9873.000000;0.881763
9872.000000;0.880519
9871.000000;0.878753
9870.000000;0.876766
9869.000000;0.874908
9868.000000;0.873351
9867.000000;0.872058
9866.000000;0.870874
9865.000000;0.869651
9864.000000;0.868321
9863.000000;0.866867
9862.000000;0.865254
9861.000000;0.863463
9860.000000;0.861549
9859.000000;0.859586
9858.000000;0.857594
9857.000000;0.855678
9856.000000;0.854164
9855.000000;0.853342
9854.000000;0.852993
9853.000000;0.852425
9852.000000;0.851174
9851.000000;0.849464
9850.000000;0.847789
9849.000000;0.846249
9848.000000;0.844604
9847.000000;0.842854
9846.000000;0.841334
9845.000000;0.840162
9844.000000;0.838946
9843.000000;0.837248
9842.000000;0.835167
9841.000000;0.833250
9840.000000;0.831921
9839.000000;0.831160
9838.000000;0.830643
9837.000000;0.829999
9836.000000;0.828940
9835.000000;0.827330
9834.000000;0.825269
9833.000000;0.823054
9832.000000;0.820980
9831.000000;0.819153
9830.000000;0.817481
9829.000000;0.815841
9828.000000;0.814214
9827.000000;0.812645
9826.000000;0.811134
9825.000000;0.809645
9824.000000;0.808206
9823.000000;0.806901
9822.000000;0.805695
9821.000000;0.804366
9820.000000;0.802706
9819.000000;0.800752
9818.000000;0.798711
9817.000000;0.796726
9816.000000;0.794851
9815.000000;0.793204
9814.000000;0.791956
9813.000000;0.791072
9812.000000;0.790229
9811.000000;0.789096
9810.000000;0.787625
9809.000000;0.785943
9808.000000;0.784075
9807.000000;0.781967
9806.000000;0.779765
9805.000000;0.777863
9804.000000;0.776546
9803.000000;0.775648
9802.000000;0.774648
9801.000000;0.773110
9800.000000;0.771022
9799.000000;0.768759
9798.000000;0.766780
9797.000000;0.765306
9796.000000;0.764185
9795.000000;0.763032
9794.000000;0.761572
9793.000000;0.759869
9792.000000;0.758222
9791.000000;0.756815
9790.000000;0.755531
9789.000000;0.754113
9788.000000;0.752441
9787.000000;0.750598
9786.000000;0.748720
9785.000000;0.746857
9784.000000;0.744976
9783.000000;0.743030
9782.000000;0.741038
9781.000000;0.739115
9780.000000;0.737393
9779.000000;0.735871
9778.000000;0.734385
9777.000000;0.732791
9776.000000;0.731143
9775.000000;0.729602
9774.000000;0.728213
9773.000000;0.726847
9772.000000;0.725319
9771.000000;0.723473
9770.000000;0.721219
9769.000000;0.718709
9768.000000;0.716438
9767.000000;0.714906
9766.000000;0.714018
9765.000000;0.713041
9764.000000;0.711338
9763.000000;0.709047
9762.000000;0.706837
9761.000000;0.705117
9760.000000;0.703703
9759.000000;0.702207
9758.000000;0.700521
9757.000000;0.698859
9756.000000;0.697510
9755.000000;0.696556
9754.000000;0.695695
9753.000000;0.694342
9752.000000;0.692113
9751.000000;0.689305
9750.000000;0.686707
9749.000000;0.684836
9748.000000;0.683472
9747.000000;0.682040
9746.000000;0.680273
9745.000000;0.678314
9744.000000;0.676292
9743.000000;0.674126
9742.000000;0.671816
9741.000000;0.669690
9740.000000;0.668130
9739.000000;0.667069
9738.000000;0.665926
9737.000000;0.664125
9736.000000;0.661648
9735.000000;0.659024
9734.000000;0.656795
9733.000000;0.655036
9732.000000;0.653404
9731.000000;0.651559
9730.000000;0.649508
9729.000000;0.647556
9728.000000;0.646022
9727.000000;0.644973
9726.000000;0.644135
9725.000000;0.643007
9724.000000;0.641174
9723.000000;0.638646
9722.000000;0.635893
9721.000000;0.633477
9720.000000;0.631585
9719.000000;0.629918
9718.000000;0.628032
9717.000000;0.625782
9716.000000;0.623476
9715.000000;0.621593
9714.000000;0.620327
9713.000000;0.619367
9712.000000;0.618119
9711.000000;0.616212
9710.000000;0.613781
9709.000000;0.611261
9708.000000;0.608930
9707.000000;0.606742
9706.000000;0.604559
9705.000000;0.602430
9704.000000;0.600549
9703.000000;0.599008
9702.000000;0.597663
9701.000000;0.596255
9700.000000;0.594601
9699.000000;0.592688
9698.000000;0.590621
9697.000000;0.588522
9696.000000;0.586467
9695.000000;0.584509
9694.000000;0.582720
9693.000000;0.581126
9692.000000;0.579576
9691.000000;0.577809
9690.000000;0.575738
9689.000000;0.573626
9688.000000;0.571793
9687.000000;0.570160
9686.000000;0.568269
9685.000000;0.565864
9684.000000;0.563268
9683.000000;0.561002
9682.000000;0.559153
9681.000000;0.557309
9680.000000;0.555116
9679.000000;0.552693
9678.000000;0.550430
9677.000000;0.548542
9676.000000;0.546952
9675.000000;0.545474
9674.000000;0.543929
9673.000000;0.542110
9672.000000;0.539833
9671.000000;0.537102
9670.000000;0.534189
9669.000000;0.531476
9668.000000;0.529208
9667.000000;0.527386
9666.000000;0.525830
9665.000000;0.524307
9664.000000;0.522623
9663.000000;0.520675
9662.000000;0.518493
9661.000000;0.516230
9660.000000;0.514059
9659.000000;0.512014
9658.000000;0.509951
9657.000000;0.507695
9656.000000;0.505233
9655.000000;0.502747
9654.000000;0.500470
9653.000000;0.498494
9652.000000;0.496706
9651.000000;0.494867
9650.000000;0.492771
9649.000000;0.490374
9648.000000;0.487772
9647.000000;0.485066
9646.000000;0.482315
9645.000000;0.479658
9644.000000;0.477378
9643.000000;0.475668
9642.000000;0.474320
9641.000000;0.472806
9640.000000;0.470795
9639.000000;0.468509
9638.000000;0.466436
9637.000000;0.464735
9636.000000;0.463064
9635.000000;0.461000
9634.000000;0.458470
9633.000000;0.455709
9632.000000;0.452939
9631.000000;0.450273
9630.000000;0.447875
9629.000000;0.445954
9628.000000;0.444463
9627.000000;0.442935
9626.000000;0.440852
9625.000000;0.438197
9624.000000;0.435477
9623.000000;0.433126
9622.000000;0.431035
9621.000000;0.428765
9620.000000;0.426146
9619.000000;0.423447
9618.000000;0.420955
9617.000000;0.418584
9616.000000;0.416072
9615.000000;0.413452
9614.000000;0.411124
9613.000000;0.409375
9612.000000;0.407942
9611.000000;0.406180
9610.000000;0.403665
9609.000000;0.400586
9608.000000;0.397541
9607.000000;0.395014
9606.000000;0.393047
9605.000000;0.391295
9604.000000;0.389310
9603.000000;0.386850
9602.000000;0.384082
9601.000000;0.381486
9600.000000;0.379424
9599.000000;0.377761
9598.000000;0.375976
9597.000000;0.373702
9596.000000;0.371096
9595.000000;0.368601
9594.000000;0.366447
9593.000000;0.364450
9592.000000;0.362268
9591.000000;0.359740
9590.000000;0.357020
9589.000000;0.354441
9588.000000;0.352224
9587.000000;0.350274
9586.000000;0.348264
9585.000000;0.345978
9584.000000;0.343503
9583.000000;0.341050
9582.000000;0.338670
9581.000000;0.336268
9580.000000;0.333816
9579.000000;0.331405
9578.000000;0.329105
9577.000000;0.326914
9576.000000;0.324836
9575.000000;0.322873
9574.000000;0.320890
9573.000000;0.318643
9572.000000;0.316015
9571.000000;0.313170
9570.000000;0.310418
9569.000000;0.307983
9568.000000;0.305882
9567.000000;0.303914
9566.000000;0.301760
9565.000000;0.299222
9564.000000;0.296438
9563.000000;0.293779
9562.000000;0.291462
9561.000000;0.289342
9560.000000;0.287128
9559.000000;0.284714
9558.000000;0.282243
9557.000000;0.279903
9556.000000;0.277756
9555.000000;0.275695
9554.000000;0.273519
9553.000000;0.271101
9552.000000;0.268528
9551.000000;0.266024
9550.000000;0.263687
9549.000000;0.261378
9548.000000;0.258958
9547.000000;0.256524
9546.000000;0.254296
9545.000000;0.252307
9544.000000;0.250377
9543.000000;0.248371
9542.000000;0.246376
9541.000000;0.244577
9540.000000;0.243031
9539.000000;0.241553
9538.000000;0.239762
9537.000000;0.237282
9536.000000;0.234070
9535.000000;0.230600
9534.000000;0.227575
9533.000000;0.225320
9532.000000;0.223512
9531.000000;0.221574
9530.000000;0.219295
9529.000000;0.216961
9528.000000;0.214911
9527.000000;0.213155
9526.000000;0.211453
9525.000000;0.209636
9524.000000;0.207703
9523.000000;0.205663
9522.000000;0.203479
9521.000000;0.201206
9520.000000;0.199071
9519.000000;0.197301
9518.000000;0.195885
9517.000000;0.194556
9516.000000;0.192986
9515.000000;0.190973
9514.000000;0.188546
9513.000000;0.185988
9512.000000;0.183716
9511.000000;0.181980
9510.000000;0.180596
9509.000000;0.179051
9508.000000;0.176959
9507.000000;0.174404
9506.000000;0.171849
9505.000000;0.169736
9504.000000;0.168188
9503.000000;0.167027
9502.000000;0.165959
9501.000000;0.164744
9500.000000;0.163240
9499.000000;0.161398
9498.000000;0.159283
9497.000000;0.157124
9496.000000;0.155236
9495.000000;0.153783
9494.000000;0.152612
9493.000000;0.151412
9492.000000;0.150054
9491.000000;0.148686
9490.000000;0.147460
9489.000000;0.146311
9488.000000;0.145078
9487.000000;0.143759
9486.000000;0.142501
9485.000000;0.141367
9484.000000;0.140259
9483.000000;0.139090
9482.000000;0.137914
9481.000000;0.136848
9480.000000;0.135933
9479.000000;0.135114
9478.000000;0.134295
9477.000000;0.133337
9476.000000;0.132066
9475.000000;0.130407
9474.000000;0.128545
9473.000000;0.126874
9472.000000;0.125699
9471.000000;0.124976
9470.000000;0.124380
9469.000000;0.123617
9468.000000;0.122645
9467.000000;0.121633
9466.000000;0.120782
9465.000000;0.120185
9464.000000;0.119758
9463.000000;0.119271
9462.000000;0.118524
9461.000000;0.117573
9460.000000;0.116703
9459.000000;0.116107
9458.000000;0.115639
9457.000000;0.115014
9456.000000;0.114191
9455.000000;0.113407
9454.000000;0.112836
9453.000000;0.112408
9452.000000;0.112008
9451.000000;0.111672
9450.000000;0.111457
9449.000000;0.111267
9448.000000;0.110981
9447.000000;0.110694
9446.000000;0.110639
9445.000000;0.110870
9444.000000;0.111150
9443.000000;0.111187
9442.000000;0.110901
9441.000000;0.110457
9440.000000;0.110137
9439.000000;0.110169
9438.000000;0.110575
9437.000000;0.111124
9436.000000;0.111502
9435.000000;0.111582
9434.000000;0.111494
9433.000000;0.111457
9432.000000;0.111578
9431.000000;0.111837
9430.000000;0.112187
9429.000000;0.112609
9428.000000;0.113089
9427.000000;0.113576
9426.000000;0.113961
9425.000000;0.114144
9424.000000;0.114171
9423.000000;0.114300
9422.000000;0.114828
9421.000000;0.115800
9420.000000;0.116896
9419.000000;0.117649
9418.000000;0.117799
9417.000000;0.117476
9416.000000;0.117115
9415.000000;0.117177
9414.000000;0.117865
9413.000000;0.119009
9412.000000;0.120220
9411.000000;0.121166
9410.000000;0.121746
9409.000000;0.122035
9408.000000;0.122171
9407.000000;0.122304
9406.000000;0.122597
9405.000000;0.123211
9404.000000;0.124244
9403.000000;0.125663
9402.000000;0.127254
9401.000000;0.128669
9400.000000;0.129619
9399.000000;0.130081
9398.000000;0.130294
9397.000000;0.130535
9396.000000;0.130944
9395.000000;0.131551
9394.000000;0.132383
9393.000000;0.133459
9392.000000;0.134708
9391.000000;0.135982
9390.000000;0.137198
9389.000000;0.138396
9388.000000;0.139620
9387.000000;0.140785
9386.000000;0.141754
9385.000000;0.142551
9384.000000;0.143420
9383.000000;0.144576
9382.000000;0.145924
9381.000000;0.147133
9380.000000;0.148004
9379.000000;0.148686
9378.000000;0.149489
9377.000000;0.150581
9376.000000;0.151919
9375.000000;0.153393
9374.000000;0.154892
9373.000000;0.156277
9372.000000;0.157441
9371.000000;0.158447
9370.000000;0.159493
9369.000000;0.160660
9368.000000;0.161793
9367.000000;0.162692
9366.000000;0.163352
9365.000000;0.163942
9364.000000;0.164566
9363.000000;0.165201
9362.000000;0.165887
9361.000000;0.166837
9360.000000;0.168225
9359.000000;0.169893
9358.000000;0.171390
9357.000000;0.172415
9356.000000;0.173170
9355.000000;0.174172
9354.000000;0.175714
9353.000000;0.177578
9352.000000;0.179301
9351.000000;0.180620
9350.000000;0.181584
9349.000000;0.182353
9348.000000;0.183056
9347.000000;0.183850
9346.000000;0.184940
9345.000000;0.186408
9344.000000;0.188058
9343.000000;0.189563
9342.000000;0.190779
9341.000000;0.191880
9340.000000;0.193148
9339.000000;0.194662
9338.000000;0.196205
9337.000000;0.197493
9336.000000;0.198445
9335.000000;0.199236
9334.000000;0.200108
9333.000000;0.201159
9332.000000;0.202313
9331.000000;0.203453
9330.000000;0.204529
9329.000000;0.205570
9328.000000;0.206631
9327.000000;0.207732
9326.000000;0.208876
9325.000000;0.210110
9324.000000;0.211514
9323.000000;0.213067
9322.000000;0.214532
9321.000000;0.215614
9320.000000;0.216298
9319.000000;0.216950
9318.000000;0.217955
9317.000000;0.219315
9316.000000;0.220702
9315.000000;0.221896
9314.000000;0.223015
9313.000000;0.224286
9312.000000;0.225712
9311.000000;0.227057
9310.000000;0.228115
9309.000000;0.228897
9308.000000;0.229601
9307.000000;0.230465
9306.000000;0.231618
9305.000000;0.232992
9304.000000;0.234349
9303.000000;0.235440
9302.000000;0.236211
9301.000000;0.236840
9300.000000;0.237596
9299.000000;0.238630
9298.000000;0.239915
9297.000000;0.241331
9296.000000;0.242779
9295.000000;0.244202
9294.000000;0.245539
9293.000000;0.246731
9292.000000;0.247786
9291.000000;0.248801
9290.000000;0.249859
9289.000000;0.250934
9288.000000;0.251948
9287.000000;0.252891
9286.000000;0.253832
9285.000000;0.254788
9284.000000;0.255688
9283.000000;0.256486
9282.000000;0.257270
9281.000000;0.258186
9280.000000;0.259246
9279.000000;0.260308
9278.000000;0.261260
9277.000000;0.262188
9276.000000;0.263306
9275.000000;0.264722
9274.000000;0.266309
9273.000000;0.267806
9272.000000;0.269021
9271.000000;0.269908
9270.000000;0.270532
9269.000000;0.271040
9268.000000;0.271643
9267.000000;0.272501
9266.000000;0.273581
9265.000000;0.274673
9264.000000;0.275615
9263.000000;0.276474
9262.000000;0.277456
9261.000000;0.278662
9260.000000;0.279990
9259.000000;0.281255
9258.000000;0.282337
9257.000000;0.283227
9256.000000;0.283994
9255.000000;0.284717
9254.000000;0.285428
9253.000000;0.286106
9252.000000;0.286755
9251.000000;0.287473
9250.000000;0.288401
9249.000000;0.289571
9248.000000;0.290836
9247.000000;0.291971
9246.000000;0.292840
9245.000000;0.293464
9244.000000;0.293976
9243.000000;0.294528
9242.000000;0.295247
9241.000000;0.296210
9240.000000;0.297376
9239.000000;0.298554
9238.000000;0.299501
9237.000000;0.300133
9236.000000;0.300631
9235.000000;0.301251
9234.000000;0.302057
9233.000000;0.302922
9232.000000;0.303791
9231.000000;0.304789
9230.000000;0.306005
9229.000000;0.307271
9228.000000;0.308298
9227.000000;0.309006
9226.000000;0.309591
9225.000000;0.310289
9224.000000;0.311143
9223.000000;0.312033
9222.000000;0.312812
9221.000000;0.313406
9220.000000;0.313839
9219.000000;0.314220
9218.000000;0.314667
9217.000000;0.315231
9216.000000;0.315916
9215.000000;0.316763
9214.000000;0.317824
9213.000000;0.319028
9212.000000;0.320150
9211.000000;0.320981
9210.000000;0.321543
9209.000000;0.322078
9208.000000;0.322832
9207.000000;0.323841
9206.000000;0.324913
9205.000000;0.325804
9204.000000;0.326428
9203.000000;0.326898
9202.000000;0.327365
9201.000000;0.327873
9200.000000;0.328401
9199.000000;0.329002
9198.000000;0.329789
9197.000000;0.330778
9196.000000;0.331824
9195.000000;0.332755
9194.000000;0.333515
9193.000000;0.334134
9192.000000;0.334638
9191.000000;0.335038
9190.000000;0.335397
9189.000000;0.335821
9188.000000;0.336375
9187.000000;0.337032
9186.000000;0.337715
9185.000000;0.338343
9184.000000;0.338879
9183.000000;0.339354
9182.000000;0.339863
9181.000000;0.340498
9180.000000;0.341275
9179.000000;0.342130
9178.000000;0.342960
9177.000000;0.343660
9176.000000;0.344147
9175.000000;0.344423
9174.000000;0.344641
9173.000000;0.345041
9172.000000;0.345757
9171.000000;0.346676
9170.000000;0.347544
9169.000000;0.348217
9168.000000;0.348788
9167.000000;0.349440
9166.000000;0.350231
9165.000000;0.351054
9164.000000;0.351789
9163.000000;0.352418
9162.000000;0.352980
9161.000000;0.353474
9160.000000;0.353877
9159.000000;0.354233
9158.000000;0.354651
9157.000000;0.355214
9156.000000;0.355874
9155.000000;0.356484
9154.000000;0.356924
9153.000000;0.357224
9152.000000;0.357551
9151.000000;0.358076
9150.000000;0.358802
9149.000000;0.359560
9148.000000;0.360167
9147.000000;0.360596
9146.000000;0.360970
9145.000000;0.361428
9144.000000;0.362013
9143.000000;0.362689
9142.000000;0.363416
9141.000000;0.364179
9140.000000;0.364946
9139.000000;0.365598
9138.000000;0.365978
9137.000000;0.366066
9136.000000;0.366088
9135.000000;0.366358
9134.000000;0.366975
9133.000000;0.367723
9132.000000;0.368314
9131.000000;0.368687
9130.000000;0.369008
9129.000000;0.369455
9128.000000;0.370060
9127.000000;0.370697
9126.000000;0.371165
9125.000000;0.371317
9124.000000;0.371234
9123.000000;0.371246
9122.000000;0.371655
9121.000000;0.372440
9120.000000;0.373287
9119.000000;0.373925
9118.000000;0.374317
9117.000000;0.374565
9116.000000;0.374769
9115.000000;0.375031
9114.000000;0.375457
9113.000000;0.376056
9112.000000;0.376720
9111.000000;0.377348
9110.000000;0.377944
9109.000000;0.378527
9108.000000;0.379062
9107.000000;0.379552
9106.000000;0.380093
9105.000000;0.380717
9104.000000;0.381246
9103.000000;0.381483
9102.000000;0.381504
9101.000000;0.381599
9100.000000;0.381905
9099.000000;0.382243
9098.000000;0.382382
9097.000000;0.382322
9096.000000;0.382269
9095.000000;0.382420
9094.000000;0.382867
9093.000000;0.383620
9092.000000;0.384567
9091.000000;0.385450
9090.000000;0.385996
9089.000000;0.386135
9088.000000;0.386074
9087.000000;0.386127
9086.000000;0.386476
9085.000000;0.387055
9084.000000;0.387614
9083.000000;0.387902
9082.000000;0.387876
9081.000000;0.387742
9080.000000;0.387783
9079.000000;0.388124
9078.000000;0.388671
9077.000000;0.389249
9076.000000;0.389748
9075.000000;0.390136
9074.000000;0.390406
9073.000000;0.390578
9072.000000;0.390731
9071.000000;0.390949
9070.000000;0.391199
9069.000000;0.391341
9068.000000;0.391324
9067.000000;0.391329
9066.000000;0.391623
9065.000000;0.392269
9064.000000;0.393037
9063.000000;0.393647
9062.000000;0.394031
9061.000000;0.394315
9060.000000;0.394619
9059.000000;0.394981
9058.000000;0.395402
9057.000000;0.395831
9056.000000;0.396101
9055.000000;0.396036
9054.000000;0.395715
9053.000000;0.395506
