Criado como novo conjunto de dados;"0307_DANIEL.spp","72905.8 Secs"
cm-1;Abs
10000.000000;0.572900
9999.000000;0.571766
9998.000000;0.570657
9997.000000;0.569501
9996.000000;0.568625
9995.000000;0.568202
9994.000000;0.567930
9993.000000;0.567483
9992.000000;0.566741
9991.000000;0.565973
9990.000000;0.565470
9989.000000;0.565164
9988.000000;0.564685
9987.000000;0.563817
9986.000000;0.562759
9985.000000;0.561874
9984.000000;0.561284
9983.000000;0.560759
9982.000000;0.559979
9981.000000;0.558848
9980.000000;0.557566
9979.000000;0.556421
9978.000000;0.555527
9977.000000;0.554782
9976.000000;0.554060
9975.000000;0.553349
9974.000000;0.552643
9973.000000;0.551817
9972.000000;0.550765
9971.000000;0.549646
9970.000000;0.548818
9969.000000;0.548449
9968.000000;0.548300
9967.000000;0.547957
9966.000000;0.547181
9965.000000;0.546025
9964.000000;0.544698
9963.000000;0.543441
9962.000000;0.542414
9961.000000;0.541597
9960.000000;0.540836
9959.000000;0.540046
9958.000000;0.539289
9957.000000;0.538594
9956.000000;0.537819
9955.000000;0.536844
9954.000000;0.535816
9953.000000;0.534994
9952.000000;0.534386
9951.000000;0.533730
9950.000000;0.532869
9949.000000;0.531980
9948.000000;0.531313
9947.000000;0.530853
9946.000000;0.530358
9945.000000;0.529653
9944.000000;0.528782
9943.000000;0.527893
9942.000000;0.527071
9941.000000;0.526263
9940.000000;0.525329
9939.000000;0.524188
9938.000000;0.522946
9937.000000;0.521812
9936.000000;0.520845
9935.000000;0.519823
9934.000000;0.518506
9933.000000;0.516982
9932.000000;0.515650
9931.000000;0.514824
9930.000000;0.514420
9929.000000;0.514069
9928.000000;0.513477
9927.000000;0.512628
9926.000000;0.511716
9925.000000;0.510925
9924.000000;0.510272
9923.000000;0.509604
9922.000000;0.508776
9921.000000;0.507834
9920.000000;0.506966
9919.000000;0.506222
9918.000000;0.505372
9917.000000;0.504155
9916.000000;0.502650
9915.000000;0.501264
9914.000000;0.500289
9913.000000;0.499595
9912.000000;0.498809
9911.000000;0.497725
9910.000000;0.496446
9909.000000;0.495172
9908.000000;0.493985
9907.000000;0.492861
9906.000000;0.491805
9905.000000;0.490902
9904.000000;0.490244
9903.000000;0.489799
9902.000000;0.489374
9901.000000;0.488736
9900.000000;0.487847
9899.000000;0.486935
9898.000000;0.486249
9897.000000;0.485731
9896.000000;0.484998
9895.000000;0.483723
9894.000000;0.482015
9893.000000;0.480354
9892.000000;0.479168
9891.000000;0.478466
9890.000000;0.477881
9889.000000;0.477050
9888.000000;0.475908
9887.000000;0.474633
9886.000000;0.473354
9885.000000;0.472038
9884.000000;0.470658
9883.000000;0.469342
9882.000000;0.468265
9881.000000;0.467451
9880.000000;0.466810
9879.000000;0.466289
9878.000000;0.465847
9877.000000;0.465301
9876.000000;0.464385
9875.000000;0.463046
9874.000000;0.461548
9873.000000;0.460209
9872.000000;0.459127
9871.000000;0.458215
9870.000000;0.457370
9869.000000;0.456504
9868.000000;0.455494
9867.000000;0.454280
9866.000000;0.452972
9865.000000;0.451784
9864.000000;0.450824
9863.000000;0.450022
9862.000000;0.449230
9861.000000;0.448331
9860.000000;0.447274
9859.000000;0.446095
9858.000000;0.444889
9857.000000;0.443748
9856.000000;0.442706
9855.000000;0.441770
9854.000000;0.440925
9853.000000;0.440061
9852.000000;0.438984
9851.000000;0.437591
9850.000000;0.436033
9849.000000;0.434608
9848.000000;0.433516
9847.000000;0.432750
9846.000000;0.432164
9845.000000;0.431541
9844.000000;0.430659
9843.000000;0.429416
9842.000000;0.427923
9841.000000;0.426367
9840.000000;0.424823
9839.000000;0.423309
9838.000000;0.421982
9837.000000;0.421061
9836.000000;0.420476
9835.000000;0.419763
9834.000000;0.418500
9833.000000;0.416802
9832.000000;0.415241
9831.000000;0.414277
9830.000000;0.413842
9829.000000;0.413454
9828.000000;0.412629
9827.000000;0.411189
9826.000000;0.409286
9825.000000;0.407257
9824.000000;0.405479
9823.000000;0.404234
9822.000000;0.403595
9821.000000;0.403355
9820.000000;0.403108
9819.000000;0.402477
9818.000000;0.401312
9817.000000;0.399721
9816.000000;0.397951
9815.000000;0.396291
9814.000000;0.394956
9813.000000;0.393945
9812.000000;0.393008
9811.000000;0.391870
9810.000000;0.390519
9809.000000;0.389196
9808.000000;0.388077
9807.000000;0.387055
9806.000000;0.385899
9805.000000;0.384524
9804.000000;0.383033
9803.000000;0.381550
9802.000000;0.380134
9801.000000;0.378824
9800.000000;0.377645
9799.000000;0.376534
9798.000000;0.375371
9797.000000;0.374129
9796.000000;0.372940
9795.000000;0.371927
9794.000000;0.370998
9793.000000;0.369911
9792.000000;0.368566
9791.000000;0.367161
9790.000000;0.365966
9789.000000;0.364984
9788.000000;0.363931
9787.000000;0.362556
9786.000000;0.360902
9785.000000;0.359226
9784.000000;0.357753
9783.000000;0.356554
9782.000000;0.355563
9781.000000;0.354631
9780.000000;0.353600
9779.000000;0.352420
9778.000000;0.351203
9777.000000;0.350096
9776.000000;0.349132
9775.000000;0.348244
9774.000000;0.347356
9773.000000;0.346368
9772.000000;0.345113
9771.000000;0.343467
9770.000000;0.341497
9769.000000;0.339423
9768.000000;0.337438
9767.000000;0.335659
9766.000000;0.334189
9765.000000;0.333058
9764.000000;0.332093
9763.000000;0.331030
9762.000000;0.329790
9761.000000;0.328529
9760.000000;0.327363
9759.000000;0.326199
9758.000000;0.324918
9757.000000;0.323546
9756.000000;0.322143
9755.000000;0.320630
9754.000000;0.318911
9753.000000;0.317097
9752.000000;0.315481
9751.000000;0.314260
9750.000000;0.313346
9749.000000;0.312436
9748.000000;0.311207
9747.000000;0.309541
9746.000000;0.307634
9745.000000;0.305847
9744.000000;0.304373
9743.000000;0.303082
9742.000000;0.301748
9741.000000;0.300363
9740.000000;0.299104
9739.000000;0.298055
9738.000000;0.297060
9737.000000;0.295873
9736.000000;0.294398
9735.000000;0.292784
9734.000000;0.291315
9733.000000;0.290157
9732.000000;0.289194
9731.000000;0.288130
9730.000000;0.286776
9729.000000;0.285150
9728.000000;0.283299
9727.000000;0.281184
9726.000000;0.278860
9725.000000;0.276618
9724.000000;0.274765
9723.000000;0.273321
9722.000000;0.272046
9721.000000;0.270720
9720.000000;0.269260
9719.000000;0.267641
9718.000000;0.265895
9717.000000;0.264169
9716.000000;0.262613
9715.000000;0.261195
9714.000000;0.259761
9713.000000;0.258245
9712.000000;0.256694
9711.000000;0.255098
9710.000000;0.253383
9709.000000;0.251617
9708.000000;0.250045
9707.000000;0.248827
9706.000000;0.247830
9705.000000;0.246714
9704.000000;0.245189
9703.000000;0.243204
9702.000000;0.241025
9701.000000;0.239112
9700.000000;0.237731
9699.000000;0.236649
9698.000000;0.235346
9697.000000;0.233587
9696.000000;0.231629
9695.000000;0.229799
9694.000000;0.228090
9693.000000;0.226313
9692.000000;0.224480
9691.000000;0.222817
9690.000000;0.221443
9689.000000;0.220235
9688.000000;0.219030
9687.000000;0.217800
9686.000000;0.216581
9685.000000;0.215311
9684.000000;0.213840
9683.000000;0.212069
9682.000000;0.210031
9681.000000;0.207852
9680.000000;0.205683
9679.000000;0.203689
9678.000000;0.202022
9677.000000;0.200686
9676.000000;0.199403
9675.000000;0.197757
9674.000000;0.195594
9673.000000;0.193212
9672.000000;0.191052
9671.000000;0.189267
9670.000000;0.187727
9669.000000;0.186328
9668.000000;0.185062
9667.000000;0.183787
9666.000000;0.182209
9665.000000;0.180246
9664.000000;0.178196
9663.000000;0.176378
9662.000000;0.174737
9661.000000;0.172955
9660.000000;0.170892
9659.000000;0.168755
9658.000000;0.166835
9657.000000;0.165222
9656.000000;0.163747
9655.000000;0.162151
9654.000000;0.160308
9653.000000;0.158331
9652.000000;0.156433
9651.000000;0.154675
9650.000000;0.152922
9649.000000;0.151072
9648.000000;0.149247
9647.000000;0.147659
9646.000000;0.146360
9645.000000;0.145177
9644.000000;0.143852
9643.000000;0.142203
9642.000000;0.140225
9641.000000;0.138104
9640.000000;0.136075
9639.000000;0.134209
9638.000000;0.132390
9637.000000;0.130529
9636.000000;0.128670
9635.000000;0.126845
9634.000000;0.124928
9633.000000;0.122799
9632.000000;0.120562
9631.000000;0.118454
9630.000000;0.116570
9629.000000;0.114765
9628.000000;0.112806
9627.000000;0.110585
9626.000000;0.108235
9625.000000;0.106103
9624.000000;0.104501
9623.000000;0.103360
9622.000000;0.102198
9621.000000;0.100592
9620.000000;0.098625
9619.000000;0.096705
9618.000000;0.094996
9617.000000;0.093212
9616.000000;0.091005
9615.000000;0.088380
9614.000000;0.085665
9613.000000;0.083198
9612.000000;0.081125
9611.000000;0.079397
9610.000000;0.077845
9609.000000;0.076241
9608.000000;0.074417
9607.000000;0.072374
9606.000000;0.070307
9605.000000;0.068459
9604.000000;0.066894
9603.000000;0.065384
9602.000000;0.063580
9601.000000;0.061338
9600.000000;0.058846
9599.000000;0.056418
9598.000000;0.054234
9597.000000;0.052312
9596.000000;0.050607
9595.000000;0.049033
9594.000000;0.047430
9593.000000;0.045626
9592.000000;0.043563
9591.000000;0.041310
9590.000000;0.038998
9589.000000;0.036769
9588.000000;0.034722
9587.000000;0.032841
9586.000000;0.031017
9585.000000;0.029195
9584.000000;0.027423
9583.000000;0.025701
9582.000000;0.023871
9581.000000;0.021784
9580.000000;0.019494
9579.000000;0.017184
9578.000000;0.014915
9577.000000;0.012606
9576.000000;0.010223
9575.000000;0.007863
9574.000000;0.005639
9573.000000;0.003566
9572.000000;0.001570
9571.000000;-0.000468
9570.000000;-0.002630
9569.000000;-0.004844
9568.000000;-0.006878
9567.000000;-0.008575
9566.000000;-0.010071
9565.000000;-0.011668
9564.000000;-0.013541
9563.000000;-0.015655
9562.000000;-0.017921
9561.000000;-0.020259
9560.000000;-0.022523
9559.000000;-0.024544
9558.000000;-0.026334
9557.000000;-0.028071
9556.000000;-0.029844
9555.000000;-0.031525
9554.000000;-0.032984
9553.000000;-0.034334
9552.000000;-0.035863
9551.000000;-0.037757
9550.000000;-0.039971
9549.000000;-0.042327
9548.000000;-0.044674
9547.000000;-0.046983
9546.000000;-0.049292
9545.000000;-0.051595
9544.000000;-0.053804
9543.000000;-0.055860
9542.000000;-0.057799
9541.000000;-0.059647
9540.000000;-0.061316
9539.000000;-0.062727
9538.000000;-0.064032
9537.000000;-0.065568
9536.000000;-0.067552
9535.000000;-0.069901
9534.000000;-0.072340
9533.000000;-0.074590
9532.000000;-0.076486
9531.000000;-0.078073
9530.000000;-0.079630
9529.000000;-0.081437
9528.000000;-0.083457
9527.000000;-0.085380
9526.000000;-0.087023
9525.000000;-0.088560
9524.000000;-0.090241
9523.000000;-0.092045
9522.000000;-0.093752
9521.000000;-0.095280
9520.000000;-0.096783
9519.000000;-0.098410
9518.000000;-0.100102
9517.000000;-0.101685
9516.000000;-0.103093
9515.000000;-0.104459
9514.000000;-0.105994
9513.000000;-0.107776
9512.000000;-0.109679
9511.000000;-0.111522
9510.000000;-0.113267
9509.000000;-0.114985
9508.000000;-0.116663
9507.000000;-0.118150
9506.000000;-0.119378
9505.000000;-0.120553
9504.000000;-0.122003
9503.000000;-0.123824
9502.000000;-0.125726
9501.000000;-0.127275
9500.000000;-0.128304
9499.000000;-0.129074
9498.000000;-0.130032
9497.000000;-0.131375
9496.000000;-0.132902
9495.000000;-0.134312
9494.000000;-0.135550
9493.000000;-0.136767
9492.000000;-0.138044
9491.000000;-0.139358
9490.000000;-0.140782
9489.000000;-0.142472
9488.000000;-0.144326
9487.000000;-0.145850
9486.000000;-0.146578
9485.000000;-0.146567
9484.000000;-0.146367
9483.000000;-0.146543
9482.000000;-0.147306
9481.000000;-0.148492
9480.000000;-0.149730
9479.000000;-0.150680
9478.000000;-0.151271
9477.000000;-0.151774
9476.000000;-0.152529
9475.000000;-0.153582
9474.000000;-0.154664
9473.000000;-0.155496
9472.000000;-0.156031
9471.000000;-0.156379
9470.000000;-0.156676
9469.000000;-0.157079
9468.000000;-0.157757
9467.000000;-0.158723
9466.000000;-0.159703
9465.000000;-0.160306
9464.000000;-0.160371
9463.000000;-0.160129
9462.000000;-0.160013
9461.000000;-0.160314
9460.000000;-0.161004
9459.000000;-0.161827
9458.000000;-0.162542
9457.000000;-0.163071
9456.000000;-0.163468
9455.000000;-0.163807
9454.000000;-0.164089
9453.000000;-0.164232
9452.000000;-0.164134
9451.000000;-0.163827
9450.000000;-0.163578
9449.000000;-0.163716
9448.000000;-0.164254
9447.000000;-0.164729
9446.000000;-0.164581
9445.000000;-0.163701
9444.000000;-0.162523
9443.000000;-0.161573
9442.000000;-0.161049
9441.000000;-0.160874
9440.000000;-0.160941
9439.000000;-0.161163
9438.000000;-0.161357
9437.000000;-0.161319
9436.000000;-0.161021
9435.000000;-0.160619
9434.000000;-0.160223
9433.000000;-0.159760
9432.000000;-0.159128
9431.000000;-0.158396
9430.000000;-0.157761
9429.000000;-0.157319
9428.000000;-0.156966
9427.000000;-0.156512
9426.000000;-0.155859
9425.000000;-0.155065
9424.000000;-0.154263
9423.000000;-0.153536
9422.000000;-0.152868
9421.000000;-0.152194
9420.000000;-0.151476
9419.000000;-0.150721
9418.000000;-0.149933
9417.000000;-0.149100
9416.000000;-0.148224
9415.000000;-0.147334
9414.000000;-0.146440
9413.000000;-0.145534
9412.000000;-0.144664
9411.000000;-0.143937
9410.000000;-0.143388
9409.000000;-0.142879
9408.000000;-0.142219
9407.000000;-0.141363
9406.000000;-0.140433
9405.000000;-0.139518
9404.000000;-0.138582
9403.000000;-0.137574
9402.000000;-0.136556
9401.000000;-0.135624
9400.000000;-0.134735
9399.000000;-0.133696
9398.000000;-0.132351
9397.000000;-0.130725
9396.000000;-0.128982
9395.000000;-0.127284
9394.000000;-0.125737
9393.000000;-0.124413
9392.000000;-0.123363
9391.000000;-0.122528
9390.000000;-0.121697
9389.000000;-0.120642
9388.000000;-0.119347
9387.000000;-0.118026
9386.000000;-0.116855
9385.000000;-0.115757
9384.000000;-0.114537
9383.000000;-0.113182
9382.000000;-0.111889
9381.000000;-0.110796
9380.000000;-0.109816
9379.000000;-0.108760
9378.000000;-0.107514
9377.000000;-0.106053
9376.000000;-0.104405
9375.000000;-0.102695
9374.000000;-0.101109
9373.000000;-0.099723
9372.000000;-0.098403
9371.000000;-0.096989
9370.000000;-0.095512
9369.000000;-0.094127
9368.000000;-0.092883
9367.000000;-0.091671
9366.000000;-0.090402
9365.000000;-0.089110
9364.000000;-0.087854
9363.000000;-0.086597
9362.000000;-0.085233
9361.000000;-0.083703
9360.000000;-0.082055
9359.000000;-0.080395
9358.000000;-0.078804
9357.000000;-0.077303
9356.000000;-0.075918
9355.000000;-0.074709
9354.000000;-0.073661
9353.000000;-0.072571
9352.000000;-0.071193
9351.000000;-0.069530
9350.000000;-0.067884
9349.000000;-0.066517
9348.000000;-0.065388
9347.000000;-0.064282
9346.000000;-0.063068
9345.000000;-0.061724
9344.000000;-0.060228
9343.000000;-0.058591
9342.000000;-0.056921
9341.000000;-0.055282
9340.000000;-0.053578
9339.000000;-0.051753
9338.000000;-0.050047
9337.000000;-0.048797
9336.000000;-0.047969
9335.000000;-0.047123
9334.000000;-0.045880
9333.000000;-0.044281
9332.000000;-0.042619
9331.000000;-0.041114
9330.000000;-0.039828
9329.000000;-0.038719
9328.000000;-0.037633
9327.000000;-0.036339
9326.000000;-0.034727
9325.000000;-0.032913
9324.000000;-0.031121
9323.000000;-0.029482
9322.000000;-0.028041
9321.000000;-0.026847
9320.000000;-0.025928
9319.000000;-0.025171
9318.000000;-0.024324
9317.000000;-0.023144
9316.000000;-0.021594
9315.000000;-0.019899
9314.000000;-0.018358
9313.000000;-0.017056
9312.000000;-0.015784
9311.000000;-0.014326
9310.000000;-0.012727
9309.000000;-0.011184
9308.000000;-0.009718
9307.000000;-0.008163
9306.000000;-0.006453
9305.000000;-0.004747
9304.000000;-0.003194
9303.000000;-0.001755
9302.000000;-0.000340
9301.000000;0.001039
9300.000000;0.002353
9299.000000;0.003664
9298.000000;0.005041
9297.000000;0.006423
9296.000000;0.007665
9295.000000;0.008659
9294.000000;0.009370
9293.000000;0.009887
9292.000000;0.010513
9291.000000;0.011658
9290.000000;0.013473
9289.000000;0.015629
9288.000000;0.017560
9287.000000;0.018932
9286.000000;0.019822
9285.000000;0.020546
9284.000000;0.021427
9283.000000;0.022657
9282.000000;0.024211
9281.000000;0.025856
9280.000000;0.027325
9279.000000;0.028525
9278.000000;0.029556
9277.000000;0.030578
9276.000000;0.031704
9275.000000;0.032975
9274.000000;0.034351
9273.000000;0.035738
9272.000000;0.037060
9271.000000;0.038316
9270.000000;0.039529
9269.000000;0.040719
9268.000000;0.041918
9267.000000;0.043165
9266.000000;0.044443
9265.000000;0.045685
9264.000000;0.046857
9263.000000;0.047992
9262.000000;0.049099
9261.000000;0.050124
9260.000000;0.051061
9259.000000;0.052013
9258.000000;0.053095
9257.000000;0.054346
9256.000000;0.055769
9255.000000;0.057346
9254.000000;0.058919
9253.000000;0.060217
9252.000000;0.061136
9251.000000;0.061896
9250.000000;0.062785
9249.000000;0.063812
9248.000000;0.064787
9247.000000;0.065669
9246.000000;0.066615
9245.000000;0.067702
9244.000000;0.068789
9243.000000;0.069742
9242.000000;0.070610
9241.000000;0.071516
9240.000000;0.072509
9239.000000;0.073646
9238.000000;0.075047
9237.000000;0.076734
9236.000000;0.078446
9235.000000;0.079786
9234.000000;0.080587
9233.000000;0.081040
9232.000000;0.081486
9231.000000;0.082154
9230.000000;0.083127
9229.000000;0.084406
9228.000000;0.085909
9227.000000;0.087428
9226.000000;0.088714
9225.000000;0.089677
9224.000000;0.090479
9223.000000;0.091365
9222.000000;0.092415
9221.000000;0.093480
9220.000000;0.094379
9219.000000;0.095105
9218.000000;0.095786
9217.000000;0.096492
9216.000000;0.097176
9215.000000;0.097824
9214.000000;0.098568
9213.000000;0.099553
9212.000000;0.100721
9211.000000;0.101836
9210.000000;0.102766
9209.000000;0.103659
9208.000000;0.104765
9207.000000;0.106142
9206.000000;0.107596
9205.000000;0.108893
9204.000000;0.109931
9203.000000;0.110729
9202.000000;0.111348
9201.000000;0.111876
9200.000000;0.112424
9199.000000;0.113060
9198.000000;0.113808
9197.000000;0.114699
9196.000000;0.115763
9195.000000;0.116924
9194.000000;0.117975
9193.000000;0.118755
9192.000000;0.119310
9191.000000;0.119817
9190.000000;0.120421
9189.000000;0.121200
9188.000000;0.122225
9187.000000;0.123516
9186.000000;0.124949
9185.000000;0.126290
9184.000000;0.127365
9183.000000;0.128161
9182.000000;0.128799
9181.000000;0.129463
9180.000000;0.130300
9179.000000;0.131293
9178.000000;0.132239
9177.000000;0.132942
9176.000000;0.133442
9175.000000;0.133965
9174.000000;0.134649
9173.000000;0.135398
9172.000000;0.136040
9171.000000;0.136567
9170.000000;0.137188
9169.000000;0.138154
9168.000000;0.139495
9167.000000;0.140905
9166.000000;0.141934
9165.000000;0.142376
9164.000000;0.142475
9163.000000;0.142680
9162.000000;0.143258
9161.000000;0.144170
9160.000000;0.145234
9159.000000;0.146284
9158.000000;0.147212
9157.000000;0.147998
9156.000000;0.148708
9155.000000;0.149391
9154.000000;0.150013
9153.000000;0.150573
9152.000000;0.151235
9151.000000;0.152186
9150.000000;0.153352
9149.000000;0.154407
9148.000000;0.155086
9147.000000;0.155400
9146.000000;0.155545
9145.000000;0.155748
9144.000000;0.156205
9143.000000;0.157016
9142.000000;0.158089
9141.000000;0.159182
9140.000000;0.160115
9139.000000;0.160863
9138.000000;0.161473
9137.000000;0.161988
9136.000000;0.162473
9135.000000;0.162997
9134.000000;0.163527
9133.000000;0.163974
9132.000000;0.164373
9131.000000;0.164923
9130.000000;0.165792
9129.000000;0.166942
9128.000000;0.168191
9127.000000;0.169348
9126.000000;0.170242
9125.000000;0.170763
9124.000000;0.170958
9123.000000;0.171058
9122.000000;0.171316
9121.000000;0.171831
9120.000000;0.172525
9119.000000;0.173230
9118.000000;0.173799
9117.000000;0.174236
9116.000000;0.174725
9115.000000;0.175446
9114.000000;0.176352
9113.000000;0.177223
9112.000000;0.177933
9111.000000;0.178530
9110.000000;0.179056
9109.000000;0.179481
9108.000000;0.179857
9107.000000;0.180364
9106.000000;0.181079
9105.000000;0.181837
9104.000000;0.182447
9103.000000;0.182918
9102.000000;0.183358
9101.000000;0.183764
9100.000000;0.184087
9099.000000;0.184435
9098.000000;0.185008
9097.000000;0.185843
9096.000000;0.186736
9095.000000;0.187449
9094.000000;0.187900
9093.000000;0.188167
9092.000000;0.188409
9091.000000;0.188795
9090.000000;0.189422
9089.000000;0.190256
9088.000000;0.191132
9087.000000;0.191859
9086.000000;0.192337
9085.000000;0.192659
9084.000000;0.193074
9083.000000;0.193772
9082.000000;0.194639
9081.000000;0.195321
9080.000000;0.195588
9079.000000;0.195599
9078.000000;0.195728
9077.000000;0.196178
9076.000000;0.196845
9075.000000;0.197540
9074.000000;0.198233
9073.000000;0.199008
9072.000000;0.199853
9071.000000;0.200576
9070.000000;0.200978
9069.000000;0.201084
9068.000000;0.201125
9067.000000;0.201296
9066.000000;0.201609
