Criado como novo conjunto de dados;"0307_DANIEL.spp","20163.3 Secs"
cm-1;Abs
10000.000000;0.972607
9999.000000;0.970885
9998.000000;0.969182
9997.000000;0.967690
9996.000000;0.966788
9995.000000;0.966433
9994.000000;0.965986
9993.000000;0.964886
9992.000000;0.963230
9991.000000;0.961585
9990.000000;0.960388
9989.000000;0.959658
9988.000000;0.959121
9987.000000;0.958450
9986.000000;0.957489
9985.000000;0.956352
9984.000000;0.955234
9983.000000;0.954123
9982.000000;0.952803
9981.000000;0.951189
9980.000000;0.949482
9979.000000;0.947933
9978.000000;0.946612
9977.000000;0.945500
9976.000000;0.944618
9975.000000;0.943901
9974.000000;0.943076
9973.000000;0.941874
9972.000000;0.940317
9971.000000;0.938660
9970.000000;0.937081
9969.000000;0.935564
9968.000000;0.934070
9967.000000;0.932665
9966.000000;0.931433
9965.000000;0.930350
9964.000000;0.929326
9963.000000;0.928285
9962.000000;0.927163
9961.000000;0.925910
9960.000000;0.924584
9959.000000;0.923411
9958.000000;0.922611
9957.000000;0.922107
9956.000000;0.921471
9955.000000;0.920238
9954.000000;0.918275
9953.000000;0.915813
9952.000000;0.913236
9951.000000;0.910972
9950.000000;0.909476
9949.000000;0.908995
9948.000000;0.909207
9947.000000;0.909284
9946.000000;0.908587
9945.000000;0.907233
9944.000000;0.905830
9943.000000;0.904711
9942.000000;0.903671
9941.000000;0.902411
9940.000000;0.900973
9939.000000;0.899619
9938.000000;0.898447
9937.000000;0.897278
9936.000000;0.895864
9935.000000;0.894152
9934.000000;0.892363
9933.000000;0.890848
9932.000000;0.889822
9931.000000;0.889177
9930.000000;0.888534
9929.000000;0.887476
9928.000000;0.885775
9927.000000;0.883578
9926.000000;0.881422
9925.000000;0.879905
9924.000000;0.879138
9923.000000;0.878589
9922.000000;0.877639
9921.000000;0.876223
9920.000000;0.874733
9919.000000;0.873425
9918.000000;0.872233
9917.000000;0.871101
9916.000000;0.870089
9915.000000;0.869082
9914.000000;0.867768
9913.000000;0.866068
9912.000000;0.864313
9911.000000;0.862798
9910.000000;0.861460
9909.000000;0.860174
9908.000000;0.859056
9907.000000;0.858156
9906.000000;0.857134
9905.000000;0.855661
9904.000000;0.853953
9903.000000;0.852488
9902.000000;0.851246
9901.000000;0.849707
9900.000000;0.847663
9899.000000;0.845616
9898.000000;0.844192
9897.000000;0.843435
9896.000000;0.842884
9895.000000;0.842110
9894.000000;0.840979
9893.000000;0.839578
9892.000000;0.838152
9891.000000;0.836996
9890.000000;0.836167
9889.000000;0.835296
9888.000000;0.833936
9887.000000;0.832103
9886.000000;0.830300
9885.000000;0.828911
9884.000000;0.827745
9883.000000;0.826327
9882.000000;0.824508
9881.000000;0.822609
9880.000000;0.820970
9879.000000;0.819582
9878.000000;0.818249
9877.000000;0.816919
9876.000000;0.815688
9875.000000;0.814529
9874.000000;0.813264
9873.000000;0.811794
9872.000000;0.810206
9871.000000;0.808602
9870.000000;0.806973
9869.000000;0.805323
9868.000000;0.803765
9867.000000;0.802391
9866.000000;0.801169
9865.000000;0.800053
9864.000000;0.799079
9863.000000;0.798245
9862.000000;0.797387
9861.000000;0.796319
9860.000000;0.795021
9859.000000;0.793534
9858.000000;0.791787
9857.000000;0.789712
9856.000000;0.787490
9855.000000;0.785483
9854.000000;0.783879
9853.000000;0.782544
9852.000000;0.781217
9851.000000;0.779722
9850.000000;0.778003
9849.000000;0.776128
9848.000000;0.774314
9847.000000;0.772815
9846.000000;0.771692
9845.000000;0.770771
9844.000000;0.769817
9843.000000;0.768676
9842.000000;0.767264
9841.000000;0.765584
9840.000000;0.763792
9839.000000;0.762100
9838.000000;0.760589
9837.000000;0.759189
9836.000000;0.757867
9835.000000;0.756655
9834.000000;0.755471
9833.000000;0.754100
9832.000000;0.752454
9831.000000;0.750705
9830.000000;0.749049
9829.000000;0.747477
9828.000000;0.745890
9827.000000;0.744301
9826.000000;0.742765
9825.000000;0.741217
9824.000000;0.739573
9823.000000;0.737933
9822.000000;0.736469
9821.000000;0.735148
9820.000000;0.733783
9819.000000;0.732356
9818.000000;0.731068
9817.000000;0.729986
9816.000000;0.728839
9815.000000;0.727341
9814.000000;0.725616
9813.000000;0.724124
9812.000000;0.723146
9811.000000;0.722438
9810.000000;0.721441
9809.000000;0.719779
9808.000000;0.717544
9807.000000;0.715129
9806.000000;0.712866
9805.000000;0.710848
9804.000000;0.709034
9803.000000;0.707396
9802.000000;0.705895
9801.000000;0.704420
9800.000000;0.702866
9799.000000;0.701276
9798.000000;0.699814
9797.000000;0.698553
9796.000000;0.697377
9795.000000;0.696104
9794.000000;0.694644
9793.000000;0.693010
9792.000000;0.691238
9791.000000;0.689363
9790.000000;0.687439
9789.000000;0.685524
9788.000000;0.683667
9787.000000;0.681919
9786.000000;0.680315
9785.000000;0.678797
9784.000000;0.677223
9783.000000;0.675524
9782.000000;0.673811
9781.000000;0.672223
9780.000000;0.670685
9779.000000;0.668949
9778.000000;0.666950
9777.000000;0.665000
9776.000000;0.663480
9775.000000;0.662373
9774.000000;0.661213
9773.000000;0.659557
9772.000000;0.657416
9771.000000;0.655157
9770.000000;0.653091
9769.000000;0.651275
9768.000000;0.649654
9767.000000;0.648223
9766.000000;0.646937
9765.000000;0.645601
9764.000000;0.643991
9763.000000;0.642086
9762.000000;0.640097
9761.000000;0.638262
9760.000000;0.636634
9759.000000;0.635060
9758.000000;0.633296
9757.000000;0.631222
9756.000000;0.629019
9755.000000;0.627110
9754.000000;0.625801
9753.000000;0.624904
9752.000000;0.623832
9751.000000;0.622125
9750.000000;0.619873
9749.000000;0.617586
9748.000000;0.615687
9747.000000;0.614173
9746.000000;0.612679
9745.000000;0.610818
9744.000000;0.608527
9743.000000;0.606153
9742.000000;0.604166
9741.000000;0.602732
9740.000000;0.601582
9739.000000;0.600316
9738.000000;0.598771
9737.000000;0.597047
9736.000000;0.595276
9735.000000;0.593512
9734.000000;0.591769
9733.000000;0.590001
9732.000000;0.588058
9731.000000;0.585835
9730.000000;0.583507
9729.000000;0.581437
9728.000000;0.579774
9727.000000;0.578253
9726.000000;0.576534
9725.000000;0.574623
9724.000000;0.572815
9723.000000;0.571250
9722.000000;0.569712
9721.000000;0.567904
9720.000000;0.565810
9719.000000;0.563689
9718.000000;0.561738
9717.000000;0.559849
9716.000000;0.557745
9715.000000;0.555341
9714.000000;0.552926
9713.000000;0.550926
9712.000000;0.549487
9711.000000;0.548351
9710.000000;0.547157
9709.000000;0.545754
9708.000000;0.544171
9707.000000;0.542390
9706.000000;0.540293
9705.000000;0.537859
9704.000000;0.535288
9703.000000;0.532843
9702.000000;0.530622
9701.000000;0.528544
9700.000000;0.526537
9699.000000;0.524681
9698.000000;0.523115
9697.000000;0.521818
9696.000000;0.520544
9695.000000;0.519009
9694.000000;0.517117
9693.000000;0.514988
9692.000000;0.512786
9691.000000;0.510614
9690.000000;0.508548
9689.000000;0.506656
9688.000000;0.504878
9687.000000;0.503002
9686.000000;0.500854
9685.000000;0.498495
9684.000000;0.496129
9683.000000;0.493827
9682.000000;0.491469
9681.000000;0.488992
9680.000000;0.486607
9679.000000;0.484666
9678.000000;0.483318
9677.000000;0.482325
9676.000000;0.481223
9675.000000;0.479702
9674.000000;0.477803
9673.000000;0.475757
9672.000000;0.473675
9671.000000;0.471501
9670.000000;0.469216
9669.000000;0.466954
9668.000000;0.464790
9667.000000;0.462563
9666.000000;0.460087
9665.000000;0.457486
9664.000000;0.455137
9663.000000;0.453236
9662.000000;0.451553
9661.000000;0.449685
9660.000000;0.447453
9659.000000;0.444986
9658.000000;0.442538
9657.000000;0.440285
9656.000000;0.438251
9655.000000;0.436305
9654.000000;0.434258
9653.000000;0.432041
9652.000000;0.429787
9651.000000;0.427681
9650.000000;0.425761
9649.000000;0.423908
9648.000000;0.421984
9647.000000;0.419915
9646.000000;0.417663
9645.000000;0.415226
9644.000000;0.412688
9643.000000;0.410233
9642.000000;0.408036
9641.000000;0.406116
9640.000000;0.404308
9639.000000;0.402392
9638.000000;0.400287
9637.000000;0.398092
9636.000000;0.395917
9635.000000;0.393720
9634.000000;0.391381
9633.000000;0.388936
9632.000000;0.386602
9631.000000;0.384533
9630.000000;0.382611
9629.000000;0.380559
9628.000000;0.378234
9627.000000;0.375755
9626.000000;0.373369
9625.000000;0.371252
9624.000000;0.369385
9623.000000;0.367577
9622.000000;0.365615
9621.000000;0.363444
9620.000000;0.361175
9619.000000;0.358900
9618.000000;0.356575
9617.000000;0.354122
9616.000000;0.351610
9615.000000;0.349217
9614.000000;0.347028
9613.000000;0.344936
9612.000000;0.342743
9611.000000;0.340332
9610.000000;0.337739
9609.000000;0.335136
9608.000000;0.332714
9607.000000;0.330515
9606.000000;0.328364
9605.000000;0.326042
9604.000000;0.323535
9603.000000;0.321042
9602.000000;0.318738
9601.000000;0.316594
9600.000000;0.314466
9599.000000;0.312281
9598.000000;0.310050
9597.000000;0.307768
9596.000000;0.305413
9595.000000;0.303053
9594.000000;0.300859
9593.000000;0.298941
9592.000000;0.297196
9591.000000;0.295381
9590.000000;0.293303
9589.000000;0.290919
9588.000000;0.288256
9587.000000;0.285345
9586.000000;0.282283
9585.000000;0.279322
9584.000000;0.276757
9583.000000;0.274671
9582.000000;0.272833
9581.000000;0.270915
9580.000000;0.268789
9579.000000;0.266571
9578.000000;0.264403
9577.000000;0.262277
9576.000000;0.260103
9575.000000;0.257877
9574.000000;0.255677
9573.000000;0.253496
9572.000000;0.251171
9571.000000;0.248566
9570.000000;0.245790
9569.000000;0.243131
9568.000000;0.240758
9567.000000;0.238550
9566.000000;0.236280
9565.000000;0.233874
9564.000000;0.231413
9563.000000;0.228937
9562.000000;0.226414
9561.000000;0.223915
9560.000000;0.221648
9559.000000;0.219716
9558.000000;0.217922
9557.000000;0.215935
9556.000000;0.213616
9555.000000;0.211122
9554.000000;0.208687
9553.000000;0.206387
9552.000000;0.204121
9551.000000;0.201770
9550.000000;0.199343
9549.000000;0.196971
9548.000000;0.194728
9547.000000;0.192478
9546.000000;0.189987
9545.000000;0.187231
9544.000000;0.184485
9543.000000;0.182054
9542.000000;0.179981
9541.000000;0.178103
9540.000000;0.176311
9539.000000;0.174593
9538.000000;0.172859
9537.000000;0.170900
9536.000000;0.168620
9535.000000;0.166189
9534.000000;0.163868
9533.000000;0.161720
9532.000000;0.159584
9531.000000;0.157333
9530.000000;0.155081
9529.000000;0.153106
9528.000000;0.151541
9527.000000;0.150195
9526.000000;0.148713
9525.000000;0.146910
9524.000000;0.144874
9523.000000;0.142722
9522.000000;0.140396
9521.000000;0.137823
9520.000000;0.135189
9519.000000;0.132863
9518.000000;0.131021
9517.000000;0.129469
9516.000000;0.127891
9515.000000;0.126160
9514.000000;0.124359
9513.000000;0.122594
9512.000000;0.120876
9511.000000;0.119121
9510.000000;0.117189
9509.000000;0.114970
9508.000000;0.112511
9507.000000;0.110055
9506.000000;0.107872
9505.000000;0.106052
9504.000000;0.104469
9503.000000;0.102904
9502.000000;0.101188
9501.000000;0.099284
9500.000000;0.097306
9499.000000;0.095454
9498.000000;0.093883
9497.000000;0.092598
9496.000000;0.091476
9495.000000;0.090343
9494.000000;0.089065
9493.000000;0.087630
9492.000000;0.086163
9491.000000;0.084806
9490.000000;0.083545
9489.000000;0.082229
9488.000000;0.080782
9487.000000;0.079335
9486.000000;0.078062
9485.000000;0.076973
9484.000000;0.075924
9483.000000;0.074800
9482.000000;0.073622
9481.000000;0.072500
9480.000000;0.071547
9479.000000;0.070763
9478.000000;0.069990
9477.000000;0.069004
9476.000000;0.067725
9475.000000;0.066273
9474.000000;0.064794
9473.000000;0.063331
9472.000000;0.061923
9471.000000;0.060691
9470.000000;0.059683
9469.000000;0.058736
9468.000000;0.057666
9467.000000;0.056564
9466.000000;0.055730
9465.000000;0.055344
9464.000000;0.055306
9463.000000;0.055372
9462.000000;0.055282
9461.000000;0.054795
9460.000000;0.053845
9459.000000;0.052701
9458.000000;0.051797
9457.000000;0.051312
9456.000000;0.051038
9455.000000;0.050702
9454.000000;0.050267
9453.000000;0.049858
9452.000000;0.049566
9451.000000;0.049413
9450.000000;0.049381
9449.000000;0.049375
9448.000000;0.049264
9447.000000;0.049088
9446.000000;0.049064
9445.000000;0.049284
9444.000000;0.049524
9443.000000;0.049501
9442.000000;0.049208
9441.000000;0.048834
9440.000000;0.048460
9439.000000;0.048031
9438.000000;0.047569
9437.000000;0.047209
9436.000000;0.047021
9435.000000;0.046967
9434.000000;0.047046
9433.000000;0.047322
9432.000000;0.047763
9431.000000;0.048185
9430.000000;0.048413
9429.000000;0.048432
9428.000000;0.048365
9427.000000;0.048414
9426.000000;0.048815
9425.000000;0.049696
9424.000000;0.050882
9423.000000;0.051944
9422.000000;0.052545
9421.000000;0.052732
9420.000000;0.052845
9419.000000;0.053172
9418.000000;0.053761
9417.000000;0.054486
9416.000000;0.055204
9415.000000;0.055846
9414.000000;0.056400
9413.000000;0.056888
9412.000000;0.057374
9411.000000;0.057969
9410.000000;0.058762
9409.000000;0.059690
9408.000000;0.060530
9407.000000;0.061125
9406.000000;0.061588
9405.000000;0.062207
9404.000000;0.063089
9403.000000;0.064004
9402.000000;0.064673
9401.000000;0.065131
9400.000000;0.065724
9399.000000;0.066699
9398.000000;0.067894
9397.000000;0.068892
9396.000000;0.069474
9395.000000;0.069851
9394.000000;0.070429
9393.000000;0.071378
9392.000000;0.072488
9391.000000;0.073440
9390.000000;0.074149
9389.000000;0.074830
9388.000000;0.075766
9387.000000;0.077066
9386.000000;0.078629
9385.000000;0.080263
9384.000000;0.081806
9383.000000;0.083161
9382.000000;0.084287
9381.000000;0.085203
9380.000000;0.086013
9379.000000;0.086863
9378.000000;0.087838
9377.000000;0.088911
9376.000000;0.090026
9375.000000;0.091193
9374.000000;0.092455
9373.000000;0.093770
9372.000000;0.095037
9371.000000;0.096229
9370.000000;0.097412
9369.000000;0.098593
9368.000000;0.099648
9367.000000;0.100473
9366.000000;0.101156
9365.000000;0.101938
9364.000000;0.103014
9363.000000;0.104405
9362.000000;0.105943
9361.000000;0.107358
9360.000000;0.108460
9359.000000;0.109316
9358.000000;0.110186
9357.000000;0.111239
9356.000000;0.112405
9355.000000;0.113577
9354.000000;0.114832
9353.000000;0.116298
9352.000000;0.117871
9351.000000;0.119247
9350.000000;0.120266
9349.000000;0.121061
9348.000000;0.121835
9347.000000;0.122649
9346.000000;0.123505
9345.000000;0.124511
9344.000000;0.125816
9343.000000;0.127400
9342.000000;0.129035
9341.000000;0.130451
9340.000000;0.131546
9339.000000;0.132451
9338.000000;0.133421
9337.000000;0.134620
9336.000000;0.135965
9335.000000;0.137210
9334.000000;0.138203
9333.000000;0.139038
9332.000000;0.139952
9331.000000;0.141097
9330.000000;0.142451
9329.000000;0.143868
9328.000000;0.145175
9327.000000;0.146277
9326.000000;0.147240
9325.000000;0.148257
9324.000000;0.149477
9323.000000;0.150846
9322.000000;0.152163
9321.000000;0.153302
9320.000000;0.154347
9319.000000;0.155481
9318.000000;0.156796
9317.000000;0.158223
9316.000000;0.159647
9315.000000;0.161014
9314.000000;0.162329
9313.000000;0.163569
9312.000000;0.164655
9311.000000;0.165534
9310.000000;0.166252
9309.000000;0.166958
9308.000000;0.167819
9307.000000;0.168924
9306.000000;0.170211
9305.000000;0.171511
9304.000000;0.172694
9303.000000;0.173819
9302.000000;0.175083
9301.000000;0.176579
9300.000000;0.178133
9299.000000;0.179440
9298.000000;0.180359
9297.000000;0.181034
9296.000000;0.181736
9295.000000;0.182631
9294.000000;0.183713
9293.000000;0.184881
9292.000000;0.186049
9291.000000;0.187188
9290.000000;0.188298
9289.000000;0.189367
9288.000000;0.190370
9287.000000;0.191322
9286.000000;0.192291
9285.000000;0.193344
9284.000000;0.194481
9283.000000;0.195659
9282.000000;0.196842
9281.000000;0.198000
9280.000000;0.199085
9279.000000;0.200066
9278.000000;0.200993
9277.000000;0.201974
9276.000000;0.203057
9275.000000;0.204194
9274.000000;0.205317
9273.000000;0.206399
9272.000000;0.207402
9271.000000;0.208257
9270.000000;0.208958
9269.000000;0.209646
9268.000000;0.210511
9267.000000;0.211604
9266.000000;0.212790
9265.000000;0.213882
9264.000000;0.214779
9263.000000;0.215506
9262.000000;0.216199
9261.000000;0.217072
9260.000000;0.218299
9259.000000;0.219824
9258.000000;0.221339
9257.000000;0.222508
9256.000000;0.223252
9255.000000;0.223773
9254.000000;0.224336
9253.000000;0.225071
9252.000000;0.225973
9251.000000;0.226967
9250.000000;0.227929
9249.000000;0.228725
9248.000000;0.229335
9247.000000;0.229919
9246.000000;0.230706
9245.000000;0.231807
9244.000000;0.233153
9243.000000;0.234571
9242.000000;0.235873
9241.000000;0.236918
9240.000000;0.237698
9239.000000;0.238367
9238.000000;0.239114
9237.000000;0.239975
9236.000000;0.240809
9235.000000;0.241500
9234.000000;0.242100
9233.000000;0.242739
9232.000000;0.243450
9231.000000;0.244158
9230.000000;0.244835
9229.000000;0.245592
9228.000000;0.246580
9227.000000;0.247799
9226.000000;0.249031
9225.000000;0.250003
9224.000000;0.250657
9223.000000;0.251218
9222.000000;0.251942
9221.000000;0.252839
9220.000000;0.253693
9219.000000;0.254361
9218.000000;0.254938
9217.000000;0.255601
9216.000000;0.256389
9215.000000;0.257197
9214.000000;0.257919
9213.000000;0.258532
9212.000000;0.259110
9211.000000;0.259816
9210.000000;0.260795
9209.000000;0.261995
9208.000000;0.263123
9207.000000;0.263909
9206.000000;0.264380
9205.000000;0.264794
9204.000000;0.265326
9203.000000;0.265962
9202.000000;0.266662
9201.000000;0.267459
9200.000000;0.268339
9199.000000;0.269161
9198.000000;0.269805
9197.000000;0.270352
9196.000000;0.271014
9195.000000;0.271917
9194.000000;0.272988
9193.000000;0.274027
9192.000000;0.274836
9191.000000;0.275324
9190.000000;0.275587
9189.000000;0.275851
9188.000000;0.276312
9187.000000;0.276991
9186.000000;0.277786
9185.000000;0.278595
9184.000000;0.279336
9183.000000;0.279920
9182.000000;0.280314
9181.000000;0.280652
9180.000000;0.281169
9179.000000;0.281968
9178.000000;0.282911
9177.000000;0.283791
9176.000000;0.284538
9175.000000;0.285223
9174.000000;0.285900
9173.000000;0.286564
9172.000000;0.287227
9171.000000;0.287934
9170.000000;0.288666
9169.000000;0.289316
9168.000000;0.289812
9167.000000;0.290207
9166.000000;0.290611
9165.000000;0.291072
9164.000000;0.291587
9163.000000;0.292161
9162.000000;0.292812
9161.000000;0.293518
9160.000000;0.294208
9159.000000;0.294811
9158.000000;0.295278
9157.000000;0.295613
9156.000000;0.295922
9155.000000;0.296377
9154.000000;0.297069
9153.000000;0.297906
9152.000000;0.298719
9151.000000;0.299446
9150.000000;0.300113
9149.000000;0.300692
9148.000000;0.301110
9147.000000;0.301412
9146.000000;0.301782
9145.000000;0.302344
9144.000000;0.303030
9143.000000;0.303704
9142.000000;0.304329
9141.000000;0.304925
9140.000000;0.305470
9139.000000;0.305942
9138.000000;0.306394
9137.000000;0.306891
9136.000000;0.307406
9135.000000;0.307881
9134.000000;0.308352
9133.000000;0.308869
9132.000000;0.309328
9131.000000;0.309525
9130.000000;0.309432
9129.000000;0.309310
9128.000000;0.309475
9127.000000;0.310002
9126.000000;0.310708
9125.000000;0.311370
9124.000000;0.311893
9123.000000;0.312311
9122.000000;0.312713
9121.000000;0.313185
9120.000000;0.313779
9119.000000;0.314479
9118.000000;0.315193
9117.000000;0.315794
9116.000000;0.316211
9115.000000;0.316492
9114.000000;0.316767
9113.000000;0.317121
9112.000000;0.317527
9111.000000;0.317905
9110.000000;0.318241
9109.000000;0.318600
9108.000000;0.319059
9107.000000;0.319632
9106.000000;0.320264
9105.000000;0.320858
9104.000000;0.321356
9103.000000;0.321804
9102.000000;0.322297
9101.000000;0.322829
9100.000000;0.323263
9099.000000;0.323513
9098.000000;0.323698
9097.000000;0.323999
9096.000000;0.324414
9095.000000;0.324769
9094.000000;0.325002
9093.000000;0.325258
9092.000000;0.325661
9091.000000;0.326125
9090.000000;0.326501
9089.000000;0.326825
9088.000000;0.327273
9087.000000;0.327880
9086.000000;0.328456
9085.000000;0.328833
9084.000000;0.329090
9083.000000;0.329453
9082.000000;0.330002
9081.000000;0.330562
9080.000000;0.330894
9079.000000;0.330953
9078.000000;0.330915
9077.000000;0.330996
9076.000000;0.331285
9075.000000;0.331766
9074.000000;0.332383
9073.000000;0.333031
9072.000000;0.333524
9071.000000;0.333692
9070.000000;0.333560
9069.000000;0.333361
9068.000000;0.333345
9067.000000;0.333581
9066.000000;0.333964
9065.000000;0.334363
9064.000000;0.334733
9063.000000;0.335119
9062.000000;0.335584
9061.000000;0.336126
9060.000000;0.336653
9059.000000;0.337068
9058.000000;0.337364
9057.000000;0.337597
9056.000000;0.337766
9055.000000;0.337799
9054.000000;0.337685
9053.000000;0.337578
