Criado como novo conjunto de dados;"0307_DANIEL.spp","31503.4 Secs"
cm-1;Abs
10000.000000;1.086420
9999.000000;1.084916
9998.000000;1.083202
9997.000000;1.081683
9996.000000;1.080749
9995.000000;1.080328
9994.000000;1.079997
9993.000000;1.079267
9992.000000;1.078124
9991.000000;1.076938
9990.000000;1.076034
9989.000000;1.075364
9988.000000;1.074653
9987.000000;1.073653
9986.000000;1.072216
9985.000000;1.070315
9984.000000;1.068099
9983.000000;1.065901
9982.000000;1.064156
9981.000000;1.063224
9980.000000;1.063135
9979.000000;1.063348
9978.000000;1.062994
9977.000000;1.061625
9976.000000;1.059688
9975.000000;1.057998
9974.000000;1.056830
9973.000000;1.055783
9972.000000;1.054426
9971.000000;1.052735
9970.000000;1.050920
9969.000000;1.049246
9968.000000;1.048105
9967.000000;1.047807
9966.000000;1.048096
9965.000000;1.048141
9964.000000;1.047297
9963.000000;1.045703
9962.000000;1.043956
9961.000000;1.042454
9960.000000;1.041228
9959.000000;1.040162
9958.000000;1.039103
9957.000000;1.037940
9956.000000;1.036772
9955.000000;1.035815
9954.000000;1.034971
9953.000000;1.033740
9952.000000;1.031839
9951.000000;1.029676
9950.000000;1.027860
9949.000000;1.026436
9948.000000;1.024978
9947.000000;1.023372
9946.000000;1.022024
9945.000000;1.021212
9944.000000;1.020570
9943.000000;1.019442
9942.000000;1.017593
9941.000000;1.015424
9940.000000;1.013541
9939.000000;1.012233
9938.000000;1.011334
9937.000000;1.010508
9936.000000;1.009582
9935.000000;1.008593
9934.000000;1.007574
9933.000000;1.006493
9932.000000;1.005372
9931.000000;1.004271
9930.000000;1.003089
9929.000000;1.001608
9928.000000;0.999850
9927.000000;0.998153
9926.000000;0.996697
9925.000000;0.995220
9924.000000;0.993448
9923.000000;0.991614
9922.000000;0.990193
9921.000000;0.989252
9920.000000;0.988408
9919.000000;0.987407
9918.000000;0.986381
9917.000000;0.985492
9916.000000;0.984649
9915.000000;0.983696
9914.000000;0.982609
9913.000000;0.981355
9912.000000;0.979778
9911.000000;0.977858
9910.000000;0.975970
9909.000000;0.974646
9908.000000;0.974022
9907.000000;0.973638
9906.000000;0.972826
9905.000000;0.971258
9904.000000;0.969096
9903.000000;0.966659
9902.000000;0.964117
9901.000000;0.961612
9900.000000;0.959541
9899.000000;0.958400
9898.000000;0.958235
9897.000000;0.958462
9896.000000;0.958392
9895.000000;0.957756
9894.000000;0.956568
9893.000000;0.954761
9892.000000;0.952349
9891.000000;0.949806
9890.000000;0.947828
9889.000000;0.946636
9888.000000;0.945793
9887.000000;0.944770
9886.000000;0.943434
9885.000000;0.941915
9884.000000;0.940326
9883.000000;0.938795
9882.000000;0.937550
9881.000000;0.936694
9880.000000;0.935980
9879.000000;0.935019
9878.000000;0.933678
9877.000000;0.932169
9876.000000;0.930824
9875.000000;0.929890
9874.000000;0.929401
9873.000000;0.929062
9872.000000;0.928323
9871.000000;0.926781
9870.000000;0.924553
9869.000000;0.922122
9868.000000;0.919820
9867.000000;0.917630
9866.000000;0.915496
9865.000000;0.913593
9864.000000;0.912144
9863.000000;0.911063
9862.000000;0.909987
9861.000000;0.908669
9860.000000;0.907227
9859.000000;0.905964
9858.000000;0.905025
9857.000000;0.904252
9856.000000;0.903313
9855.000000;0.901918
9854.000000;0.899992
9853.000000;0.897716
9852.000000;0.895381
9851.000000;0.893195
9850.000000;0.891230
9849.000000;0.889523
9848.000000;0.888126
9847.000000;0.887022
9846.000000;0.886066
9845.000000;0.885078
9844.000000;0.883924
9843.000000;0.882501
9842.000000;0.880787
9841.000000;0.878987
9840.000000;0.877443
9839.000000;0.876235
9838.000000;0.874973
9837.000000;0.873236
9836.000000;0.871130
9835.000000;0.869149
9834.000000;0.867516
9833.000000;0.865979
9832.000000;0.864333
9831.000000;0.862800
9830.000000;0.861694
9829.000000;0.860924
9828.000000;0.860064
9827.000000;0.858836
9826.000000;0.857320
9825.000000;0.855766
9824.000000;0.854367
9823.000000;0.853188
9822.000000;0.852125
9821.000000;0.850938
9820.000000;0.849393
9819.000000;0.847394
9818.000000;0.844981
9817.000000;0.842306
9816.000000;0.839675
9815.000000;0.837463
9814.000000;0.835814
9813.000000;0.834501
9812.000000;0.833202
9811.000000;0.831847
9810.000000;0.830598
9809.000000;0.829578
9808.000000;0.828713
9807.000000;0.827762
9806.000000;0.826363
9805.000000;0.824171
9804.000000;0.821216
9803.000000;0.818129
9802.000000;0.815749
9801.000000;0.814427
9800.000000;0.813810
9799.000000;0.813300
9798.000000;0.812551
9797.000000;0.811469
9796.000000;0.809969
9795.000000;0.807998
9794.000000;0.805765
9793.000000;0.803733
9792.000000;0.802241
9791.000000;0.801185
9790.000000;0.800118
9789.000000;0.798660
9788.000000;0.796760
9787.000000;0.794603
9786.000000;0.792405
9785.000000;0.790326
9784.000000;0.788467
9783.000000;0.786777
9782.000000;0.785015
9781.000000;0.782992
9780.000000;0.780909
9779.000000;0.779300
9778.000000;0.778507
9777.000000;0.778272
9776.000000;0.777914
9775.000000;0.776884
9774.000000;0.775089
9773.000000;0.772796
9772.000000;0.770376
9771.000000;0.768142
9770.000000;0.766269
9769.000000;0.764714
9768.000000;0.763203
9767.000000;0.761380
9766.000000;0.759076
9765.000000;0.756498
9764.000000;0.754128
9763.000000;0.752377
9762.000000;0.751284
9761.000000;0.750553
9760.000000;0.749803
9759.000000;0.748758
9758.000000;0.747277
9757.000000;0.745344
9756.000000;0.743110
9755.000000;0.740862
9754.000000;0.738875
9753.000000;0.737237
9752.000000;0.735779
9751.000000;0.734177
9750.000000;0.732210
9749.000000;0.729974
9748.000000;0.727805
9747.000000;0.725912
9746.000000;0.724186
9745.000000;0.722455
9744.000000;0.720788
9743.000000;0.719358
9742.000000;0.718048
9741.000000;0.716474
9740.000000;0.714467
9739.000000;0.712343
9738.000000;0.710564
9737.000000;0.709226
9736.000000;0.707982
9735.000000;0.706423
9734.000000;0.704485
9733.000000;0.702480
9732.000000;0.700718
9731.000000;0.699093
9730.000000;0.697182
9729.000000;0.694810
9728.000000;0.692385
9727.000000;0.690434
9726.000000;0.688933
9725.000000;0.687382
9724.000000;0.685503
9723.000000;0.683522
9722.000000;0.681665
9721.000000;0.679744
9720.000000;0.677464
9719.000000;0.674941
9718.000000;0.672655
9717.000000;0.670978
9716.000000;0.669856
9715.000000;0.668854
9714.000000;0.667422
9713.000000;0.665300
9712.000000;0.662777
9711.000000;0.660419
9710.000000;0.658448
9709.000000;0.656553
9708.000000;0.654432
9707.000000;0.652287
9706.000000;0.650564
9705.000000;0.649324
9704.000000;0.648115
9703.000000;0.646427
9702.000000;0.644101
9701.000000;0.641383
9700.000000;0.638732
9699.000000;0.636536
9698.000000;0.634834
9697.000000;0.633288
9696.000000;0.631555
9695.000000;0.629625
9694.000000;0.627700
9693.000000;0.625857
9692.000000;0.623994
9691.000000;0.622060
9690.000000;0.620154
9689.000000;0.618363
9688.000000;0.616649
9687.000000;0.614891
9686.000000;0.612969
9685.000000;0.610813
9684.000000;0.608467
9683.000000;0.606075
9682.000000;0.603743
9681.000000;0.601446
9680.000000;0.599151
9679.000000;0.596962
9678.000000;0.595045
9677.000000;0.593444
9676.000000;0.592030
9675.000000;0.590544
9674.000000;0.588660
9673.000000;0.586167
9672.000000;0.583250
9671.000000;0.580468
9670.000000;0.578258
9669.000000;0.576510
9668.000000;0.574779
9667.000000;0.572826
9666.000000;0.570770
9665.000000;0.568771
9664.000000;0.566827
9663.000000;0.564916
9662.000000;0.563086
9661.000000;0.561310
9660.000000;0.559429
9659.000000;0.557347
9658.000000;0.555160
9657.000000;0.552997
9656.000000;0.550817
9655.000000;0.548490
9654.000000;0.546002
9653.000000;0.543486
9652.000000;0.541057
9651.000000;0.538722
9650.000000;0.536445
9649.000000;0.534246
9648.000000;0.532212
9647.000000;0.530394
9646.000000;0.528714
9645.000000;0.526975
9644.000000;0.525000
9643.000000;0.522744
9642.000000;0.520287
9641.000000;0.517753
9640.000000;0.515258
9639.000000;0.512869
9638.000000;0.510573
9637.000000;0.508313
9636.000000;0.506083
9635.000000;0.503949
9634.000000;0.501929
9633.000000;0.499882
9632.000000;0.497601
9631.000000;0.495007
9630.000000;0.492229
9629.000000;0.489530
9628.000000;0.487143
9627.000000;0.485125
9626.000000;0.483287
9625.000000;0.481316
9624.000000;0.479054
9623.000000;0.476667
9622.000000;0.474439
9621.000000;0.472428
9620.000000;0.470391
9619.000000;0.468096
9618.000000;0.465612
9617.000000;0.463233
9616.000000;0.461154
9615.000000;0.459310
9614.000000;0.457522
9613.000000;0.455694
9612.000000;0.453772
9611.000000;0.451601
9610.000000;0.449010
9609.000000;0.446108
9608.000000;0.443311
9607.000000;0.440950
9606.000000;0.438944
9605.000000;0.437016
9604.000000;0.435098
9603.000000;0.433274
9602.000000;0.431364
9601.000000;0.428926
9600.000000;0.425842
9599.000000;0.422632
9598.000000;0.419955
9597.000000;0.417906
9596.000000;0.416015
9595.000000;0.413842
9594.000000;0.411364
9593.000000;0.408836
9592.000000;0.406491
9591.000000;0.404426
9590.000000;0.402569
9589.000000;0.400648
9588.000000;0.398324
9587.000000;0.395495
9586.000000;0.392448
9585.000000;0.389608
9584.000000;0.387166
9583.000000;0.385007
9582.000000;0.382912
9581.000000;0.380734
9580.000000;0.378383
9579.000000;0.375815
9578.000000;0.373145
9577.000000;0.370674
9576.000000;0.368633
9575.000000;0.366881
9574.000000;0.364996
9573.000000;0.362721
9572.000000;0.360225
9571.000000;0.357822
9570.000000;0.355582
9569.000000;0.353317
9568.000000;0.350898
9567.000000;0.348415
9566.000000;0.346044
9565.000000;0.343872
9564.000000;0.341848
9563.000000;0.339824
9562.000000;0.337650
9561.000000;0.335298
9560.000000;0.332882
9559.000000;0.330495
9558.000000;0.328085
9557.000000;0.325592
9556.000000;0.323130
9555.000000;0.320889
9554.000000;0.318887
9553.000000;0.316962
9552.000000;0.314948
9551.000000;0.312714
9550.000000;0.310063
9549.000000;0.306872
9548.000000;0.303378
9547.000000;0.300134
9546.000000;0.297549
9545.000000;0.295580
9544.000000;0.293914
9543.000000;0.292280
9542.000000;0.290515
9541.000000;0.288537
9540.000000;0.286412
9539.000000;0.284337
9538.000000;0.282403
9537.000000;0.280439
9536.000000;0.278212
9535.000000;0.275752
9534.000000;0.273346
9533.000000;0.271218
9532.000000;0.269295
9531.000000;0.267300
9530.000000;0.265058
9529.000000;0.262690
9528.000000;0.260452
9527.000000;0.258382
9526.000000;0.256210
9525.000000;0.253748
9524.000000;0.251235
9523.000000;0.249088
9522.000000;0.247362
9521.000000;0.245707
9520.000000;0.243870
9519.000000;0.241962
9518.000000;0.240164
9517.000000;0.238459
9516.000000;0.236814
9515.000000;0.235310
9514.000000;0.233893
9513.000000;0.232181
9512.000000;0.229834
9511.000000;0.227011
9510.000000;0.224213
9509.000000;0.221758
9508.000000;0.219638
9507.000000;0.217791
9506.000000;0.216217
9505.000000;0.214799
9504.000000;0.213244
9503.000000;0.211339
9502.000000;0.209192
9501.000000;0.207157
9500.000000;0.205542
9499.000000;0.204384
9498.000000;0.203425
9497.000000;0.202325
9496.000000;0.200943
9495.000000;0.199410
9494.000000;0.197914
9493.000000;0.196520
9492.000000;0.195216
9491.000000;0.193983
9490.000000;0.192725
9489.000000;0.191263
9488.000000;0.189599
9487.000000;0.188062
9486.000000;0.186980
9485.000000;0.186222
9484.000000;0.185279
9483.000000;0.183829
9482.000000;0.182083
9481.000000;0.180542
9480.000000;0.179520
9479.000000;0.178903
9478.000000;0.178260
9477.000000;0.177184
9476.000000;0.175635
9475.000000;0.173993
9474.000000;0.172698
9473.000000;0.171842
9472.000000;0.171180
9471.000000;0.170484
9470.000000;0.169739
9469.000000;0.168976
9468.000000;0.168089
9467.000000;0.166919
9466.000000;0.165468
9465.000000;0.163973
9464.000000;0.162780
9463.000000;0.162142
9462.000000;0.162025
9461.000000;0.162097
9460.000000;0.161963
9459.000000;0.161447
9458.000000;0.160625
9457.000000;0.159633
9456.000000;0.158578
9455.000000;0.157646
9454.000000;0.157103
9453.000000;0.157074
9452.000000;0.157345
9451.000000;0.157526
9450.000000;0.157398
9449.000000;0.157084
9448.000000;0.156888
9447.000000;0.157011
9446.000000;0.157386
9445.000000;0.157741
9444.000000;0.157774
9443.000000;0.157349
9442.000000;0.156560
9441.000000;0.155675
9440.000000;0.154991
9439.000000;0.154676
9438.000000;0.154705
9437.000000;0.154945
9436.000000;0.155301
9435.000000;0.155753
9434.000000;0.156282
9433.000000;0.156810
9432.000000;0.157256
9431.000000;0.157592
9430.000000;0.157812
9429.000000;0.157885
9428.000000;0.157801
9427.000000;0.157648
9426.000000;0.157601
9425.000000;0.157812
9424.000000;0.158312
9423.000000;0.158993
9422.000000;0.159688
9421.000000;0.160301
9420.000000;0.160867
9419.000000;0.161428
9418.000000;0.161903
9417.000000;0.162171
9416.000000;0.162276
9415.000000;0.162436
9414.000000;0.162817
9413.000000;0.163415
9412.000000;0.164182
9411.000000;0.165131
9410.000000;0.166219
9409.000000;0.167250
9408.000000;0.168032
9407.000000;0.168583
9406.000000;0.169076
9405.000000;0.169617
9404.000000;0.170193
9403.000000;0.170770
9402.000000;0.171360
9401.000000;0.172010
9400.000000;0.172798
9399.000000;0.173778
9398.000000;0.174865
9397.000000;0.175854
9396.000000;0.176668
9395.000000;0.177509
9394.000000;0.178630
9393.000000;0.180011
9392.000000;0.181394
9391.000000;0.182601
9390.000000;0.183664
9389.000000;0.184657
9388.000000;0.185571
9387.000000;0.186380
9386.000000;0.187116
9385.000000;0.187822
9384.000000;0.188533
9383.000000;0.189327
9382.000000;0.190282
9381.000000;0.191336
9380.000000;0.192293
9379.000000;0.193032
9378.000000;0.193687
9377.000000;0.194546
9376.000000;0.195781
9375.000000;0.197282
9374.000000;0.198724
9373.000000;0.199830
9372.000000;0.200605
9371.000000;0.201320
9370.000000;0.202224
9369.000000;0.203312
9368.000000;0.204419
9367.000000;0.205487
9366.000000;0.206634
9365.000000;0.207970
9364.000000;0.209439
9363.000000;0.210887
9362.000000;0.212217
9361.000000;0.213459
9360.000000;0.214724
9359.000000;0.216087
9358.000000;0.217498
9357.000000;0.218805
9356.000000;0.219913
9355.000000;0.220894
9354.000000;0.221886
9353.000000;0.222933
9352.000000;0.224014
9351.000000;0.225168
9350.000000;0.226436
9349.000000;0.227682
9348.000000;0.228685
9347.000000;0.229467
9346.000000;0.230377
9345.000000;0.231685
9344.000000;0.233202
9343.000000;0.234494
9342.000000;0.235438
9341.000000;0.236363
9340.000000;0.237606
9339.000000;0.239113
9338.000000;0.240589
9337.000000;0.241908
9336.000000;0.243178
9335.000000;0.244414
9334.000000;0.245404
9333.000000;0.246008
9332.000000;0.246475
9331.000000;0.247269
9330.000000;0.248587
9329.000000;0.250176
9328.000000;0.251635
9327.000000;0.252806
9326.000000;0.253811
9325.000000;0.254815
9324.000000;0.255876
9323.000000;0.256969
9322.000000;0.258060
9321.000000;0.259125
9320.000000;0.260160
9319.000000;0.261199
9318.000000;0.262303
9317.000000;0.263516
9316.000000;0.264819
9315.000000;0.266121
9314.000000;0.267295
9313.000000;0.268254
9312.000000;0.269022
9311.000000;0.269747
9310.000000;0.270632
9309.000000;0.271823
9308.000000;0.273290
9307.000000;0.274805
9306.000000;0.276090
9305.000000;0.277073
9304.000000;0.277956
9303.000000;0.278966
9302.000000;0.280078
9301.000000;0.281103
9300.000000;0.282014
9299.000000;0.283040
9298.000000;0.284374
9297.000000;0.285921
9296.000000;0.287435
9295.000000;0.288802
9294.000000;0.290080
9293.000000;0.291330
9292.000000;0.292505
9291.000000;0.293530
9290.000000;0.294379
9289.000000;0.295082
9288.000000;0.295738
9287.000000;0.296513
9286.000000;0.297567
9285.000000;0.298919
9284.000000;0.300442
9283.000000;0.301994
9282.000000;0.303516
9281.000000;0.304960
9280.000000;0.306172
9279.000000;0.306961
9278.000000;0.307323
9277.000000;0.307559
9276.000000;0.308051
9275.000000;0.308928
9274.000000;0.309998
9273.000000;0.311014
9272.000000;0.311914
9271.000000;0.312794
9270.000000;0.313764
9269.000000;0.314884
9268.000000;0.316128
9267.000000;0.317322
9266.000000;0.318229
9265.000000;0.318838
9264.000000;0.319485
9263.000000;0.320506
9262.000000;0.321840
9261.000000;0.323132
9260.000000;0.324168
9259.000000;0.325010
9258.000000;0.325743
9257.000000;0.326356
9256.000000;0.326910
9255.000000;0.327590
9254.000000;0.328474
9253.000000;0.329456
9252.000000;0.330473
9251.000000;0.331616
9250.000000;0.332878
9249.000000;0.334014
9248.000000;0.334830
9247.000000;0.335450
9246.000000;0.336107
9245.000000;0.336783
9244.000000;0.337299
9243.000000;0.337699
9242.000000;0.338331
9241.000000;0.339496
9240.000000;0.341132
9239.000000;0.342859
9238.000000;0.344249
9237.000000;0.345090
9236.000000;0.345498
9235.000000;0.345792
9234.000000;0.346238
9233.000000;0.346916
9232.000000;0.347812
9231.000000;0.348908
9230.000000;0.350124
9229.000000;0.351282
9228.000000;0.352268
9227.000000;0.353119
9226.000000;0.353880
9225.000000;0.354465
9224.000000;0.354831
9223.000000;0.355189
9222.000000;0.355833
9221.000000;0.356784
9220.000000;0.357779
9219.000000;0.358601
9218.000000;0.359275
9217.000000;0.359881
9216.000000;0.360390
9215.000000;0.360781
9214.000000;0.361218
9213.000000;0.361936
9212.000000;0.362983
9211.000000;0.364136
9210.000000;0.365113
9209.000000;0.365845
9208.000000;0.366526
9207.000000;0.367390
9206.000000;0.368443
9205.000000;0.369458
9204.000000;0.370241
9203.000000;0.370841
9202.000000;0.371460
9201.000000;0.372197
9200.000000;0.372961
9199.000000;0.373617
9198.000000;0.374148
9197.000000;0.374654
9196.000000;0.375252
9195.000000;0.375970
9194.000000;0.376727
9193.000000;0.377410
9192.000000;0.378005
9191.000000;0.378621
9190.000000;0.379376
9189.000000;0.380260
9188.000000;0.381139
9187.000000;0.381902
9186.000000;0.382578
9185.000000;0.383322
9184.000000;0.384245
9183.000000;0.385256
9182.000000;0.386094
9181.000000;0.386597
9180.000000;0.386887
9179.000000;0.387217
9178.000000;0.387668
9177.000000;0.388118
9176.000000;0.388506
9175.000000;0.388969
9174.000000;0.389638
9173.000000;0.390451
9172.000000;0.391264
9171.000000;0.392037
9170.000000;0.392801
9169.000000;0.393512
9168.000000;0.394072
9167.000000;0.394472
9166.000000;0.394811
9165.000000;0.395191
9164.000000;0.395668
9163.000000;0.396272
9162.000000;0.396979
9161.000000;0.397689
9160.000000;0.398300
9159.000000;0.398811
9158.000000;0.399297
9157.000000;0.399785
9156.000000;0.400214
9155.000000;0.400518
9154.000000;0.400730
9153.000000;0.400990
9152.000000;0.401453
9151.000000;0.402125
9150.000000;0.402817
9149.000000;0.403352
9148.000000;0.403789
9147.000000;0.404356
9146.000000;0.405122
9145.000000;0.405880
9144.000000;0.406431
9143.000000;0.406857
9142.000000;0.407397
9141.000000;0.408166
9140.000000;0.409089
9139.000000;0.410015
9138.000000;0.410780
9137.000000;0.411241
9136.000000;0.411405
9135.000000;0.411491
9134.000000;0.411749
9133.000000;0.412227
9132.000000;0.412809
9131.000000;0.413388
9130.000000;0.413894
9129.000000;0.414229
9128.000000;0.414360
9127.000000;0.414457
9126.000000;0.414750
9125.000000;0.415261
9124.000000;0.415817
9123.000000;0.416335
9122.000000;0.416920
9121.000000;0.417626
9120.000000;0.418296
9119.000000;0.418743
9118.000000;0.418987
9117.000000;0.419201
9116.000000;0.419476
9115.000000;0.419772
9114.000000;0.420065
9113.000000;0.420408
9112.000000;0.420818
9111.000000;0.421203
9110.000000;0.421487
9109.000000;0.421762
9108.000000;0.422221
9107.000000;0.422898
9106.000000;0.423572
9105.000000;0.424016
9104.000000;0.424290
9103.000000;0.424653
9102.000000;0.425223
9101.000000;0.425856
9100.000000;0.426386
9099.000000;0.426816
9098.000000;0.427206
9097.000000;0.427531
9096.000000;0.427767
9095.000000;0.428012
9094.000000;0.428377
9093.000000;0.428821
9092.000000;0.429238
9091.000000;0.429622
9090.000000;0.430021
9089.000000;0.430384
9088.000000;0.430617
9087.000000;0.430779
9086.000000;0.431048
9085.000000;0.431495
9084.000000;0.432007
9083.000000;0.432453
9082.000000;0.432794
9081.000000;0.433040
9080.000000;0.433197
9079.000000;0.433304
9078.000000;0.433429
9077.000000;0.433600
9076.000000;0.433810
9075.000000;0.434094
9074.000000;0.434499
9073.000000;0.434974
9072.000000;0.435395
9071.000000;0.435726
9070.000000;0.436064
9069.000000;0.436503
9068.000000;0.437043
9067.000000;0.437642
9066.000000;0.438243
9065.000000;0.438740
9064.000000;0.439037
9063.000000;0.439200
9062.000000;0.439428
9061.000000;0.439796
9060.000000;0.440132
9059.000000;0.440242
9058.000000;0.440202
9057.000000;0.440280
9056.000000;0.440617
9055.000000;0.441096
9054.000000;0.441515
9053.000000;0.441789
