Criado como novo conjunto de dados;"0307_DANIEL.spp","30423.6 Secs"
cm-1;Abs
10000.000000;1.174404
9999.000000;1.173013
9998.000000;1.171874
9997.000000;1.170801
9996.000000;1.169682
9995.000000;1.168525
9994.000000;1.167312
9993.000000;1.166181
9992.000000;1.165364
9991.000000;1.164888
9990.000000;1.164314
9989.000000;1.163096
9988.000000;1.161210
9987.000000;1.159260
9986.000000;1.157895
9985.000000;1.157234
9984.000000;1.156859
9983.000000;1.156177
9982.000000;1.154797
9981.000000;1.152795
9980.000000;1.150741
9979.000000;1.149335
9978.000000;1.148797
9977.000000;1.148624
9976.000000;1.148058
9975.000000;1.146784
9974.000000;1.145096
9973.000000;1.143462
9972.000000;1.142078
9971.000000;1.140864
9970.000000;1.139691
9969.000000;1.138454
9968.000000;1.137011
9967.000000;1.135274
9966.000000;1.133479
9965.000000;1.132175
9964.000000;1.131727
9963.000000;1.131800
9962.000000;1.131551
9961.000000;1.130447
9960.000000;1.128736
9959.000000;1.127031
9958.000000;1.125627
9957.000000;1.124405
9956.000000;1.123194
9955.000000;1.121968
9954.000000;1.120749
9953.000000;1.119533
9952.000000;1.118310
9951.000000;1.116994
9950.000000;1.115457
9949.000000;1.113801
9948.000000;1.112419
9947.000000;1.111492
9946.000000;1.110578
9945.000000;1.109114
9944.000000;1.107268
9943.000000;1.105786
9942.000000;1.104943
9941.000000;1.104190
9940.000000;1.103022
9939.000000;1.101654
9938.000000;1.100461
9937.000000;1.099213
9936.000000;1.097405
9935.000000;1.095122
9934.000000;1.093066
9933.000000;1.091760
9932.000000;1.091092
9931.000000;1.090622
9930.000000;1.089999
9929.000000;1.089036
9928.000000;1.087681
9927.000000;1.086033
9926.000000;1.084276
9925.000000;1.082590
9924.000000;1.081170
9923.000000;1.080159
9922.000000;1.079358
9921.000000;1.078192
9920.000000;1.076283
9919.000000;1.073973
9918.000000;1.072010
9917.000000;1.070777
9916.000000;1.070054
9915.000000;1.069416
9914.000000;1.068562
9913.000000;1.067352
9912.000000;1.065878
9911.000000;1.064517
9910.000000;1.063553
9909.000000;1.062731
9908.000000;1.061503
9907.000000;1.059799
9906.000000;1.058172
9905.000000;1.057069
9904.000000;1.056274
9903.000000;1.055252
9902.000000;1.053765
9901.000000;1.051961
9900.000000;1.050082
9899.000000;1.048337
9898.000000;1.046874
9897.000000;1.045642
9896.000000;1.044375
9895.000000;1.042918
9894.000000;1.041490
9893.000000;1.040434
9892.000000;1.039745
9891.000000;1.039004
9890.000000;1.037799
9889.000000;1.036117
9888.000000;1.034343
9887.000000;1.032935
9886.000000;1.032040
9885.000000;1.031374
9884.000000;1.030521
9883.000000;1.029358
9882.000000;1.028073
9881.000000;1.026761
9880.000000;1.025213
9879.000000;1.023217
9878.000000;1.020909
9877.000000;1.018694
9876.000000;1.016882
9875.000000;1.015538
9874.000000;1.014556
9873.000000;1.013706
9872.000000;1.012641
9871.000000;1.011046
9870.000000;1.008919
9869.000000;1.006648
9868.000000;1.004770
9867.000000;1.003583
9866.000000;1.002941
9865.000000;1.002399
9864.000000;1.001577
9863.000000;1.000389
9862.000000;0.998883
9861.000000;0.997013
9860.000000;0.994755
9859.000000;0.992390
9858.000000;0.990389
9857.000000;0.988902
9856.000000;0.987594
9855.000000;0.986096
9854.000000;0.984424
9853.000000;0.982781
9852.000000;0.981153
9851.000000;0.979415
9850.000000;0.977709
9849.000000;0.976400
9848.000000;0.975602
9847.000000;0.975000
9846.000000;0.974197
9845.000000;0.973079
9844.000000;0.971739
9843.000000;0.970226
9842.000000;0.968515
9841.000000;0.966646
9840.000000;0.964762
9839.000000;0.963007
9838.000000;0.961447
9837.000000;0.960071
9836.000000;0.958859
9835.000000;0.957816
9834.000000;0.956910
9833.000000;0.955987
9832.000000;0.954778
9831.000000;0.953074
9830.000000;0.950933
9829.000000;0.948679
9828.000000;0.946708
9827.000000;0.945241
9826.000000;0.944181
9825.000000;0.943110
9824.000000;0.941567
9823.000000;0.939479
9822.000000;0.937309
9821.000000;0.935579
9820.000000;0.934275
9819.000000;0.932886
9818.000000;0.931093
9817.000000;0.929216
9816.000000;0.927782
9815.000000;0.926824
9814.000000;0.925825
9813.000000;0.924352
9812.000000;0.922530
9811.000000;0.920792
9810.000000;0.919326
9809.000000;0.917902
9808.000000;0.916190
9807.000000;0.914164
9806.000000;0.912164
9805.000000;0.910592
9804.000000;0.909517
9803.000000;0.908559
9802.000000;0.907213
9801.000000;0.905318
9800.000000;0.903175
9799.000000;0.901170
9798.000000;0.899406
9797.000000;0.897750
9796.000000;0.896136
9795.000000;0.894635
9794.000000;0.893261
9793.000000;0.891865
9792.000000;0.890322
9791.000000;0.888694
9790.000000;0.887130
9789.000000;0.885639
9788.000000;0.884066
9787.000000;0.882278
9786.000000;0.880336
9785.000000;0.878476
9784.000000;0.876928
9783.000000;0.875698
9782.000000;0.874525
9781.000000;0.873082
9780.000000;0.871242
9779.000000;0.869106
9778.000000;0.866816
9777.000000;0.864477
9776.000000;0.862274
9775.000000;0.860478
9774.000000;0.859199
9773.000000;0.858213
9772.000000;0.857149
9771.000000;0.855820
9770.000000;0.854281
9769.000000;0.852652
9768.000000;0.850995
9767.000000;0.849329
9766.000000;0.847618
9765.000000;0.845757
9764.000000;0.843697
9763.000000;0.841587
9762.000000;0.839685
9761.000000;0.838085
9760.000000;0.836614
9759.000000;0.835022
9758.000000;0.833215
9757.000000;0.831294
9756.000000;0.829431
9755.000000;0.827684
9754.000000;0.825918
9753.000000;0.823942
9752.000000;0.821745
9751.000000;0.819539
9750.000000;0.817494
9749.000000;0.815550
9748.000000;0.813608
9747.000000;0.811753
9746.000000;0.810109
9745.000000;0.808526
9744.000000;0.806697
9743.000000;0.804579
9742.000000;0.802456
9741.000000;0.800554
9740.000000;0.798828
9739.000000;0.797214
9738.000000;0.795826
9737.000000;0.794734
9736.000000;0.793712
9735.000000;0.792404
9734.000000;0.790662
9733.000000;0.788572
9732.000000;0.786271
9731.000000;0.783915
9730.000000;0.781715
9729.000000;0.779806
9728.000000;0.778078
9727.000000;0.776301
9726.000000;0.774401
9725.000000;0.772467
9724.000000;0.770561
9723.000000;0.768667
9722.000000;0.766827
9721.000000;0.765158
9720.000000;0.763680
9719.000000;0.762274
9718.000000;0.760864
9717.000000;0.759489
9716.000000;0.758114
9715.000000;0.756492
9714.000000;0.754388
9713.000000;0.751925
9712.000000;0.749579
9711.000000;0.747739
9710.000000;0.746269
9709.000000;0.744569
9708.000000;0.742161
9707.000000;0.739206
9706.000000;0.736379
9705.000000;0.734204
9704.000000;0.732556
9703.000000;0.730872
9702.000000;0.728805
9701.000000;0.726592
9700.000000;0.724771
9699.000000;0.723587
9698.000000;0.722733
9697.000000;0.721624
9696.000000;0.719905
9695.000000;0.717641
9694.000000;0.715058
9693.000000;0.712255
9692.000000;0.709308
9691.000000;0.706546
9690.000000;0.704450
9689.000000;0.703150
9688.000000;0.702179
9687.000000;0.700867
9686.000000;0.698924
9685.000000;0.696526
9684.000000;0.693986
9683.000000;0.691523
9682.000000;0.689289
9681.000000;0.687321
9680.000000;0.685424
9679.000000;0.683291
9678.000000;0.680847
9677.000000;0.678378
9676.000000;0.676228
9675.000000;0.674442
9674.000000;0.672790
9673.000000;0.671051
9672.000000;0.669188
9671.000000;0.667289
9670.000000;0.665413
9669.000000;0.663548
9668.000000;0.661669
9667.000000;0.659807
9666.000000;0.657975
9665.000000;0.656060
9664.000000;0.653896
9663.000000;0.651510
9662.000000;0.649171
9661.000000;0.647058
9660.000000;0.644968
9659.000000;0.642514
9658.000000;0.639606
9657.000000;0.636557
9656.000000;0.633715
9655.000000;0.631219
9654.000000;0.629109
9653.000000;0.627413
9652.000000;0.625979
9651.000000;0.624445
9650.000000;0.622577
9649.000000;0.620513
9648.000000;0.618466
9647.000000;0.616336
9646.000000;0.613863
9645.000000;0.611137
9644.000000;0.608674
9643.000000;0.606881
9642.000000;0.605581
9641.000000;0.604171
9640.000000;0.602169
9639.000000;0.599572
9638.000000;0.596766
9637.000000;0.594162
9636.000000;0.591903
9635.000000;0.589855
9634.000000;0.587870
9633.000000;0.585963
9632.000000;0.584197
9631.000000;0.582466
9630.000000;0.580524
9629.000000;0.578207
9628.000000;0.575530
9627.000000;0.572618
9626.000000;0.569673
9625.000000;0.566993
9624.000000;0.564817
9623.000000;0.563091
9622.000000;0.561465
9621.000000;0.559590
9620.000000;0.557342
9619.000000;0.554776
9618.000000;0.552053
9617.000000;0.549428
9616.000000;0.547146
9615.000000;0.545216
9614.000000;0.543384
9613.000000;0.541415
9612.000000;0.539290
9611.000000;0.537058
9610.000000;0.534663
9609.000000;0.532089
9608.000000;0.529510
9607.000000;0.527114
9606.000000;0.524835
9605.000000;0.522461
9604.000000;0.519930
9603.000000;0.517330
9602.000000;0.514664
9601.000000;0.511883
9600.000000;0.509144
9599.000000;0.506766
9598.000000;0.504808
9597.000000;0.502908
9596.000000;0.500706
9595.000000;0.498272
9594.000000;0.495971
9593.000000;0.494003
9592.000000;0.492238
9591.000000;0.490420
9590.000000;0.488368
9589.000000;0.486018
9588.000000;0.483444
9587.000000;0.480857
9586.000000;0.478454
9585.000000;0.476223
9584.000000;0.473982
9583.000000;0.471595
9582.000000;0.469078
9581.000000;0.466526
9580.000000;0.464073
9579.000000;0.461953
9578.000000;0.460353
9577.000000;0.459053
9576.000000;0.457372
9575.000000;0.454725
9574.000000;0.451297
9573.000000;0.447948
9572.000000;0.445365
9571.000000;0.443417
9570.000000;0.441400
9569.000000;0.438794
9568.000000;0.435698
9567.000000;0.432635
9566.000000;0.430062
9565.000000;0.428054
9564.000000;0.426293
9563.000000;0.424331
9562.000000;0.421978
9561.000000;0.419425
9560.000000;0.416973
9559.000000;0.414680
9558.000000;0.412390
9557.000000;0.410064
9556.000000;0.407856
9555.000000;0.405825
9554.000000;0.403727
9553.000000;0.401272
9552.000000;0.398480
9551.000000;0.395669
9550.000000;0.393130
9549.000000;0.390942
9548.000000;0.389029
9547.000000;0.387247
9546.000000;0.385426
9545.000000;0.383459
9544.000000;0.381401
9543.000000;0.379389
9542.000000;0.377454
9541.000000;0.375472
9540.000000;0.373315
9539.000000;0.370956
9538.000000;0.368411
9537.000000;0.365669
9536.000000;0.362759
9535.000000;0.359859
9534.000000;0.357243
9533.000000;0.355068
9532.000000;0.353192
9531.000000;0.351254
9530.000000;0.349032
9529.000000;0.346696
9528.000000;0.344588
9527.000000;0.342736
9526.000000;0.340746
9525.000000;0.338321
9524.000000;0.335714
9523.000000;0.333498
9522.000000;0.331925
9521.000000;0.330707
9520.000000;0.329367
9519.000000;0.327608
9518.000000;0.325370
9517.000000;0.322802
9516.000000;0.320290
9515.000000;0.318250
9514.000000;0.316736
9513.000000;0.315326
9512.000000;0.313570
9511.000000;0.311473
9510.000000;0.309430
9509.000000;0.307773
9508.000000;0.306483
9507.000000;0.305274
9506.000000;0.303835
9505.000000;0.302024
9504.000000;0.299943
9503.000000;0.297845
9502.000000;0.295929
9501.000000;0.294214
9500.000000;0.292567
9499.000000;0.290807
9498.000000;0.288770
9497.000000;0.286427
9496.000000;0.283992
9495.000000;0.281844
9494.000000;0.280249
9493.000000;0.279200
9492.000000;0.278525
9491.000000;0.278027
9490.000000;0.277467
9489.000000;0.276603
9488.000000;0.275400
9487.000000;0.274106
9486.000000;0.272980
9485.000000;0.271973
9484.000000;0.270815
9483.000000;0.269353
9482.000000;0.267666
9481.000000;0.265908
9480.000000;0.264194
9479.000000;0.262641
9478.000000;0.261366
9477.000000;0.260387
9476.000000;0.259597
9475.000000;0.258867
9474.000000;0.258117
9473.000000;0.257297
9472.000000;0.256398
9471.000000;0.255474
9470.000000;0.254581
9469.000000;0.253684
9468.000000;0.252663
9467.000000;0.251449
9466.000000;0.250113
9465.000000;0.248840
9464.000000;0.247836
9463.000000;0.247208
9462.000000;0.246887
9461.000000;0.246688
9460.000000;0.246458
9459.000000;0.246129
9458.000000;0.245656
9457.000000;0.245014
9456.000000;0.244310
9455.000000;0.243747
9454.000000;0.243385
9453.000000;0.243079
9452.000000;0.242737
9451.000000;0.242504
9450.000000;0.242515
9449.000000;0.242611
9448.000000;0.242527
9447.000000;0.242267
9446.000000;0.242051
9445.000000;0.241954
9444.000000;0.241863
9443.000000;0.241756
9442.000000;0.241721
9441.000000;0.241697
9440.000000;0.241497
9439.000000;0.241165
9438.000000;0.241006
9437.000000;0.241110
9436.000000;0.241128
9435.000000;0.240749
9434.000000;0.240195
9433.000000;0.239961
9432.000000;0.240157
9431.000000;0.240402
9430.000000;0.240358
9429.000000;0.240186
9428.000000;0.240381
9427.000000;0.241244
9426.000000;0.242556
9425.000000;0.243736
9424.000000;0.244314
9423.000000;0.244284
9422.000000;0.244016
9421.000000;0.243914
9420.000000;0.244197
9419.000000;0.244904
9418.000000;0.245893
9417.000000;0.246836
9416.000000;0.247439
9415.000000;0.247751
9414.000000;0.248109
9413.000000;0.248723
9412.000000;0.249488
9411.000000;0.250287
9410.000000;0.251218
9409.000000;0.252343
9408.000000;0.253416
9407.000000;0.254128
9406.000000;0.254548
9405.000000;0.255045
9404.000000;0.255803
9403.000000;0.256629
9402.000000;0.257280
9401.000000;0.257767
9400.000000;0.258281
9399.000000;0.258985
9398.000000;0.259916
9397.000000;0.260978
9396.000000;0.261982
9395.000000;0.262764
9394.000000;0.263327
9393.000000;0.263817
9392.000000;0.264356
9391.000000;0.264982
9390.000000;0.265706
9389.000000;0.266544
9388.000000;0.267486
9387.000000;0.268541
9386.000000;0.269800
9385.000000;0.271354
9384.000000;0.273077
9383.000000;0.274611
9382.000000;0.275643
9381.000000;0.276225
9380.000000;0.276767
9379.000000;0.277659
9378.000000;0.278902
9377.000000;0.280127
9376.000000;0.281032
9375.000000;0.281757
9374.000000;0.282714
9373.000000;0.284051
9372.000000;0.285470
9371.000000;0.286650
9370.000000;0.287665
9369.000000;0.288796
9368.000000;0.290079
9367.000000;0.291308
9366.000000;0.292421
9365.000000;0.293587
9364.000000;0.294884
9363.000000;0.296133
9362.000000;0.297177
9361.000000;0.298094
9360.000000;0.299018
9359.000000;0.299912
9358.000000;0.300683
9357.000000;0.301397
9356.000000;0.302229
9355.000000;0.303279
9354.000000;0.304574
9353.000000;0.306124
9352.000000;0.307816
9351.000000;0.309358
9350.000000;0.310498
9349.000000;0.311306
9348.000000;0.312094
9347.000000;0.313080
9346.000000;0.314293
9345.000000;0.315738
9344.000000;0.317441
9343.000000;0.319255
9342.000000;0.320827
9341.000000;0.321909
9340.000000;0.322623
9339.000000;0.323343
9338.000000;0.324358
9337.000000;0.325674
9336.000000;0.327058
9335.000000;0.328224
9334.000000;0.329075
9333.000000;0.329839
9332.000000;0.330884
9331.000000;0.332317
9330.000000;0.333853
9329.000000;0.335152
9328.000000;0.336204
9327.000000;0.337286
9326.000000;0.338590
9325.000000;0.340015
9324.000000;0.341306
9323.000000;0.342312
9322.000000;0.343114
9321.000000;0.343961
9320.000000;0.345054
9319.000000;0.346332
9318.000000;0.347515
9317.000000;0.348439
9316.000000;0.349246
9315.000000;0.350180
9314.000000;0.351280
9313.000000;0.352454
9312.000000;0.353703
9311.000000;0.355070
9310.000000;0.356379
9309.000000;0.357329
9308.000000;0.357900
9307.000000;0.358439
9306.000000;0.359277
9305.000000;0.360445
9304.000000;0.361818
9303.000000;0.363302
9302.000000;0.364744
9301.000000;0.365905
9300.000000;0.366739
9299.000000;0.367537
9298.000000;0.368589
9297.000000;0.369828
9296.000000;0.370999
9295.000000;0.372035
9294.000000;0.373032
9293.000000;0.373974
9292.000000;0.374790
9291.000000;0.375628
9290.000000;0.376788
9289.000000;0.378317
9288.000000;0.379892
9287.000000;0.381176
9286.000000;0.382134
9285.000000;0.382968
9284.000000;0.383911
9283.000000;0.385096
9282.000000;0.386469
9281.000000;0.387776
9280.000000;0.388802
9279.000000;0.389635
9278.000000;0.390521
9277.000000;0.391495
9276.000000;0.392373
9275.000000;0.393133
9274.000000;0.394015
9273.000000;0.395145
9272.000000;0.396308
9271.000000;0.397258
9270.000000;0.398037
9269.000000;0.398801
9268.000000;0.399529
9267.000000;0.400142
9266.000000;0.400747
9265.000000;0.401540
9264.000000;0.402545
9263.000000;0.403686
9262.000000;0.405009
9261.000000;0.406587
9260.000000;0.408239
9259.000000;0.409586
9258.000000;0.410452
9257.000000;0.411043
9256.000000;0.411667
9255.000000;0.412434
9254.000000;0.413258
9253.000000;0.414053
9252.000000;0.414865
9251.000000;0.415873
9250.000000;0.417221
9249.000000;0.418750
9248.000000;0.419967
9247.000000;0.420465
9246.000000;0.420411
9245.000000;0.420425
9244.000000;0.420952
9243.000000;0.421905
9242.000000;0.422940
9241.000000;0.423896
9240.000000;0.424828
9239.000000;0.425786
9238.000000;0.426735
9237.000000;0.427666
9236.000000;0.428619
9235.000000;0.429604
9234.000000;0.430582
9233.000000;0.431508
9232.000000;0.432325
9231.000000;0.432995
9230.000000;0.433586
9229.000000;0.434273
9228.000000;0.435146
9227.000000;0.436041
9226.000000;0.436712
9225.000000;0.437175
9224.000000;0.437750
9223.000000;0.438711
9222.000000;0.439971
9221.000000;0.441164
9220.000000;0.441985
9219.000000;0.442409
9218.000000;0.442664
9217.000000;0.443060
9216.000000;0.443810
9215.000000;0.444894
9214.000000;0.446083
9213.000000;0.447121
9212.000000;0.447907
9211.000000;0.448519
9210.000000;0.449106
9209.000000;0.449789
9208.000000;0.450633
9207.000000;0.451610
9206.000000;0.452592
9205.000000;0.453448
9204.000000;0.454154
9203.000000;0.454772
9202.000000;0.455299
9201.000000;0.455659
9200.000000;0.455874
9199.000000;0.456173
9198.000000;0.456815
9197.000000;0.457821
9196.000000;0.458984
9195.000000;0.460100
9194.000000;0.461100
9193.000000;0.461966
9192.000000;0.462658
9191.000000;0.463201
9190.000000;0.463744
9189.000000;0.464402
9188.000000;0.465087
9187.000000;0.465601
9186.000000;0.465887
9185.000000;0.466110
9184.000000;0.466448
9183.000000;0.466907
9182.000000;0.467398
9181.000000;0.467924
9180.000000;0.468589
9179.000000;0.469432
9178.000000;0.470323
9177.000000;0.471078
9176.000000;0.471680
9175.000000;0.472312
9174.000000;0.473168
9173.000000;0.474228
9172.000000;0.475243
9171.000000;0.475960
9170.000000;0.476345
9169.000000;0.476598
9168.000000;0.476945
9167.000000;0.477459
9166.000000;0.478073
9165.000000;0.478705
9164.000000;0.479345
9163.000000;0.480013
9162.000000;0.480699
9161.000000;0.481345
9160.000000;0.481896
9159.000000;0.482351
9158.000000;0.482782
9157.000000;0.483273
9156.000000;0.483800
9155.000000;0.484230
9154.000000;0.484472
9153.000000;0.484635
9152.000000;0.484941
9151.000000;0.485483
9150.000000;0.486128
9149.000000;0.486690
9148.000000;0.487118
9147.000000;0.487482
9146.000000;0.487863
9145.000000;0.488340
9144.000000;0.488994
9143.000000;0.489796
9142.000000;0.490547
9141.000000;0.491052
9140.000000;0.491350
9139.000000;0.491651
9138.000000;0.492067
9137.000000;0.492550
9136.000000;0.493091
9135.000000;0.493801
9134.000000;0.494691
9133.000000;0.495526
9132.000000;0.496029
9131.000000;0.496192
9130.000000;0.496264
9129.000000;0.496486
9128.000000;0.496912
9127.000000;0.497437
9126.000000;0.497909
9125.000000;0.498209
9124.000000;0.498341
9123.000000;0.498450
9122.000000;0.498718
9121.000000;0.499245
9120.000000;0.500005
9119.000000;0.500878
9118.000000;0.501683
9117.000000;0.502260
9116.000000;0.502599
9115.000000;0.502847
9114.000000;0.503173
9113.000000;0.503642
9112.000000;0.504239
9111.000000;0.504907
9110.000000;0.505528
9109.000000;0.505967
9108.000000;0.506243
9107.000000;0.506571
9106.000000;0.507119
9105.000000;0.507792
9104.000000;0.508363
9103.000000;0.508774
9102.000000;0.509163
9101.000000;0.509647
9100.000000;0.510179
9099.000000;0.510620
9098.000000;0.510848
9097.000000;0.510838
9096.000000;0.510755
9095.000000;0.510893
9094.000000;0.511405
9093.000000;0.512112
9092.000000;0.512708
9091.000000;0.513111
9090.000000;0.513446
9089.000000;0.513742
9088.000000;0.513878
9087.000000;0.513852
9086.000000;0.513888
9085.000000;0.514152
9084.000000;0.514547
9083.000000;0.514884
9082.000000;0.515142
9081.000000;0.515432
9080.000000;0.515821
9079.000000;0.516302
9078.000000;0.516865
9077.000000;0.517465
9076.000000;0.517962
9075.000000;0.518207
9074.000000;0.518174
9073.000000;0.517958
9072.000000;0.517690
9071.000000;0.517521
9070.000000;0.517604
9069.000000;0.517999
9068.000000;0.518591
9067.000000;0.519172
9066.000000;0.519610
9065.000000;0.519927
9064.000000;0.520254
9063.000000;0.520707
9062.000000;0.521265
9061.000000;0.521730
9060.000000;0.521892
9059.000000;0.521760
9058.000000;0.521584
9057.000000;0.521616
9056.000000;0.521908
9055.000000;0.522383
9054.000000;0.522966
9053.000000;0.523585
