Criado como novo conjunto de dados;"0307_DANIEL.spp","1442.0 Secs"
cm-1;Abs
10000.000000;0.326947
9999.000000;0.325739
9998.000000;0.324535
9997.000000;0.323333
9996.000000;0.322138
9995.000000;0.320939
9994.000000;0.319767
9993.000000;0.318721
9992.000000;0.317804
9991.000000;0.316936
9990.000000;0.315942
9989.000000;0.314745
9988.000000;0.313447
9987.000000;0.312216
9986.000000;0.311130
9985.000000;0.310171
9984.000000;0.309295
9983.000000;0.308437
9982.000000;0.307506
9981.000000;0.306429
9980.000000;0.305215
9979.000000;0.303928
9978.000000;0.302622
9977.000000;0.301313
9976.000000;0.299989
9975.000000;0.298649
9974.000000;0.297339
9973.000000;0.296135
9972.000000;0.295076
9971.000000;0.294121
9970.000000;0.293206
9969.000000;0.292329
9968.000000;0.291500
9967.000000;0.290629
9966.000000;0.289554
9965.000000;0.288215
9964.000000;0.286745
9963.000000;0.285359
9962.000000;0.284175
9961.000000;0.283162
9960.000000;0.282207
9959.000000;0.281223
9958.000000;0.280213
9957.000000;0.279248
9956.000000;0.278354
9955.000000;0.277433
9954.000000;0.276337
9953.000000;0.275029
9952.000000;0.273610
9951.000000;0.272181
9950.000000;0.270751
9949.000000;0.269310
9948.000000;0.267908
9947.000000;0.266619
9946.000000;0.265454
9945.000000;0.264360
9944.000000;0.263283
9943.000000;0.262195
9942.000000;0.261082
9941.000000;0.259945
9940.000000;0.258819
9939.000000;0.257744
9938.000000;0.256729
9937.000000;0.255724
9936.000000;0.254649
9935.000000;0.253455
9934.000000;0.252173
9933.000000;0.250883
9932.000000;0.249637
9931.000000;0.248421
9930.000000;0.247202
9929.000000;0.245976
9928.000000;0.244746
9927.000000;0.243492
9926.000000;0.242213
9925.000000;0.240956
9924.000000;0.239765
9923.000000;0.238613
9922.000000;0.237436
9921.000000;0.236197
9920.000000;0.234874
9919.000000;0.233436
9918.000000;0.231916
9917.000000;0.230478
9916.000000;0.229285
9915.000000;0.228294
9914.000000;0.227283
9913.000000;0.226113
9912.000000;0.224873
9911.000000;0.223720
9910.000000;0.222667
9909.000000;0.221595
9908.000000;0.220419
9907.000000;0.219163
9906.000000;0.217895
9905.000000;0.216650
9904.000000;0.215404
9903.000000;0.214098
9902.000000;0.212698
9901.000000;0.211249
9900.000000;0.209844
9899.000000;0.208532
9898.000000;0.207283
9897.000000;0.206066
9896.000000;0.204898
9895.000000;0.203789
9894.000000;0.202678
9893.000000;0.201476
9892.000000;0.200161
9891.000000;0.198793
9890.000000;0.197445
9889.000000;0.196160
9888.000000;0.194934
9887.000000;0.193722
9886.000000;0.192466
9885.000000;0.191150
9884.000000;0.189828
9883.000000;0.188567
9882.000000;0.187372
9881.000000;0.186183
9880.000000;0.184941
9879.000000;0.183619
9878.000000;0.182210
9877.000000;0.180729
9876.000000;0.179240
9875.000000;0.177854
9874.000000;0.176636
9873.000000;0.175513
9872.000000;0.174298
9871.000000;0.172849
9870.000000;0.171229
9869.000000;0.169675
9868.000000;0.168389
9867.000000;0.167352
9866.000000;0.166352
9865.000000;0.165194
9864.000000;0.163851
9863.000000;0.162431
9862.000000;0.161038
9861.000000;0.159689
9860.000000;0.158336
9859.000000;0.156930
9858.000000;0.155472
9857.000000;0.154014
9856.000000;0.152622
9855.000000;0.151309
9854.000000;0.150007
9853.000000;0.148628
9852.000000;0.147144
9851.000000;0.145595
9850.000000;0.144030
9849.000000;0.142476
9848.000000;0.140979
9847.000000;0.139612
9846.000000;0.138399
9845.000000;0.137252
9844.000000;0.136042
9843.000000;0.134720
9842.000000;0.133337
9841.000000;0.131923
9840.000000;0.130452
9839.000000;0.128925
9838.000000;0.127432
9837.000000;0.126056
9836.000000;0.124759
9835.000000;0.123423
9834.000000;0.121985
9833.000000;0.120476
9832.000000;0.118938
9831.000000;0.117396
9830.000000;0.115873
9829.000000;0.114395
9828.000000;0.112952
9827.000000;0.111505
9826.000000;0.110033
9825.000000;0.108542
9824.000000;0.107038
9823.000000;0.105552
9822.000000;0.104163
9821.000000;0.102925
9820.000000;0.101771
9819.000000;0.100559
9818.000000;0.099204
9817.000000;0.097733
9816.000000;0.096218
9815.000000;0.094732
9814.000000;0.093334
9813.000000;0.092014
9812.000000;0.090659
9811.000000;0.089155
9810.000000;0.087528
9809.000000;0.085886
9808.000000;0.084254
9807.000000;0.082571
9806.000000;0.080871
9805.000000;0.079308
9804.000000;0.077946
9803.000000;0.076658
9802.000000;0.075286
9801.000000;0.073811
9800.000000;0.072295
9799.000000;0.070739
9798.000000;0.069114
9797.000000;0.067429
9796.000000;0.065712
9795.000000;0.063984
9794.000000;0.062312
9793.000000;0.060804
9792.000000;0.059478
9791.000000;0.058196
9790.000000;0.056816
9789.000000;0.055345
9788.000000;0.053862
9787.000000;0.052377
9786.000000;0.050851
9785.000000;0.049285
9784.000000;0.047679
9783.000000;0.045982
9782.000000;0.044181
9781.000000;0.042394
9780.000000;0.040755
9779.000000;0.039257
9778.000000;0.037805
9777.000000;0.036382
9776.000000;0.035032
9775.000000;0.033704
9774.000000;0.032246
9773.000000;0.030577
9772.000000;0.028781
9771.000000;0.026998
9770.000000;0.025315
9769.000000;0.023738
9768.000000;0.022198
9767.000000;0.020568
9766.000000;0.018763
9765.000000;0.016844
9764.000000;0.014980
9763.000000;0.013308
9762.000000;0.011857
9761.000000;0.010560
9760.000000;0.009281
9759.000000;0.007852
9758.000000;0.006182
9757.000000;0.004342
9756.000000;0.002490
9755.000000;0.000716
9754.000000;-0.000988
9753.000000;-0.002652
9752.000000;-0.004276
9751.000000;-0.005861
9750.000000;-0.007415
9749.000000;-0.008947
9748.000000;-0.010511
9747.000000;-0.012209
9746.000000;-0.014086
9745.000000;-0.016043
9744.000000;-0.017914
9743.000000;-0.019615
9742.000000;-0.021172
9741.000000;-0.022646
9740.000000;-0.024109
9739.000000;-0.025673
9738.000000;-0.027423
9737.000000;-0.029334
9736.000000;-0.031289
9735.000000;-0.033186
9734.000000;-0.034964
9733.000000;-0.036605
9732.000000;-0.038182
9731.000000;-0.039860
9730.000000;-0.041741
9729.000000;-0.043704
9728.000000;-0.045509
9727.000000;-0.047062
9726.000000;-0.048481
9725.000000;-0.049941
9724.000000;-0.051543
9723.000000;-0.053324
9722.000000;-0.055273
9721.000000;-0.057276
9720.000000;-0.059159
9719.000000;-0.060843
9718.000000;-0.062419
9717.000000;-0.064038
9716.000000;-0.065774
9715.000000;-0.067607
9714.000000;-0.069472
9713.000000;-0.071322
9712.000000;-0.073157
9711.000000;-0.075027
9710.000000;-0.076963
9709.000000;-0.078924
9708.000000;-0.080836
9707.000000;-0.082660
9706.000000;-0.084404
9705.000000;-0.086112
9704.000000;-0.087876
9703.000000;-0.089791
9702.000000;-0.091836
9701.000000;-0.093844
9700.000000;-0.095690
9699.000000;-0.097451
9698.000000;-0.099278
9697.000000;-0.101181
9696.000000;-0.103061
9695.000000;-0.104917
9694.000000;-0.106837
9693.000000;-0.108823
9692.000000;-0.110757
9691.000000;-0.112583
9690.000000;-0.114366
9689.000000;-0.116145
9688.000000;-0.117865
9687.000000;-0.119532
9686.000000;-0.121286
9685.000000;-0.123241
9684.000000;-0.125321
9683.000000;-0.127349
9682.000000;-0.129225
9681.000000;-0.130988
9680.000000;-0.132757
9679.000000;-0.134644
9678.000000;-0.136678
9677.000000;-0.138763
9676.000000;-0.140791
9675.000000;-0.142797
9674.000000;-0.144912
9673.000000;-0.147147
9672.000000;-0.149332
9671.000000;-0.151326
9670.000000;-0.153174
9669.000000;-0.155006
9668.000000;-0.156866
9667.000000;-0.158744
9666.000000;-0.160679
9665.000000;-0.162723
9664.000000;-0.164833
9663.000000;-0.166908
9662.000000;-0.168901
9661.000000;-0.170838
9660.000000;-0.172750
9659.000000;-0.174656
9658.000000;-0.176588
9657.000000;-0.178602
9656.000000;-0.180740
9655.000000;-0.183009
9654.000000;-0.185345
9653.000000;-0.187595
9652.000000;-0.189614
9651.000000;-0.191433
9650.000000;-0.193259
9649.000000;-0.195259
9648.000000;-0.197383
9647.000000;-0.199478
9646.000000;-0.201497
9645.000000;-0.203502
9644.000000;-0.205529
9643.000000;-0.207567
9642.000000;-0.209660
9641.000000;-0.211879
9640.000000;-0.214175
9639.000000;-0.216377
9638.000000;-0.218404
9637.000000;-0.220375
9636.000000;-0.222439
9635.000000;-0.224576
9634.000000;-0.226660
9633.000000;-0.228684
9632.000000;-0.230784
9631.000000;-0.233026
9630.000000;-0.235279
9629.000000;-0.237376
9628.000000;-0.239329
9627.000000;-0.241294
9626.000000;-0.243358
9625.000000;-0.245480
9624.000000;-0.247619
9623.000000;-0.249813
9622.000000;-0.252091
9621.000000;-0.254380
9620.000000;-0.256581
9619.000000;-0.258690
9618.000000;-0.260785
9617.000000;-0.262920
9616.000000;-0.265095
9615.000000;-0.267280
9614.000000;-0.269444
9613.000000;-0.271571
9612.000000;-0.273708
9611.000000;-0.275963
9610.000000;-0.278382
9609.000000;-0.280852
9608.000000;-0.283175
9607.000000;-0.285272
9606.000000;-0.287239
9605.000000;-0.289237
9604.000000;-0.291354
9603.000000;-0.293600
9602.000000;-0.295935
9601.000000;-0.298296
9600.000000;-0.300607
9599.000000;-0.302822
9598.000000;-0.304941
9597.000000;-0.307008
9596.000000;-0.309110
9595.000000;-0.311343
9594.000000;-0.313725
9593.000000;-0.316149
9592.000000;-0.318465
9591.000000;-0.320618
9590.000000;-0.322673
9589.000000;-0.324726
9588.000000;-0.326830
9587.000000;-0.329007
9586.000000;-0.331250
9585.000000;-0.333503
9584.000000;-0.335685
9583.000000;-0.337786
9582.000000;-0.339896
9581.000000;-0.342140
9580.000000;-0.344551
9579.000000;-0.347044
9578.000000;-0.349490
9577.000000;-0.351830
9576.000000;-0.354115
9575.000000;-0.356419
9574.000000;-0.358742
9573.000000;-0.361023
9572.000000;-0.363262
9571.000000;-0.365531
9570.000000;-0.367841
9569.000000;-0.370091
9568.000000;-0.372217
9567.000000;-0.374316
9566.000000;-0.376522
9565.000000;-0.378816
9564.000000;-0.381067
9563.000000;-0.383235
9562.000000;-0.385406
9561.000000;-0.387647
9560.000000;-0.389914
9559.000000;-0.392143
9558.000000;-0.394322
9557.000000;-0.396451
9556.000000;-0.398538
9555.000000;-0.400637
9554.000000;-0.402825
9553.000000;-0.405102
9552.000000;-0.407391
9551.000000;-0.409674
9550.000000;-0.412012
9549.000000;-0.414411
9548.000000;-0.416745
9547.000000;-0.418895
9546.000000;-0.420893
9545.000000;-0.422853
9544.000000;-0.424816
9543.000000;-0.426745
9542.000000;-0.428647
9541.000000;-0.430623
9540.000000;-0.432775
9539.000000;-0.435100
9538.000000;-0.437501
9537.000000;-0.439866
9536.000000;-0.442143
9535.000000;-0.444336
9534.000000;-0.446454
9533.000000;-0.448481
9532.000000;-0.450428
9531.000000;-0.452364
9530.000000;-0.454353
9529.000000;-0.456358
9528.000000;-0.458268
9527.000000;-0.460048
9526.000000;-0.461821
9525.000000;-0.463773
9524.000000;-0.465993
9523.000000;-0.468392
9522.000000;-0.470750
9521.000000;-0.472849
9520.000000;-0.474608
9519.000000;-0.476133
9518.000000;-0.477630
9517.000000;-0.479246
9516.000000;-0.480995
9515.000000;-0.482803
9514.000000;-0.484607
9513.000000;-0.486389
9512.000000;-0.488172
9511.000000;-0.489984
9510.000000;-0.491832
9509.000000;-0.493700
9508.000000;-0.495569
9507.000000;-0.497405
9506.000000;-0.499151
9505.000000;-0.500765
9504.000000;-0.502287
9503.000000;-0.503802
9502.000000;-0.505334
9501.000000;-0.506842
9500.000000;-0.508363
9499.000000;-0.510058
9498.000000;-0.511993
9497.000000;-0.513958
9496.000000;-0.515621
9495.000000;-0.516878
9494.000000;-0.517946
9493.000000;-0.519100
9492.000000;-0.520427
9491.000000;-0.521858
9490.000000;-0.523315
9489.000000;-0.524737
9488.000000;-0.526035
9487.000000;-0.527140
9486.000000;-0.528093
9485.000000;-0.529049
9484.000000;-0.530171
9483.000000;-0.531520
9482.000000;-0.532998
9481.000000;-0.534388
9480.000000;-0.535480
9479.000000;-0.536228
9478.000000;-0.536802
9477.000000;-0.537472
9476.000000;-0.538415
9475.000000;-0.539590
9474.000000;-0.540790
9473.000000;-0.541815
9472.000000;-0.542639
9471.000000;-0.543396
9470.000000;-0.544219
9469.000000;-0.545121
9468.000000;-0.546050
9467.000000;-0.546984
9466.000000;-0.547896
9465.000000;-0.548679
9464.000000;-0.549226
9463.000000;-0.549587
9462.000000;-0.549956
9461.000000;-0.550461
9460.000000;-0.551040
9459.000000;-0.551569
9458.000000;-0.552033
9457.000000;-0.552510
9456.000000;-0.553027
9455.000000;-0.553529
9454.000000;-0.553954
9453.000000;-0.554288
9452.000000;-0.554538
9451.000000;-0.554733
9450.000000;-0.554952
9449.000000;-0.555273
9448.000000;-0.555651
9447.000000;-0.555893
9446.000000;-0.555825
9445.000000;-0.555499
9444.000000;-0.555171
9443.000000;-0.555055
9442.000000;-0.555145
9441.000000;-0.555280
9440.000000;-0.555320
9439.000000;-0.555227
9438.000000;-0.555036
9437.000000;-0.554801
9436.000000;-0.554574
9435.000000;-0.554361
9434.000000;-0.554115
9433.000000;-0.553813
9432.000000;-0.553517
9431.000000;-0.553323
9430.000000;-0.553237
9429.000000;-0.553160
9428.000000;-0.552992
9427.000000;-0.552682
9426.000000;-0.552203
9425.000000;-0.551560
9424.000000;-0.550833
9423.000000;-0.550149
9422.000000;-0.549555
9421.000000;-0.548983
9420.000000;-0.548359
9419.000000;-0.547683
9418.000000;-0.547004
9417.000000;-0.546375
9416.000000;-0.545846
9415.000000;-0.545413
9414.000000;-0.544966
9413.000000;-0.544363
9412.000000;-0.543619
9411.000000;-0.542904
9410.000000;-0.542306
9409.000000;-0.541705
9408.000000;-0.540948
9407.000000;-0.540056
9406.000000;-0.539143
9405.000000;-0.538233
9404.000000;-0.537288
9403.000000;-0.536366
9402.000000;-0.535561
9401.000000;-0.534817
9400.000000;-0.533941
9399.000000;-0.532845
9398.000000;-0.531662
9397.000000;-0.530569
9396.000000;-0.529601
9395.000000;-0.528676
9394.000000;-0.527733
9393.000000;-0.526769
9392.000000;-0.525802
9391.000000;-0.524846
9390.000000;-0.523909
9389.000000;-0.522970
9388.000000;-0.521976
9387.000000;-0.520883
9386.000000;-0.519696
9385.000000;-0.518465
9384.000000;-0.517259
9383.000000;-0.516115
9382.000000;-0.514999
9381.000000;-0.513823
9380.000000;-0.512568
9379.000000;-0.511354
9378.000000;-0.510332
9377.000000;-0.509494
9376.000000;-0.508650
9375.000000;-0.507607
9374.000000;-0.506340
9373.000000;-0.504975
9372.000000;-0.503650
9371.000000;-0.502429
9370.000000;-0.501312
9369.000000;-0.500270
9368.000000;-0.499251
9367.000000;-0.498172
9366.000000;-0.496954
9365.000000;-0.495575
9364.000000;-0.494114
9363.000000;-0.492686
9362.000000;-0.491348
9361.000000;-0.490078
9360.000000;-0.488846
9359.000000;-0.487644
9358.000000;-0.486438
9357.000000;-0.485145
9356.000000;-0.483736
9355.000000;-0.482304
9354.000000;-0.480982
9353.000000;-0.479805
9352.000000;-0.478719
9351.000000;-0.477674
9350.000000;-0.476652
9349.000000;-0.475612
9348.000000;-0.474493
9347.000000;-0.473273
9346.000000;-0.471970
9345.000000;-0.470594
9344.000000;-0.469155
9343.000000;-0.467723
9342.000000;-0.466396
9341.000000;-0.465189
9340.000000;-0.464012
9339.000000;-0.462772
9338.000000;-0.461461
9337.000000;-0.460131
9336.000000;-0.458826
9335.000000;-0.457561
9334.000000;-0.456317
9333.000000;-0.455051
9332.000000;-0.453757
9331.000000;-0.452513
9330.000000;-0.451396
9329.000000;-0.450359
9328.000000;-0.449255
9327.000000;-0.448013
9326.000000;-0.446722
9325.000000;-0.445494
9324.000000;-0.444315
9323.000000;-0.443103
9322.000000;-0.441850
9321.000000;-0.440641
9320.000000;-0.439523
9319.000000;-0.438442
9318.000000;-0.437304
9317.000000;-0.436065
9316.000000;-0.434742
9315.000000;-0.433386
9314.000000;-0.432049
9313.000000;-0.430770
9312.000000;-0.429558
9311.000000;-0.428391
9310.000000;-0.427230
9309.000000;-0.426035
9308.000000;-0.424778
9307.000000;-0.423469
9306.000000;-0.422156
9305.000000;-0.420883
9304.000000;-0.419649
9303.000000;-0.418418
9302.000000;-0.417177
9301.000000;-0.415961
9300.000000;-0.414815
9299.000000;-0.413728
9298.000000;-0.412624
9297.000000;-0.411433
9296.000000;-0.410173
9295.000000;-0.408938
9294.000000;-0.407808
9293.000000;-0.406776
9292.000000;-0.405762
9291.000000;-0.404686
9290.000000;-0.403522
9289.000000;-0.402288
9288.000000;-0.401035
9287.000000;-0.399819
9286.000000;-0.398675
9285.000000;-0.397592
9284.000000;-0.396531
9283.000000;-0.395469
9282.000000;-0.394401
9281.000000;-0.393328
9280.000000;-0.392240
9279.000000;-0.391136
9278.000000;-0.390038
9277.000000;-0.388987
9276.000000;-0.388012
9275.000000;-0.387089
9274.000000;-0.386113
9273.000000;-0.384975
9272.000000;-0.383667
9271.000000;-0.382315
9270.000000;-0.381074
9269.000000;-0.379992
9268.000000;-0.379003
9267.000000;-0.378028
9266.000000;-0.377052
9265.000000;-0.376121
9264.000000;-0.375268
9263.000000;-0.374454
9262.000000;-0.373569
9261.000000;-0.372515
9260.000000;-0.371318
9259.000000;-0.370117
9258.000000;-0.369027
9257.000000;-0.368017
9256.000000;-0.366975
9255.000000;-0.365865
9254.000000;-0.364774
9253.000000;-0.363791
9252.000000;-0.362895
9251.000000;-0.361991
9250.000000;-0.361015
9249.000000;-0.359994
9248.000000;-0.358999
9247.000000;-0.358070
9246.000000;-0.357174
9245.000000;-0.356243
9244.000000;-0.355246
9243.000000;-0.354214
9242.000000;-0.353189
9241.000000;-0.352169
9240.000000;-0.351151
9239.000000;-0.350180
9238.000000;-0.349317
9237.000000;-0.348534
9236.000000;-0.347722
9235.000000;-0.346806
9234.000000;-0.345831
9233.000000;-0.344883
9232.000000;-0.343971
9231.000000;-0.343021
9230.000000;-0.341983
9229.000000;-0.340914
9228.000000;-0.339931
9227.000000;-0.339089
9226.000000;-0.338324
9225.000000;-0.337515
9224.000000;-0.336598
9223.000000;-0.335600
9222.000000;-0.334576
9221.000000;-0.333573
9220.000000;-0.332650
9219.000000;-0.331887
9218.000000;-0.331304
9217.000000;-0.330788
9216.000000;-0.330167
9215.000000;-0.329361
9214.000000;-0.328433
9213.000000;-0.327500
9212.000000;-0.326628
9211.000000;-0.325800
9210.000000;-0.324958
9209.000000;-0.324057
9208.000000;-0.323118
9207.000000;-0.322232
9206.000000;-0.321481
9205.000000;-0.320851
9204.000000;-0.320232
9203.000000;-0.319519
9202.000000;-0.318684
9201.000000;-0.317756
9200.000000;-0.316791
9199.000000;-0.315851
9198.000000;-0.314994
9197.000000;-0.314233
9196.000000;-0.313538
9195.000000;-0.312878
9194.000000;-0.312238
9193.000000;-0.311596
9192.000000;-0.310916
9191.000000;-0.310176
9190.000000;-0.309398
9189.000000;-0.308619
9188.000000;-0.307854
9187.000000;-0.307096
9186.000000;-0.306329
9185.000000;-0.305539
9184.000000;-0.304728
9183.000000;-0.303930
9182.000000;-0.303199
9181.000000;-0.302537
9180.000000;-0.301862
9179.000000;-0.301089
9178.000000;-0.300238
9177.000000;-0.299428
9176.000000;-0.298763
9175.000000;-0.298231
9174.000000;-0.297734
9173.000000;-0.297187
9172.000000;-0.296570
9171.000000;-0.295904
9170.000000;-0.295194
9169.000000;-0.294437
9168.000000;-0.293651
9167.000000;-0.292886
9166.000000;-0.292186
9165.000000;-0.291556
9164.000000;-0.290952
9163.000000;-0.290311
9162.000000;-0.289605
9161.000000;-0.288870
9160.000000;-0.288180
9159.000000;-0.287557
9158.000000;-0.286948
9157.000000;-0.286292
9156.000000;-0.285609
9155.000000;-0.284971
9154.000000;-0.284393
9153.000000;-0.283819
9152.000000;-0.283219
9151.000000;-0.282631
9150.000000;-0.282076
9149.000000;-0.281498
9148.000000;-0.280838
9147.000000;-0.280130
9146.000000;-0.279470
9145.000000;-0.278901
9144.000000;-0.278378
9143.000000;-0.277823
9142.000000;-0.277170
9141.000000;-0.276404
9140.000000;-0.275599
9139.000000;-0.274897
9138.000000;-0.274388
9137.000000;-0.274008
9136.000000;-0.273612
9135.000000;-0.273132
9134.000000;-0.272610
9133.000000;-0.272104
9132.000000;-0.271622
9131.000000;-0.271157
9130.000000;-0.270709
9129.000000;-0.270246
9128.000000;-0.269707
9127.000000;-0.269085
9126.000000;-0.268459
9125.000000;-0.267909
9124.000000;-0.267431
9123.000000;-0.266951
9122.000000;-0.266407
9121.000000;-0.265798
9120.000000;-0.265191
9119.000000;-0.264681
9118.000000;-0.264310
9117.000000;-0.264002
9116.000000;-0.263613
9115.000000;-0.263078
9114.000000;-0.262474
9113.000000;-0.261927
9112.000000;-0.261476
9111.000000;-0.261056
9110.000000;-0.260586
9109.000000;-0.260037
9108.000000;-0.259439
9107.000000;-0.258858
9106.000000;-0.258348
9105.000000;-0.257906
9104.000000;-0.257481
9103.000000;-0.257031
9102.000000;-0.256563
9101.000000;-0.256094
9100.000000;-0.255609
9099.000000;-0.255084
9098.000000;-0.254535
9097.000000;-0.254006
9096.000000;-0.253529
9095.000000;-0.253090
9094.000000;-0.252650
9093.000000;-0.252181
9092.000000;-0.251680
9091.000000;-0.251171
9090.000000;-0.250686
9089.000000;-0.250241
9088.000000;-0.249834
9087.000000;-0.249472
9086.000000;-0.249161
9085.000000;-0.248877
