Criado como novo conjunto de dados;"0307_DANIEL.spp","31143.6 Secs"
cm-1;Abs
10000.000000;1.097473
9999.000000;1.096323
9998.000000;1.095185
9997.000000;1.094035
9996.000000;1.092914
9995.000000;1.091545
9994.000000;1.089723
9993.000000;1.087896
9992.000000;1.086610
9991.000000;1.085814
9990.000000;1.084956
9989.000000;1.083704
9988.000000;1.082224
9987.000000;1.080784
9986.000000;1.079455
9985.000000;1.078240
9984.000000;1.077180
9983.000000;1.076189
9982.000000;1.075074
9981.000000;1.073863
9980.000000;1.072865
9979.000000;1.072216
9978.000000;1.071571
9977.000000;1.070516
9976.000000;1.069109
9975.000000;1.067728
9974.000000;1.066476
9973.000000;1.065058
9972.000000;1.063327
9971.000000;1.061662
9970.000000;1.060616
9969.000000;1.060250
9968.000000;1.059971
9967.000000;1.059042
9966.000000;1.057232
9965.000000;1.054986
9964.000000;1.052997
9963.000000;1.051622
9962.000000;1.050675
9961.000000;1.049703
9960.000000;1.048412
9959.000000;1.046882
9958.000000;1.045426
9957.000000;1.044297
9956.000000;1.043493
9955.000000;1.042830
9954.000000;1.042142
9953.000000;1.041363
9952.000000;1.040460
9951.000000;1.039393
9950.000000;1.038193
9949.000000;1.036944
9948.000000;1.035600
9947.000000;1.033995
9946.000000;1.032159
9945.000000;1.030429
9944.000000;1.029017
9943.000000;1.027638
9942.000000;1.025944
9941.000000;1.024203
9940.000000;1.023065
9939.000000;1.022586
9938.000000;1.021962
9937.000000;1.020531
9936.000000;1.018676
9935.000000;1.017306
9934.000000;1.016669
9933.000000;1.016132
9932.000000;1.015037
9931.000000;1.013367
9930.000000;1.011507
9929.000000;1.009758
9928.000000;1.008282
9927.000000;1.007213
9926.000000;1.006538
9925.000000;1.005937
9924.000000;1.004939
9923.000000;1.003309
9922.000000;1.001222
9921.000000;0.999091
9920.000000;0.997268
9919.000000;0.995875
9918.000000;0.994822
9917.000000;0.993947
9916.000000;0.993105
9915.000000;0.992161
9914.000000;0.991010
9913.000000;0.989677
9912.000000;0.988325
9911.000000;0.987068
9910.000000;0.985803
9909.000000;0.984334
9908.000000;0.982638
9907.000000;0.980916
9906.000000;0.979386
9905.000000;0.978118
9904.000000;0.977054
9903.000000;0.976063
9902.000000;0.974942
9901.000000;0.973487
9900.000000;0.971653
9899.000000;0.969609
9898.000000;0.967613
9897.000000;0.965852
9896.000000;0.964411
9895.000000;0.963273
9894.000000;0.962312
9893.000000;0.961354
9892.000000;0.960300
9891.000000;0.959167
9890.000000;0.958002
9889.000000;0.956804
9888.000000;0.955543
9887.000000;0.954179
9886.000000;0.952672
9885.000000;0.951074
9884.000000;0.949613
9883.000000;0.948524
9882.000000;0.947736
9881.000000;0.946857
9880.000000;0.945615
9879.000000;0.944218
9878.000000;0.943064
9877.000000;0.942143
9876.000000;0.940946
9875.000000;0.939060
9874.000000;0.936683
9873.000000;0.934413
9872.000000;0.932617
9871.000000;0.931140
9870.000000;0.929617
9869.000000;0.927940
9868.000000;0.926382
9867.000000;0.925252
9866.000000;0.924494
9865.000000;0.923694
9864.000000;0.922510
9863.000000;0.921066
9862.000000;0.919761
9861.000000;0.918678
9860.000000;0.917384
9859.000000;0.915468
9858.000000;0.913164
9857.000000;0.911194
9856.000000;0.910004
9855.000000;0.909349
9854.000000;0.908656
9853.000000;0.907600
9852.000000;0.906214
9851.000000;0.904619
9850.000000;0.902867
9849.000000;0.901017
9848.000000;0.899196
9847.000000;0.897517
9846.000000;0.896022
9845.000000;0.894703
9844.000000;0.893503
9843.000000;0.892306
9842.000000;0.891003
9841.000000;0.889593
9840.000000;0.888169
9839.000000;0.886758
9838.000000;0.885244
9837.000000;0.883472
9836.000000;0.881437
9835.000000;0.879344
9834.000000;0.877443
9833.000000;0.875796
9832.000000;0.874208
9831.000000;0.872472
9830.000000;0.870687
9829.000000;0.869242
9828.000000;0.868410
9827.000000;0.867979
9826.000000;0.867360
9825.000000;0.866054
9824.000000;0.863990
9823.000000;0.861530
9822.000000;0.859230
9821.000000;0.857540
9820.000000;0.856550
9819.000000;0.855913
9818.000000;0.855072
9817.000000;0.853645
9816.000000;0.851651
9815.000000;0.849456
9814.000000;0.847499
9813.000000;0.845963
9812.000000;0.844613
9811.000000;0.843036
9810.000000;0.841143
9809.000000;0.839331
9808.000000;0.837957
9807.000000;0.836794
9806.000000;0.835288
9805.000000;0.833314
9804.000000;0.831351
9803.000000;0.829795
9802.000000;0.828461
9801.000000;0.826948
9800.000000;0.825257
9799.000000;0.823706
9798.000000;0.822364
9797.000000;0.820895
9796.000000;0.818983
9795.000000;0.816683
9794.000000;0.814253
9793.000000;0.811873
9792.000000;0.809632
9791.000000;0.807670
9790.000000;0.806162
9789.000000;0.805167
9788.000000;0.804512
9787.000000;0.803824
9786.000000;0.802722
9785.000000;0.801077
9784.000000;0.799109
9783.000000;0.797151
9782.000000;0.795330
9781.000000;0.793546
9780.000000;0.791771
9779.000000;0.790179
9778.000000;0.788881
9777.000000;0.787649
9776.000000;0.786094
9775.000000;0.784085
9774.000000;0.781855
9773.000000;0.779663
9772.000000;0.777538
9771.000000;0.775446
9770.000000;0.773524
9769.000000;0.771942
9768.000000;0.770563
9767.000000;0.768976
9766.000000;0.767006
9765.000000;0.765002
9764.000000;0.763450
9763.000000;0.762394
9762.000000;0.761433
9761.000000;0.760264
9760.000000;0.758981
9759.000000;0.757755
9758.000000;0.756465
9757.000000;0.754853
9756.000000;0.752907
9755.000000;0.750866
9754.000000;0.748867
9753.000000;0.746803
9752.000000;0.744579
9751.000000;0.742340
9750.000000;0.740323
9749.000000;0.738571
9748.000000;0.736925
9747.000000;0.735235
9746.000000;0.733461
9745.000000;0.731585
9744.000000;0.729558
9743.000000;0.727414
9742.000000;0.725331
9741.000000;0.723462
9740.000000;0.721757
9739.000000;0.720047
9738.000000;0.718317
9737.000000;0.716743
9736.000000;0.715401
9735.000000;0.714084
9734.000000;0.712527
9733.000000;0.710740
9732.000000;0.708970
9731.000000;0.707380
9730.000000;0.705896
9729.000000;0.704354
9728.000000;0.702630
9727.000000;0.700631
9726.000000;0.698328
9725.000000;0.695871
9724.000000;0.693516
9723.000000;0.691401
9722.000000;0.689508
9721.000000;0.687848
9720.000000;0.686475
9719.000000;0.685234
9718.000000;0.683741
9717.000000;0.681823
9716.000000;0.679803
9715.000000;0.678110
9714.000000;0.676720
9713.000000;0.675224
9712.000000;0.673374
9711.000000;0.671261
9710.000000;0.669010
9709.000000;0.666631
9708.000000;0.664227
9707.000000;0.662060
9706.000000;0.660234
9705.000000;0.658528
9704.000000;0.656675
9703.000000;0.654704
9702.000000;0.652867
9701.000000;0.651308
9700.000000;0.649909
9699.000000;0.648371
9698.000000;0.646400
9697.000000;0.643933
9696.000000;0.641244
9695.000000;0.638708
9694.000000;0.636393
9693.000000;0.634024
9692.000000;0.631439
9691.000000;0.628899
9690.000000;0.626802
9689.000000;0.625213
9688.000000;0.623864
9687.000000;0.622538
9686.000000;0.621208
9685.000000;0.619806
9684.000000;0.618114
9683.000000;0.615992
9682.000000;0.613583
9681.000000;0.611166
9680.000000;0.608859
9679.000000;0.606575
9678.000000;0.604217
9677.000000;0.601822
9676.000000;0.599496
9675.000000;0.597262
9674.000000;0.595057
9673.000000;0.592882
9672.000000;0.590896
9671.000000;0.589255
9670.000000;0.587902
9669.000000;0.586569
9668.000000;0.585027
9667.000000;0.583257
9666.000000;0.581351
9665.000000;0.579362
9664.000000;0.577301
9663.000000;0.575179
9662.000000;0.572942
9661.000000;0.570451
9660.000000;0.567642
9659.000000;0.564659
9658.000000;0.561772
9657.000000;0.559196
9656.000000;0.557018
9655.000000;0.555202
9654.000000;0.553544
9653.000000;0.551767
9652.000000;0.549772
9651.000000;0.547717
9650.000000;0.545752
9649.000000;0.543802
9648.000000;0.541757
9647.000000;0.539757
9646.000000;0.538004
9645.000000;0.536365
9644.000000;0.534438
9643.000000;0.532072
9642.000000;0.529556
9641.000000;0.527213
9640.000000;0.525065
9639.000000;0.522974
9638.000000;0.520895
9637.000000;0.518809
9636.000000;0.516607
9635.000000;0.514228
9634.000000;0.511805
9633.000000;0.509518
9632.000000;0.507376
9631.000000;0.505274
9630.000000;0.503168
9629.000000;0.501061
9628.000000;0.498904
9627.000000;0.496663
9626.000000;0.494428
9625.000000;0.492291
9624.000000;0.490177
9623.000000;0.487921
9622.000000;0.485468
9621.000000;0.482887
9620.000000;0.480230
9619.000000;0.477546
9618.000000;0.474997
9617.000000;0.472766
9616.000000;0.470825
9615.000000;0.468906
9614.000000;0.466760
9613.000000;0.464372
9612.000000;0.461926
9611.000000;0.459659
9610.000000;0.457720
9609.000000;0.456045
9608.000000;0.454305
9607.000000;0.452122
9606.000000;0.449434
9605.000000;0.446595
9604.000000;0.444016
9603.000000;0.441754
9602.000000;0.439497
9601.000000;0.436956
9600.000000;0.434193
9599.000000;0.431537
9598.000000;0.429191
9597.000000;0.427012
9596.000000;0.424735
9595.000000;0.422363
9594.000000;0.420205
9593.000000;0.418482
9592.000000;0.417018
9591.000000;0.415378
9590.000000;0.413229
9589.000000;0.410524
9588.000000;0.407477
9587.000000;0.404472
9586.000000;0.401874
9585.000000;0.399720
9584.000000;0.397633
9583.000000;0.395215
9582.000000;0.392518
9581.000000;0.389975
9580.000000;0.387886
9579.000000;0.386119
9578.000000;0.384279
9577.000000;0.382025
9576.000000;0.379254
9575.000000;0.376209
9574.000000;0.373412
9573.000000;0.371253
9572.000000;0.369525
9571.000000;0.367563
9570.000000;0.364955
9569.000000;0.361967
9568.000000;0.359134
9567.000000;0.356634
9566.000000;0.354267
9565.000000;0.351906
9564.000000;0.349660
9563.000000;0.347602
9562.000000;0.345538
9561.000000;0.343177
9560.000000;0.340457
9559.000000;0.337628
9558.000000;0.335038
9557.000000;0.332819
9556.000000;0.330781
9555.000000;0.328663
9554.000000;0.326490
9553.000000;0.324551
9552.000000;0.322918
9551.000000;0.321150
9550.000000;0.318717
9549.000000;0.315664
9548.000000;0.312642
9547.000000;0.310216
9546.000000;0.308332
9545.000000;0.306547
9544.000000;0.304591
9543.000000;0.302525
9542.000000;0.300450
9541.000000;0.298297
9540.000000;0.295976
9539.000000;0.293553
9538.000000;0.291169
9537.000000;0.288815
9536.000000;0.286352
9535.000000;0.283787
9534.000000;0.281436
9533.000000;0.279655
9532.000000;0.278373
9531.000000;0.277020
9530.000000;0.275034
9529.000000;0.272438
9528.000000;0.269799
9527.000000;0.267608
9526.000000;0.265813
9525.000000;0.264023
9524.000000;0.262019
9523.000000;0.259914
9522.000000;0.257865
9521.000000;0.255843
9520.000000;0.253756
9519.000000;0.251660
9518.000000;0.249690
9517.000000;0.247864
9516.000000;0.246075
9515.000000;0.244246
9514.000000;0.242387
9513.000000;0.240498
9512.000000;0.238579
9511.000000;0.236742
9510.000000;0.235151
9509.000000;0.233772
9508.000000;0.232311
9507.000000;0.230534
9506.000000;0.228520
9505.000000;0.226473
9504.000000;0.224411
9503.000000;0.222279
9502.000000;0.220285
9501.000000;0.218803
9500.000000;0.217817
9499.000000;0.216702
9498.000000;0.214848
9497.000000;0.212394
9496.000000;0.210094
9495.000000;0.208452
9494.000000;0.207248
9493.000000;0.205974
9492.000000;0.204527
9491.000000;0.203196
9490.000000;0.202075
9489.000000;0.200825
9488.000000;0.199152
9487.000000;0.197299
9486.000000;0.195807
9485.000000;0.194866
9484.000000;0.194130
9483.000000;0.193175
9482.000000;0.191928
9481.000000;0.190604
9480.000000;0.189404
9479.000000;0.188425
9478.000000;0.187652
9477.000000;0.186868
9476.000000;0.185693
9475.000000;0.183955
9474.000000;0.182002
9473.000000;0.180447
9472.000000;0.179599
9471.000000;0.179241
9470.000000;0.178943
9469.000000;0.178409
9468.000000;0.177548
9467.000000;0.176417
9466.000000;0.175226
9465.000000;0.174258
9464.000000;0.173666
9463.000000;0.173347
9462.000000;0.173057
9461.000000;0.172569
9460.000000;0.171754
9459.000000;0.170644
9458.000000;0.169477
9457.000000;0.168548
9456.000000;0.167953
9455.000000;0.167546
9454.000000;0.167194
9453.000000;0.166974
9452.000000;0.167011
9451.000000;0.167210
9450.000000;0.167261
9449.000000;0.166926
9448.000000;0.166268
9447.000000;0.165612
9446.000000;0.165307
9445.000000;0.165467
9444.000000;0.165892
9443.000000;0.166231
9442.000000;0.166270
9441.000000;0.166056
9440.000000;0.165774
9439.000000;0.165574
9438.000000;0.165505
9437.000000;0.165544
9436.000000;0.165636
9435.000000;0.165763
9434.000000;0.165988
9433.000000;0.166381
9432.000000;0.166877
9431.000000;0.167283
9430.000000;0.167455
9429.000000;0.167419
9428.000000;0.167277
9427.000000;0.167082
9426.000000;0.166881
9425.000000;0.166845
9424.000000;0.167241
9423.000000;0.168211
9422.000000;0.169571
9421.000000;0.170847
9420.000000;0.171567
9419.000000;0.171648
9418.000000;0.171500
9417.000000;0.171668
9416.000000;0.172305
9415.000000;0.173049
9414.000000;0.173438
9413.000000;0.173411
9412.000000;0.173355
9411.000000;0.173714
9410.000000;0.174626
9409.000000;0.175884
9408.000000;0.177118
9407.000000;0.178013
9406.000000;0.178481
9405.000000;0.178729
9404.000000;0.179154
9403.000000;0.180024
9402.000000;0.181233
9401.000000;0.182374
9400.000000;0.183146
9399.000000;0.183651
9398.000000;0.184247
9397.000000;0.185157
9396.000000;0.186314
9395.000000;0.187551
9394.000000;0.188800
9393.000000;0.190041
9392.000000;0.191185
9391.000000;0.192134
9390.000000;0.192921
9389.000000;0.193672
9388.000000;0.194483
9387.000000;0.195372
9386.000000;0.196312
9385.000000;0.197241
9384.000000;0.198105
9383.000000;0.198970
9382.000000;0.199994
9381.000000;0.201167
9380.000000;0.202187
9379.000000;0.202794
9378.000000;0.203190
9377.000000;0.203935
9376.000000;0.205392
9375.000000;0.207382
9374.000000;0.209394
9373.000000;0.210987
9372.000000;0.211996
9371.000000;0.212560
9370.000000;0.213049
9369.000000;0.213813
9368.000000;0.214867
9367.000000;0.215896
9366.000000;0.216634
9365.000000;0.217182
9364.000000;0.217917
9363.000000;0.219155
9362.000000;0.220920
9361.000000;0.222926
9360.000000;0.224730
9359.000000;0.226031
9358.000000;0.226901
9357.000000;0.227676
9356.000000;0.228604
9355.000000;0.229672
9354.000000;0.230768
9353.000000;0.231851
9352.000000;0.232922
9351.000000;0.233994
9350.000000;0.235171
9349.000000;0.236613
9348.000000;0.238301
9347.000000;0.239962
9346.000000;0.241360
9345.000000;0.242563
9344.000000;0.243768
9343.000000;0.244973
9342.000000;0.246008
9341.000000;0.246845
9340.000000;0.247701
9339.000000;0.248780
9338.000000;0.250070
9337.000000;0.251408
9336.000000;0.252650
9335.000000;0.253746
9334.000000;0.254727
9333.000000;0.255691
9332.000000;0.256740
9331.000000;0.257889
9330.000000;0.259035
9329.000000;0.260059
9328.000000;0.260945
9327.000000;0.261827
9326.000000;0.262912
9325.000000;0.264331
9324.000000;0.266026
9323.000000;0.267763
9322.000000;0.269284
9321.000000;0.270473
9320.000000;0.271408
9319.000000;0.272276
9318.000000;0.273231
9317.000000;0.274273
9316.000000;0.275281
9315.000000;0.276205
9314.000000;0.277170
9313.000000;0.278294
9312.000000;0.279471
9311.000000;0.280475
9310.000000;0.281321
9309.000000;0.282343
9308.000000;0.283800
9307.000000;0.285531
9306.000000;0.287126
9305.000000;0.288367
9304.000000;0.289363
9303.000000;0.290316
9302.000000;0.291290
9301.000000;0.292247
9300.000000;0.293173
9299.000000;0.294117
9298.000000;0.295157
9297.000000;0.296341
9296.000000;0.297642
9295.000000;0.298958
9294.000000;0.300182
9293.000000;0.301284
9292.000000;0.302324
9291.000000;0.303392
9290.000000;0.304527
9289.000000;0.305643
9288.000000;0.306564
9287.000000;0.307212
9286.000000;0.307749
9285.000000;0.308473
9284.000000;0.309530
9283.000000;0.310830
9282.000000;0.312240
9281.000000;0.313707
9280.000000;0.315128
9279.000000;0.316268
9278.000000;0.316979
9277.000000;0.317442
9276.000000;0.318024
9275.000000;0.318916
9274.000000;0.319990
9273.000000;0.321022
9272.000000;0.321943
9271.000000;0.322899
9270.000000;0.324119
9269.000000;0.325701
9268.000000;0.327412
9267.000000;0.328771
9266.000000;0.329437
9265.000000;0.329543
9264.000000;0.329566
9263.000000;0.329909
9262.000000;0.330699
9261.000000;0.331885
9260.000000;0.333317
9259.000000;0.334732
9258.000000;0.335873
9257.000000;0.336729
9256.000000;0.337547
9255.000000;0.338514
9254.000000;0.339546
9253.000000;0.340462
9252.000000;0.341233
9251.000000;0.341960
9250.000000;0.342696
9249.000000;0.343467
9248.000000;0.344388
9247.000000;0.345556
9246.000000;0.346809
9245.000000;0.347773
9244.000000;0.348241
9243.000000;0.348425
9242.000000;0.348755
9241.000000;0.349505
9240.000000;0.350667
9239.000000;0.352053
9238.000000;0.353411
9237.000000;0.354490
9236.000000;0.355181
9235.000000;0.355638
9234.000000;0.356165
9233.000000;0.356940
9232.000000;0.357916
9231.000000;0.358975
9230.000000;0.360063
9229.000000;0.361098
9228.000000;0.361923
9227.000000;0.362467
9226.000000;0.362909
9225.000000;0.363509
9224.000000;0.364346
9223.000000;0.365309
9222.000000;0.366300
9221.000000;0.367279
9220.000000;0.368148
9219.000000;0.368791
9218.000000;0.369272
9217.000000;0.369839
9216.000000;0.370650
9215.000000;0.371635
9214.000000;0.372672
9213.000000;0.373740
9212.000000;0.374817
9211.000000;0.375765
9210.000000;0.376472
9209.000000;0.377009
9208.000000;0.377542
9207.000000;0.378146
9206.000000;0.378825
9205.000000;0.379594
9204.000000;0.380415
9203.000000;0.381138
9202.000000;0.381649
9201.000000;0.382064
9200.000000;0.382632
9199.000000;0.383466
9198.000000;0.384488
9197.000000;0.385595
9196.000000;0.386728
9195.000000;0.387778
9194.000000;0.388572
9193.000000;0.389036
9192.000000;0.389307
9191.000000;0.389625
9190.000000;0.390144
9189.000000;0.390840
9188.000000;0.391542
9187.000000;0.392064
9186.000000;0.392380
9185.000000;0.392664
9184.000000;0.393112
9183.000000;0.393742
9182.000000;0.394416
9181.000000;0.395037
9180.000000;0.395616
9179.000000;0.396180
9178.000000;0.396732
9177.000000;0.397314
9176.000000;0.398012
9175.000000;0.398845
9174.000000;0.399728
9173.000000;0.400577
9172.000000;0.401387
9171.000000;0.402190
9170.000000;0.402984
9169.000000;0.403734
9168.000000;0.404412
9167.000000;0.405009
9166.000000;0.405548
9165.000000;0.406076
9164.000000;0.406610
9163.000000;0.407100
9162.000000;0.407494
9161.000000;0.407844
9160.000000;0.408286
9159.000000;0.408902
9158.000000;0.409632
9157.000000;0.410325
9156.000000;0.410847
9155.000000;0.411184
9154.000000;0.411468
9153.000000;0.411882
9152.000000;0.412482
9151.000000;0.413161
9150.000000;0.413806
9149.000000;0.414437
9148.000000;0.415084
9147.000000;0.415630
9146.000000;0.415923
9145.000000;0.416047
9144.000000;0.416318
9143.000000;0.416954
9142.000000;0.417860
9141.000000;0.418772
9140.000000;0.419517
9139.000000;0.420093
9138.000000;0.420564
9137.000000;0.420975
9136.000000;0.421325
9135.000000;0.421612
9134.000000;0.421908
9133.000000;0.422346
9132.000000;0.422973
9131.000000;0.423630
9130.000000;0.424107
9129.000000;0.424416
9128.000000;0.424796
9127.000000;0.425417
9126.000000;0.426179
9125.000000;0.426861
9124.000000;0.427361
9123.000000;0.427715
9122.000000;0.427988
9121.000000;0.428227
9120.000000;0.428453
9119.000000;0.428636
9118.000000;0.428716
9117.000000;0.428736
9116.000000;0.428892
9115.000000;0.429366
9114.000000;0.430134
9113.000000;0.430978
9112.000000;0.431667
9111.000000;0.432110
9110.000000;0.432370
9109.000000;0.432597
9108.000000;0.432892
9107.000000;0.433223
9106.000000;0.433514
9105.000000;0.433833
9104.000000;0.434366
9103.000000;0.435148
9102.000000;0.435930
9101.000000;0.436408
9100.000000;0.436554
9099.000000;0.436595
9098.000000;0.436735
9097.000000;0.436994
9096.000000;0.437313
9095.000000;0.437669
9094.000000;0.438080
9093.000000;0.438564
9092.000000;0.439097
9091.000000;0.439586
9090.000000;0.439900
9089.000000;0.440017
9088.000000;0.440108
9087.000000;0.440401
9086.000000;0.440954
9085.000000;0.441636
9084.000000;0.442329
9083.000000;0.443020
9082.000000;0.443707
9081.000000;0.444298
9080.000000;0.444689
9079.000000;0.444871
9078.000000;0.444924
9077.000000;0.444931
9076.000000;0.444959
9075.000000;0.445066
9074.000000;0.445286
9073.000000;0.445593
9072.000000;0.445919
9071.000000;0.446196
9070.000000;0.446397
9069.000000;0.446558
9068.000000;0.446760
9067.000000;0.447064
9066.000000;0.447457
9065.000000;0.447870
9064.000000;0.448266
9063.000000;0.448655
9062.000000;0.449030
9061.000000;0.449322
9060.000000;0.449463
9059.000000;0.449489
9058.000000;0.449548
9057.000000;0.449793
9056.000000;0.450243
9055.000000;0.450752
9054.000000;0.451138
9053.000000;0.451369
