Criado como novo conjunto de dados;"0307_DANIEL.spp","13142.6 Secs"
cm-1;Abs
10000.000000;0.784013
9999.000000;0.782928
9998.000000;0.781885
9997.000000;0.780761
9996.000000;0.780064
9995.000000;0.779830
9994.000000;0.779425
9993.000000;0.778574
9992.000000;0.777303
9991.000000;0.775849
9990.000000;0.774323
9989.000000;0.772774
9988.000000;0.771275
9987.000000;0.769867
9986.000000;0.768487
9985.000000;0.767127
9984.000000;0.765925
9983.000000;0.764959
9982.000000;0.764071
9981.000000;0.763078
9980.000000;0.762058
9979.000000;0.761220
9978.000000;0.760567
9977.000000;0.759894
9976.000000;0.759063
9975.000000;0.758041
9974.000000;0.756727
9973.000000;0.755020
9972.000000;0.753120
9971.000000;0.751476
9970.000000;0.750340
9969.000000;0.749512
9968.000000;0.748589
9967.000000;0.747343
9966.000000;0.745827
9965.000000;0.744257
9964.000000;0.742869
9963.000000;0.741743
9962.000000;0.740711
9961.000000;0.739546
9960.000000;0.738257
9959.000000;0.737080
9958.000000;0.736154
9957.000000;0.735344
9956.000000;0.734415
9955.000000;0.733245
9954.000000;0.731838
9953.000000;0.730260
9952.000000;0.728648
9951.000000;0.727171
9950.000000;0.725891
9949.000000;0.724740
9948.000000;0.723658
9947.000000;0.722666
9946.000000;0.721751
9945.000000;0.720772
9944.000000;0.719555
9943.000000;0.718068
9942.000000;0.716489
9941.000000;0.715128
9940.000000;0.714201
9939.000000;0.713586
9938.000000;0.712852
9937.000000;0.711635
9936.000000;0.709974
9935.000000;0.708195
9934.000000;0.706510
9933.000000;0.704896
9932.000000;0.703303
9931.000000;0.701808
9930.000000;0.700529
9929.000000;0.699515
9928.000000;0.698746
9927.000000;0.698102
9926.000000;0.697328
9925.000000;0.696157
9924.000000;0.694544
9923.000000;0.692719
9922.000000;0.690981
9921.000000;0.689522
9920.000000;0.688386
9919.000000;0.687473
9918.000000;0.686571
9917.000000;0.685505
9916.000000;0.684286
9915.000000;0.683035
9914.000000;0.681799
9913.000000;0.680517
9912.000000;0.679129
9911.000000;0.677610
9910.000000;0.675961
9909.000000;0.674304
9908.000000;0.672905
9907.000000;0.671908
9906.000000;0.671096
9905.000000;0.670079
9904.000000;0.668729
9903.000000;0.667250
9902.000000;0.665849
9901.000000;0.664535
9900.000000;0.663231
9899.000000;0.661883
9898.000000;0.660421
9897.000000;0.658827
9896.000000;0.657276
9895.000000;0.656012
9894.000000;0.655028
9893.000000;0.654046
9892.000000;0.652853
9891.000000;0.651493
9890.000000;0.650075
9889.000000;0.648606
9888.000000;0.647101
9887.000000;0.645683
9886.000000;0.644435
9885.000000;0.643279
9884.000000;0.642085
9883.000000;0.640826
9882.000000;0.639554
9881.000000;0.638345
9880.000000;0.637275
9879.000000;0.636305
9878.000000;0.635169
9877.000000;0.633586
9876.000000;0.631660
9875.000000;0.629888
9874.000000;0.628638
9873.000000;0.627752
9872.000000;0.626774
9871.000000;0.625406
9870.000000;0.623638
9869.000000;0.621609
9868.000000;0.619556
9867.000000;0.617803
9866.000000;0.616568
9865.000000;0.615720
9864.000000;0.614872
9863.000000;0.613703
9862.000000;0.612168
9861.000000;0.610423
9860.000000;0.608660
9859.000000;0.607011
9858.000000;0.605501
9857.000000;0.604067
9856.000000;0.602651
9855.000000;0.601248
9854.000000;0.599849
9853.000000;0.598396
9852.000000;0.596848
9851.000000;0.595273
9850.000000;0.593815
9849.000000;0.592562
9848.000000;0.591461
9847.000000;0.590364
9846.000000;0.589146
9845.000000;0.587773
9844.000000;0.586286
9843.000000;0.584717
9842.000000;0.583076
9841.000000;0.581423
9840.000000;0.579869
9839.000000;0.578450
9838.000000;0.577030
9837.000000;0.575424
9836.000000;0.573598
9835.000000;0.571685
9834.000000;0.569863
9833.000000;0.568285
9832.000000;0.567072
9831.000000;0.566235
9830.000000;0.565569
9829.000000;0.564771
9828.000000;0.563656
9827.000000;0.562202
9826.000000;0.560429
9825.000000;0.558399
9824.000000;0.556315
9823.000000;0.554468
9822.000000;0.552959
9821.000000;0.551594
9820.000000;0.550097
9819.000000;0.548368
9818.000000;0.546485
9817.000000;0.544557
9816.000000;0.542686
9815.000000;0.540972
9814.000000;0.539459
9813.000000;0.538062
9812.000000;0.536654
9811.000000;0.535212
9810.000000;0.533841
9809.000000;0.532622
9808.000000;0.531501
9807.000000;0.530360
9806.000000;0.529173
9805.000000;0.528019
9804.000000;0.526904
9803.000000;0.525642
9802.000000;0.524008
9801.000000;0.521983
9800.000000;0.519770
9799.000000;0.517585
9798.000000;0.515548
9797.000000;0.513768
9796.000000;0.512321
9795.000000;0.511082
9794.000000;0.509754
9793.000000;0.508197
9792.000000;0.506597
9791.000000;0.505149
9790.000000;0.503710
9789.000000;0.501932
9788.000000;0.499707
9787.000000;0.497314
9786.000000;0.495161
9785.000000;0.493524
9784.000000;0.492429
9783.000000;0.491610
9782.000000;0.490604
9781.000000;0.489116
9780.000000;0.487318
9779.000000;0.485656
9778.000000;0.484336
9777.000000;0.483125
9776.000000;0.481646
9775.000000;0.479734
9774.000000;0.477496
9773.000000;0.475195
9772.000000;0.473128
9771.000000;0.471471
9770.000000;0.470145
9769.000000;0.468869
9768.000000;0.467405
9767.000000;0.465732
9766.000000;0.464000
9765.000000;0.462372
9764.000000;0.460871
9763.000000;0.459352
9762.000000;0.457645
9761.000000;0.455766
9760.000000;0.453920
9759.000000;0.452240
9758.000000;0.450655
9757.000000;0.449066
9756.000000;0.447525
9755.000000;0.446089
9754.000000;0.444622
9753.000000;0.442948
9752.000000;0.441102
9751.000000;0.439230
9750.000000;0.437312
9749.000000;0.435223
9748.000000;0.433017
9747.000000;0.430933
9746.000000;0.429089
9745.000000;0.427409
9744.000000;0.425846
9743.000000;0.424466
9742.000000;0.423231
9741.000000;0.421890
9740.000000;0.420199
9739.000000;0.418152
9738.000000;0.415958
9737.000000;0.413884
9736.000000;0.412123
9735.000000;0.410669
9734.000000;0.409289
9733.000000;0.407739
9732.000000;0.405993
9731.000000;0.404164
9730.000000;0.402273
9729.000000;0.400250
9728.000000;0.398150
9727.000000;0.396136
9726.000000;0.394251
9725.000000;0.392401
9724.000000;0.390570
9723.000000;0.388827
9722.000000;0.387110
9721.000000;0.385215
9720.000000;0.383114
9719.000000;0.381053
9718.000000;0.379249
9717.000000;0.377647
9716.000000;0.376063
9715.000000;0.374395
9714.000000;0.372588
9713.000000;0.370585
9712.000000;0.368466
9711.000000;0.366495
9710.000000;0.364875
9709.000000;0.363491
9708.000000;0.362018
9707.000000;0.360196
9706.000000;0.357963
9705.000000;0.355427
9704.000000;0.352845
9703.000000;0.350535
9702.000000;0.348654
9701.000000;0.347059
9700.000000;0.345451
9699.000000;0.343647
9698.000000;0.341684
9697.000000;0.339710
9696.000000;0.337857
9695.000000;0.336170
9694.000000;0.334593
9693.000000;0.333010
9692.000000;0.331285
9691.000000;0.329271
9690.000000;0.326881
9689.000000;0.324244
9688.000000;0.321726
9687.000000;0.319636
9686.000000;0.317904
9685.000000;0.316168
9684.000000;0.314173
9683.000000;0.312001
9682.000000;0.309911
9681.000000;0.308083
9680.000000;0.306522
9679.000000;0.305047
9678.000000;0.303360
9677.000000;0.301274
9676.000000;0.298947
9675.000000;0.296735
9674.000000;0.294783
9673.000000;0.292882
9672.000000;0.290777
9671.000000;0.288452
9670.000000;0.286066
9669.000000;0.283772
9668.000000;0.281706
9667.000000;0.279961
9666.000000;0.278423
9665.000000;0.276756
9664.000000;0.274730
9663.000000;0.272493
9662.000000;0.270370
9661.000000;0.268434
9660.000000;0.266439
9659.000000;0.264167
9658.000000;0.261693
9657.000000;0.259270
9656.000000;0.257060
9655.000000;0.255037
9654.000000;0.253100
9653.000000;0.251197
9652.000000;0.249331
9651.000000;0.247482
9650.000000;0.245570
9649.000000;0.243530
9648.000000;0.241374
9647.000000;0.239132
9646.000000;0.236793
9645.000000;0.234357
9644.000000;0.231934
9643.000000;0.229678
9642.000000;0.227614
9641.000000;0.225603
9640.000000;0.223508
9639.000000;0.221339
9638.000000;0.219219
9637.000000;0.217237
9636.000000;0.215348
9635.000000;0.213401
9634.000000;0.211266
9633.000000;0.208970
9632.000000;0.206654
9631.000000;0.204372
9630.000000;0.202031
9629.000000;0.199592
9628.000000;0.197247
9627.000000;0.195211
9626.000000;0.193391
9625.000000;0.191421
9624.000000;0.189093
9623.000000;0.186583
9622.000000;0.184215
9621.000000;0.182091
9620.000000;0.180054
9619.000000;0.177923
9618.000000;0.175688
9617.000000;0.173461
9616.000000;0.171317
9615.000000;0.169201
9614.000000;0.167015
9613.000000;0.164762
9612.000000;0.162528
9611.000000;0.160309
9610.000000;0.157986
9609.000000;0.155541
9608.000000;0.153173
9607.000000;0.151049
9606.000000;0.149049
9605.000000;0.146926
9604.000000;0.144642
9603.000000;0.142358
9602.000000;0.140104
9601.000000;0.137727
9600.000000;0.135181
9599.000000;0.132665
9598.000000;0.130384
9597.000000;0.128306
9596.000000;0.126261
9595.000000;0.124103
9594.000000;0.121738
9593.000000;0.119128
9592.000000;0.116422
9591.000000;0.113940
9590.000000;0.111865
9589.000000;0.110021
9588.000000;0.108056
9587.000000;0.105829
9586.000000;0.103510
9585.000000;0.101307
9584.000000;0.099191
9583.000000;0.096930
9582.000000;0.094363
9581.000000;0.091610
9580.000000;0.088983
9579.000000;0.086679
9578.000000;0.084588
9577.000000;0.082433
9576.000000;0.080068
9575.000000;0.077592
9574.000000;0.075179
9573.000000;0.072881
9572.000000;0.070601
9571.000000;0.068196
9570.000000;0.065633
9569.000000;0.063043
9568.000000;0.060592
9567.000000;0.058286
9566.000000;0.055973
9565.000000;0.053607
9564.000000;0.051372
9563.000000;0.049439
9562.000000;0.047667
9561.000000;0.045733
9560.000000;0.043501
9559.000000;0.041100
9558.000000;0.038671
9557.000000;0.036230
9556.000000;0.033795
9555.000000;0.031448
9554.000000;0.029204
9553.000000;0.026952
9552.000000;0.024621
9551.000000;0.022291
9550.000000;0.020090
9549.000000;0.018046
9548.000000;0.016101
9547.000000;0.014160
9546.000000;0.012101
9545.000000;0.009852
9544.000000;0.007517
9543.000000;0.005303
9542.000000;0.003275
9541.000000;0.001244
9540.000000;-0.001002
9539.000000;-0.003445
9538.000000;-0.005873
9537.000000;-0.008129
9536.000000;-0.010254
9535.000000;-0.012411
9534.000000;-0.014709
9533.000000;-0.017087
9532.000000;-0.019379
9531.000000;-0.021489
9530.000000;-0.023483
9529.000000;-0.025478
9528.000000;-0.027469
9527.000000;-0.029365
9526.000000;-0.031151
9525.000000;-0.032943
9524.000000;-0.034879
9523.000000;-0.037015
9522.000000;-0.039286
9521.000000;-0.041509
9520.000000;-0.043475
9519.000000;-0.045167
9518.000000;-0.046830
9517.000000;-0.048698
9516.000000;-0.050712
9515.000000;-0.052638
9514.000000;-0.054425
9513.000000;-0.056231
9512.000000;-0.058123
9511.000000;-0.059991
9510.000000;-0.061795
9509.000000;-0.063669
9508.000000;-0.065654
9507.000000;-0.067540
9506.000000;-0.069151
9505.000000;-0.070638
9504.000000;-0.072319
9503.000000;-0.074265
9502.000000;-0.076210
9501.000000;-0.077877
9500.000000;-0.079276
9499.000000;-0.080678
9498.000000;-0.082328
9497.000000;-0.084193
9496.000000;-0.085976
9495.000000;-0.087428
9494.000000;-0.088646
9493.000000;-0.089963
9492.000000;-0.091525
9491.000000;-0.093117
9490.000000;-0.094474
9489.000000;-0.095621
9488.000000;-0.096785
9487.000000;-0.098060
9486.000000;-0.099320
9485.000000;-0.100448
9484.000000;-0.101509
9483.000000;-0.102661
9482.000000;-0.103964
9481.000000;-0.105300
9480.000000;-0.106465
9479.000000;-0.107356
9478.000000;-0.108081
9477.000000;-0.108885
9476.000000;-0.109921
9475.000000;-0.111146
9474.000000;-0.112415
9473.000000;-0.113624
9472.000000;-0.114708
9471.000000;-0.115604
9470.000000;-0.116306
9469.000000;-0.116944
9468.000000;-0.117707
9467.000000;-0.118673
9466.000000;-0.119736
9465.000000;-0.120714
9464.000000;-0.121506
9463.000000;-0.122139
9462.000000;-0.122703
9461.000000;-0.123254
9460.000000;-0.123797
9459.000000;-0.124341
9458.000000;-0.124938
9457.000000;-0.125607
9456.000000;-0.126265
9455.000000;-0.126797
9454.000000;-0.127193
9453.000000;-0.127533
9452.000000;-0.127852
9451.000000;-0.128106
9450.000000;-0.128309
9449.000000;-0.128582
9448.000000;-0.128986
9447.000000;-0.129383
9446.000000;-0.129552
9445.000000;-0.129421
9444.000000;-0.129107
9443.000000;-0.128773
9442.000000;-0.128518
9441.000000;-0.128414
9440.000000;-0.128507
9439.000000;-0.128740
9438.000000;-0.128944
9437.000000;-0.128980
9436.000000;-0.128870
9435.000000;-0.128717
9434.000000;-0.128513
9433.000000;-0.128121
9432.000000;-0.127514
9431.000000;-0.126935
9430.000000;-0.126714
9429.000000;-0.126908
9428.000000;-0.127212
9427.000000;-0.127248
9426.000000;-0.126887
9425.000000;-0.126259
9424.000000;-0.125559
9423.000000;-0.124926
9422.000000;-0.124432
9421.000000;-0.124047
9420.000000;-0.123622
9419.000000;-0.123019
9418.000000;-0.122281
9417.000000;-0.121605
9416.000000;-0.121116
9415.000000;-0.120734
9414.000000;-0.120289
9413.000000;-0.119710
9412.000000;-0.119072
9411.000000;-0.118470
9410.000000;-0.117898
9409.000000;-0.117274
9408.000000;-0.116568
9407.000000;-0.115868
9406.000000;-0.115267
9405.000000;-0.114698
9404.000000;-0.113968
9403.000000;-0.112992
9402.000000;-0.111921
9401.000000;-0.110973
9400.000000;-0.110200
9399.000000;-0.109501
9398.000000;-0.108771
9397.000000;-0.107943
9396.000000;-0.106941
9395.000000;-0.105747
9394.000000;-0.104514
9393.000000;-0.103474
9392.000000;-0.102685
9391.000000;-0.101972
9390.000000;-0.101154
9389.000000;-0.100234
9388.000000;-0.099321
9387.000000;-0.098442
9386.000000;-0.097497
9385.000000;-0.096377
9384.000000;-0.095094
9383.000000;-0.093773
9382.000000;-0.092547
9381.000000;-0.091435
9380.000000;-0.090355
9379.000000;-0.089255
9378.000000;-0.088188
9377.000000;-0.087204
9376.000000;-0.086261
9375.000000;-0.085282
9374.000000;-0.084265
9373.000000;-0.083229
9372.000000;-0.082112
9371.000000;-0.080842
9370.000000;-0.079507
9369.000000;-0.078317
9368.000000;-0.077379
9367.000000;-0.076564
9366.000000;-0.075632
9365.000000;-0.074422
9364.000000;-0.072936
9363.000000;-0.071342
9362.000000;-0.069890
9361.000000;-0.068729
9360.000000;-0.067762
9359.000000;-0.066755
9358.000000;-0.065588
9357.000000;-0.064332
9356.000000;-0.063088
9355.000000;-0.061830
9354.000000;-0.060457
9353.000000;-0.058934
9352.000000;-0.057367
9351.000000;-0.055964
9350.000000;-0.054913
9349.000000;-0.054227
9348.000000;-0.053692
9347.000000;-0.053008
9346.000000;-0.052000
9345.000000;-0.050687
9344.000000;-0.049209
9343.000000;-0.047747
9342.000000;-0.046442
9341.000000;-0.045280
9340.000000;-0.044078
9339.000000;-0.042691
9338.000000;-0.041213
9337.000000;-0.039866
9336.000000;-0.038715
9335.000000;-0.037619
9334.000000;-0.036445
9333.000000;-0.035213
9332.000000;-0.033998
9331.000000;-0.032832
9330.000000;-0.031726
9329.000000;-0.030680
9328.000000;-0.029634
9327.000000;-0.028497
9326.000000;-0.027270
9325.000000;-0.026047
9324.000000;-0.024868
9323.000000;-0.023680
9322.000000;-0.022451
9321.000000;-0.021245
9320.000000;-0.020123
9319.000000;-0.019066
9318.000000;-0.018004
9317.000000;-0.016873
9316.000000;-0.015640
9315.000000;-0.014371
9314.000000;-0.013236
9313.000000;-0.012335
9312.000000;-0.011493
9311.000000;-0.010388
9310.000000;-0.008924
9309.000000;-0.007339
9308.000000;-0.005924
9307.000000;-0.004746
9306.000000;-0.003703
9305.000000;-0.002705
9304.000000;-0.001697
9303.000000;-0.000632
9302.000000;0.000469
9301.000000;0.001512
9300.000000;0.002471
9299.000000;0.003480
9298.000000;0.004677
9297.000000;0.006037
9296.000000;0.007424
9295.000000;0.008753
9294.000000;0.010019
9293.000000;0.011231
9292.000000;0.012381
9291.000000;0.013474
9290.000000;0.014519
9289.000000;0.015521
9288.000000;0.016498
9287.000000;0.017458
9286.000000;0.018350
9285.000000;0.019150
9284.000000;0.020004
9283.000000;0.021153
9282.000000;0.022625
9281.000000;0.024135
9280.000000;0.025379
9279.000000;0.026349
9278.000000;0.027249
9277.000000;0.028179
9276.000000;0.029062
9275.000000;0.029860
9274.000000;0.030681
9273.000000;0.031665
9272.000000;0.032836
9271.000000;0.034118
9270.000000;0.035412
9269.000000;0.036616
9268.000000;0.037640
9267.000000;0.038472
9266.000000;0.039210
9265.000000;0.039985
9264.000000;0.040847
9263.000000;0.041748
9262.000000;0.042661
9261.000000;0.043673
9260.000000;0.044875
9259.000000;0.046171
9258.000000;0.047293
9257.000000;0.048089
9256.000000;0.048729
9255.000000;0.049509
9254.000000;0.050507
9253.000000;0.051541
9252.000000;0.052475
9251.000000;0.053396
9250.000000;0.054455
9249.000000;0.055630
9248.000000;0.056745
9247.000000;0.057667
9246.000000;0.058417
9245.000000;0.059131
9244.000000;0.059929
9243.000000;0.060791
9242.000000;0.061550
9241.000000;0.062094
9240.000000;0.062581
9239.000000;0.063331
9238.000000;0.064482
9237.000000;0.065813
9236.000000;0.066982
9235.000000;0.067848
9234.000000;0.068516
9233.000000;0.069168
9232.000000;0.069942
9231.000000;0.070920
9230.000000;0.072108
9229.000000;0.073426
9228.000000;0.074724
9227.000000;0.075831
9226.000000;0.076612
9225.000000;0.077077
9224.000000;0.077438
9223.000000;0.077979
9222.000000;0.078788
9221.000000;0.079704
9220.000000;0.080538
9219.000000;0.081273
9218.000000;0.081982
9217.000000;0.082679
9216.000000;0.083358
9215.000000;0.084094
9214.000000;0.084971
9213.000000;0.085929
9212.000000;0.086803
9211.000000;0.087524
9210.000000;0.088180
9209.000000;0.088876
9208.000000;0.089611
9207.000000;0.090322
9206.000000;0.090995
9205.000000;0.091685
9204.000000;0.092459
9203.000000;0.093332
9202.000000;0.094244
9201.000000;0.095102
9200.000000;0.095865
9199.000000;0.096587
9198.000000;0.097347
9197.000000;0.098142
9196.000000;0.098884
9195.000000;0.099508
9194.000000;0.100052
9193.000000;0.100606
9192.000000;0.101196
9191.000000;0.101760
9190.000000;0.102267
9189.000000;0.102824
9188.000000;0.103589
9187.000000;0.104575
9186.000000;0.105604
9185.000000;0.106491
9184.000000;0.107225
9183.000000;0.107901
9182.000000;0.108559
9181.000000;0.109181
9180.000000;0.109809
9179.000000;0.110509
9178.000000;0.111227
9177.000000;0.111824
9176.000000;0.112303
9175.000000;0.112853
9174.000000;0.113606
9173.000000;0.114433
9172.000000;0.115118
9171.000000;0.115640
9170.000000;0.116164
9169.000000;0.116801
9168.000000;0.117503
9167.000000;0.118180
9166.000000;0.118808
9165.000000;0.119393
9164.000000;0.119928
9163.000000;0.120441
9162.000000;0.121016
9161.000000;0.121684
9160.000000;0.122330
9159.000000;0.122796
9158.000000;0.123082
9157.000000;0.123401
9156.000000;0.123974
9155.000000;0.124802
9154.000000;0.125674
9153.000000;0.126388
9152.000000;0.126907
9151.000000;0.127303
9150.000000;0.127638
9149.000000;0.127943
9148.000000;0.128280
9147.000000;0.128719
9146.000000;0.129282
9145.000000;0.129926
9144.000000;0.130608
9143.000000;0.131308
9142.000000;0.132009
9141.000000;0.132672
9140.000000;0.133258
9139.000000;0.133742
9138.000000;0.134124
9137.000000;0.134444
9136.000000;0.134776
9135.000000;0.135183
9134.000000;0.135674
9133.000000;0.136235
9132.000000;0.136844
9131.000000;0.137450
9130.000000;0.137983
9129.000000;0.138425
9128.000000;0.138836
9127.000000;0.139261
9126.000000;0.139666
9125.000000;0.140032
9124.000000;0.140453
9123.000000;0.141034
9122.000000;0.141711
9121.000000;0.142277
9120.000000;0.142599
9119.000000;0.142742
9118.000000;0.142889
9117.000000;0.143207
9116.000000;0.143790
9115.000000;0.144599
9114.000000;0.145430
9113.000000;0.146053
9112.000000;0.146430
9111.000000;0.146745
9110.000000;0.147179
9109.000000;0.147727
9108.000000;0.148276
9107.000000;0.148777
9106.000000;0.149259
9105.000000;0.149745
9104.000000;0.150220
9103.000000;0.150672
9102.000000;0.151098
9101.000000;0.151473
9100.000000;0.151780
9099.000000;0.152072
9098.000000;0.152452
9097.000000;0.152970
9096.000000;0.153547
9095.000000;0.154037
9094.000000;0.154361
9093.000000;0.154578
9092.000000;0.154824
9091.000000;0.155183
9090.000000;0.155632
9089.000000;0.156099
9088.000000;0.156516
9087.000000;0.156813
9086.000000;0.156948
9085.000000;0.156994
9084.000000;0.157149
9083.000000;0.157586
9082.000000;0.158280
9081.000000;0.159027
9080.000000;0.159620
9079.000000;0.159989
9078.000000;0.160205
9077.000000;0.160409
9076.000000;0.160719
9075.000000;0.161141
9074.000000;0.161570
9073.000000;0.161920
9072.000000;0.162208
9071.000000;0.162508
9070.000000;0.162831
9069.000000;0.163153
9068.000000;0.163492
9067.000000;0.163895
9066.000000;0.164329
9065.000000;0.164683
9064.000000;0.164890
