Criado como novo conjunto de dados;"0307_DANIEL.spp","21783.1 Secs"
cm-1;Abs
10000.000000;1.039943
9999.000000;1.038960
9998.000000;1.038014
9997.000000;1.036999
9996.000000;1.036308
9995.000000;1.035763
9994.000000;1.034692
9993.000000;1.033055
9992.000000;1.031276
9991.000000;1.029889
9990.000000;1.028980
9989.000000;1.028263
9988.000000;1.027510
9987.000000;1.026732
9986.000000;1.025914
9985.000000;1.024878
9984.000000;1.023534
9983.000000;1.022109
9982.000000;1.020906
9981.000000;1.019970
9980.000000;1.019110
9979.000000;1.018145
9978.000000;1.016961
9977.000000;1.015477
9976.000000;1.013769
9975.000000;1.012182
9974.000000;1.011054
9973.000000;1.010298
9972.000000;1.009418
9971.000000;1.008030
9970.000000;1.006283
9969.000000;1.004715
9968.000000;1.003718
9967.000000;1.003160
9966.000000;1.002493
9965.000000;1.001259
9964.000000;0.999548
9963.000000;0.997882
9962.000000;0.996622
9961.000000;0.995587
9960.000000;0.994341
9959.000000;0.992728
9958.000000;0.990950
9957.000000;0.989217
9956.000000;0.987597
9955.000000;0.986217
9954.000000;0.985339
9953.000000;0.985027
9952.000000;0.984874
9951.000000;0.984238
9950.000000;0.982822
9949.000000;0.980934
9948.000000;0.979157
9947.000000;0.977831
9946.000000;0.976867
9945.000000;0.975986
9944.000000;0.975010
9943.000000;0.973911
9942.000000;0.972715
9941.000000;0.971492
9940.000000;0.970382
9939.000000;0.969445
9938.000000;0.968473
9937.000000;0.967109
9936.000000;0.965293
9935.000000;0.963458
9934.000000;0.962142
9933.000000;0.961414
9932.000000;0.960766
9931.000000;0.959585
9930.000000;0.957699
9929.000000;0.955507
9928.000000;0.953607
9927.000000;0.952281
9926.000000;0.951309
9925.000000;0.950285
9924.000000;0.949045
9923.000000;0.947707
9922.000000;0.946357
9921.000000;0.944914
9920.000000;0.943346
9919.000000;0.941835
9918.000000;0.940577
9917.000000;0.939530
9916.000000;0.938485
9915.000000;0.937335
9914.000000;0.936139
9913.000000;0.934943
9912.000000;0.933655
9911.000000;0.932145
9910.000000;0.930439
9909.000000;0.928766
9908.000000;0.927361
9907.000000;0.926188
9906.000000;0.924953
9905.000000;0.923483
9904.000000;0.922004
9903.000000;0.920838
9902.000000;0.919893
9901.000000;0.918732
9900.000000;0.917161
9899.000000;0.915482
9898.000000;0.914057
9897.000000;0.912875
9896.000000;0.911714
9895.000000;0.910500
9894.000000;0.909293
9893.000000;0.908089
9892.000000;0.906818
9891.000000;0.905415
9890.000000;0.903797
9889.000000;0.901942
9888.000000;0.900126
9887.000000;0.898796
9886.000000;0.897980
9885.000000;0.897097
9884.000000;0.895670
9883.000000;0.894011
9882.000000;0.892791
9881.000000;0.892078
9880.000000;0.891273
9879.000000;0.889962
9878.000000;0.888353
9877.000000;0.886804
9876.000000;0.885350
9875.000000;0.883883
9874.000000;0.882441
9873.000000;0.881056
9872.000000;0.879592
9871.000000;0.877999
9870.000000;0.876535
9869.000000;0.875466
9868.000000;0.874669
9867.000000;0.873753
9866.000000;0.872513
9865.000000;0.871074
9864.000000;0.869639
9863.000000;0.868285
9862.000000;0.867012
9861.000000;0.865811
9860.000000;0.864587
9859.000000;0.863137
9858.000000;0.861304
9857.000000;0.859155
9856.000000;0.856921
9855.000000;0.854778
9854.000000;0.852733
9853.000000;0.850784
9852.000000;0.849097
9851.000000;0.847896
9850.000000;0.847147
9849.000000;0.846479
9848.000000;0.845508
9847.000000;0.844183
9846.000000;0.842717
9845.000000;0.841264
9844.000000;0.839779
9843.000000;0.838152
9842.000000;0.836348
9841.000000;0.834420
9840.000000;0.832489
9839.000000;0.830709
9838.000000;0.829160
9837.000000;0.827788
9836.000000;0.826509
9835.000000;0.825318
9834.000000;0.824208
9833.000000;0.823055
9832.000000;0.821712
9831.000000;0.820199
9830.000000;0.818678
9829.000000;0.817290
9828.000000;0.816079
9827.000000;0.815035
9826.000000;0.814039
9825.000000;0.812819
9824.000000;0.811113
9823.000000;0.808929
9822.000000;0.806542
9821.000000;0.804242
9820.000000;0.802205
9819.000000;0.800554
9818.000000;0.799338
9817.000000;0.798358
9816.000000;0.797195
9815.000000;0.795555
9814.000000;0.793582
9813.000000;0.791717
9812.000000;0.790262
9811.000000;0.789101
9810.000000;0.787812
9809.000000;0.786052
9808.000000;0.783850
9807.000000;0.781585
9806.000000;0.779679
9805.000000;0.778334
9804.000000;0.777453
9803.000000;0.776685
9802.000000;0.775544
9801.000000;0.773677
9800.000000;0.771191
9799.000000;0.768635
9798.000000;0.766551
9797.000000;0.765066
9796.000000;0.763935
9795.000000;0.762856
9794.000000;0.761604
9793.000000;0.760039
9792.000000;0.758196
9791.000000;0.756380
9790.000000;0.754950
9789.000000;0.753977
9788.000000;0.753161
9787.000000;0.752064
9786.000000;0.750386
9785.000000;0.748149
9784.000000;0.745744
9783.000000;0.743683
9782.000000;0.742127
9781.000000;0.740730
9780.000000;0.739089
9779.000000;0.737218
9778.000000;0.735376
9777.000000;0.733600
9776.000000;0.731746
9775.000000;0.729902
9774.000000;0.728390
9773.000000;0.727291
9772.000000;0.726293
9771.000000;0.725077
9770.000000;0.723564
9769.000000;0.721734
9768.000000;0.719550
9767.000000;0.717196
9766.000000;0.715075
9765.000000;0.713356
9764.000000;0.711769
9763.000000;0.710033
9762.000000;0.708225
9761.000000;0.706531
9760.000000;0.704885
9759.000000;0.703159
9758.000000;0.701496
9757.000000;0.700141
9756.000000;0.699015
9755.000000;0.697779
9754.000000;0.696271
9753.000000;0.694595
9752.000000;0.692799
9751.000000;0.690742
9750.000000;0.688376
9749.000000;0.685956
9748.000000;0.683851
9747.000000;0.682238
9746.000000;0.681007
9745.000000;0.679863
9744.000000;0.678468
9743.000000;0.676599
9742.000000;0.674293
9741.000000;0.671853
9740.000000;0.669659
9739.000000;0.667924
9738.000000;0.666543
9737.000000;0.665190
9736.000000;0.663607
9735.000000;0.661830
9734.000000;0.660058
9733.000000;0.658335
9732.000000;0.656494
9731.000000;0.654455
9730.000000;0.652394
9729.000000;0.650509
9728.000000;0.648772
9727.000000;0.647050
9726.000000;0.645365
9725.000000;0.643820
9724.000000;0.642334
9723.000000;0.640630
9722.000000;0.638531
9721.000000;0.636160
9720.000000;0.633843
9719.000000;0.631892
9718.000000;0.630418
9717.000000;0.629225
9716.000000;0.627882
9715.000000;0.626045
9714.000000;0.623734
9713.000000;0.621223
9712.000000;0.618730
9711.000000;0.616312
9710.000000;0.614005
9709.000000;0.611886
9708.000000;0.609990
9707.000000;0.608304
9706.000000;0.606846
9705.000000;0.605608
9704.000000;0.604396
9703.000000;0.602907
9702.000000;0.601037
9701.000000;0.599011
9700.000000;0.597115
9699.000000;0.595414
9698.000000;0.593778
9697.000000;0.592051
9696.000000;0.590112
9695.000000;0.587876
9694.000000;0.585378
9693.000000;0.582830
9692.000000;0.580486
9691.000000;0.578427
9690.000000;0.576530
9689.000000;0.574623
9688.000000;0.572613
9687.000000;0.570508
9686.000000;0.568410
9685.000000;0.566486
9684.000000;0.564851
9683.000000;0.563424
9682.000000;0.561918
9681.000000;0.560031
9680.000000;0.557683
9679.000000;0.555068
9678.000000;0.552490
9677.000000;0.550145
9676.000000;0.548065
9675.000000;0.546224
9674.000000;0.544649
9673.000000;0.543359
9672.000000;0.542192
9671.000000;0.540758
9670.000000;0.538680
9669.000000;0.535908
9668.000000;0.532826
9667.000000;0.530003
9666.000000;0.527793
9665.000000;0.526114
9664.000000;0.524543
9663.000000;0.522655
9662.000000;0.520339
9661.000000;0.517852
9660.000000;0.515579
9659.000000;0.513698
9658.000000;0.512022
9657.000000;0.510142
9656.000000;0.507781
9655.000000;0.505043
9654.000000;0.502327
9653.000000;0.499963
9652.000000;0.497925
9651.000000;0.495914
9650.000000;0.493709
9649.000000;0.491423
9648.000000;0.489368
9647.000000;0.487665
9646.000000;0.486053
9645.000000;0.484156
9644.000000;0.481913
9643.000000;0.479641
9642.000000;0.477605
9641.000000;0.475648
9640.000000;0.473386
9639.000000;0.470738
9638.000000;0.468101
9637.000000;0.465919
9636.000000;0.464203
9635.000000;0.462557
9634.000000;0.460587
9633.000000;0.458192
9632.000000;0.455532
9631.000000;0.452874
9630.000000;0.450475
9629.000000;0.448447
9628.000000;0.446633
9627.000000;0.444688
9626.000000;0.442382
9625.000000;0.439827
9624.000000;0.437349
9623.000000;0.435154
9622.000000;0.433158
9621.000000;0.431149
9620.000000;0.429057
9619.000000;0.427005
9618.000000;0.425104
9617.000000;0.423233
9616.000000;0.421094
9615.000000;0.418494
9614.000000;0.415535
9613.000000;0.412505
9612.000000;0.409641
9611.000000;0.407028
9610.000000;0.404669
9609.000000;0.402530
9608.000000;0.400507
9607.000000;0.398439
9606.000000;0.396234
9605.000000;0.393942
9604.000000;0.391675
9603.000000;0.389455
9602.000000;0.387221
9601.000000;0.384955
9600.000000;0.382745
9599.000000;0.380682
9598.000000;0.378722
9597.000000;0.376719
9596.000000;0.374549
9595.000000;0.372179
9594.000000;0.369634
9593.000000;0.367007
9592.000000;0.364477
9591.000000;0.362216
9590.000000;0.360191
9589.000000;0.358136
9588.000000;0.355835
9587.000000;0.353385
9586.000000;0.351031
9585.000000;0.348774
9584.000000;0.346335
9583.000000;0.343547
9582.000000;0.340625
9581.000000;0.337934
9580.000000;0.335610
9579.000000;0.333556
9578.000000;0.331691
9577.000000;0.329981
9576.000000;0.328244
9575.000000;0.326144
9574.000000;0.323527
9573.000000;0.320630
9572.000000;0.317855
9571.000000;0.315383
9570.000000;0.313082
9569.000000;0.310759
9568.000000;0.308373
9567.000000;0.305985
9566.000000;0.303597
9565.000000;0.301136
9564.000000;0.298612
9563.000000;0.296196
9562.000000;0.294061
9561.000000;0.292155
9560.000000;0.290216
9559.000000;0.288046
9558.000000;0.285712
9557.000000;0.283412
9556.000000;0.281233
9555.000000;0.279101
9554.000000;0.276944
9553.000000;0.274753
9552.000000;0.272500
9551.000000;0.270114
9550.000000;0.267598
9549.000000;0.265075
9548.000000;0.262670
9547.000000;0.260396
9546.000000;0.258212
9545.000000;0.256117
9544.000000;0.254126
9543.000000;0.252184
9542.000000;0.250168
9541.000000;0.248003
9540.000000;0.245750
9539.000000;0.243590
9538.000000;0.241682
9537.000000;0.239999
9536.000000;0.238290
9535.000000;0.236304
9534.000000;0.234034
9533.000000;0.231678
9532.000000;0.229348
9531.000000;0.226958
9530.000000;0.224460
9529.000000;0.222042
9528.000000;0.219932
9527.000000;0.218095
9526.000000;0.216258
9525.000000;0.214217
9524.000000;0.211968
9523.000000;0.209562
9522.000000;0.207029
9521.000000;0.204487
9520.000000;0.202157
9519.000000;0.200120
9518.000000;0.198182
9517.000000;0.196122
9516.000000;0.194019
9515.000000;0.192184
9514.000000;0.190734
9513.000000;0.189381
9512.000000;0.187736
9511.000000;0.185750
9510.000000;0.183725
9509.000000;0.181924
9508.000000;0.180283
9507.000000;0.178559
9506.000000;0.176671
9505.000000;0.174760
9504.000000;0.172957
9503.000000;0.171223
9502.000000;0.169478
9501.000000;0.167779
9500.000000;0.166244
9499.000000;0.164841
9498.000000;0.163384
9497.000000;0.161761
9496.000000;0.160097
9495.000000;0.158639
9494.000000;0.157510
9493.000000;0.156594
9492.000000;0.155613
9491.000000;0.154306
9490.000000;0.152588
9489.000000;0.150618
9488.000000;0.148698
9487.000000;0.147068
9486.000000;0.145758
9485.000000;0.144597
9484.000000;0.143354
9483.000000;0.141914
9482.000000;0.140399
9481.000000;0.139120
9480.000000;0.138330
9479.000000;0.137966
9478.000000;0.137675
9477.000000;0.137121
9476.000000;0.136226
9475.000000;0.135069
9474.000000;0.133687
9473.000000;0.132095
9472.000000;0.130451
9471.000000;0.129019
9470.000000;0.127909
9469.000000;0.126993
9468.000000;0.126123
9467.000000;0.125316
9466.000000;0.124660
9465.000000;0.124106
9464.000000;0.123497
9463.000000;0.122748
9462.000000;0.121911
9461.000000;0.121109
9460.000000;0.120488
9459.000000;0.120181
9458.000000;0.120169
9457.000000;0.120170
9456.000000;0.119833
9455.000000;0.119092
9454.000000;0.118243
9453.000000;0.117628
9452.000000;0.117311
9451.000000;0.117117
9450.000000;0.116873
9449.000000;0.116533
9448.000000;0.116174
9447.000000;0.115937
9446.000000;0.115930
9445.000000;0.116079
9444.000000;0.116165
9443.000000;0.116055
9442.000000;0.115858
9441.000000;0.115753
9440.000000;0.115756
9439.000000;0.115767
9438.000000;0.115771
9437.000000;0.115830
9436.000000;0.115901
9435.000000;0.115835
9434.000000;0.115611
9433.000000;0.115457
9432.000000;0.115627
9431.000000;0.116133
9430.000000;0.116725
9429.000000;0.117115
9428.000000;0.117193
9427.000000;0.117081
9426.000000;0.117003
9425.000000;0.117105
9424.000000;0.117413
9423.000000;0.117958
9422.000000;0.118844
9421.000000;0.120067
9420.000000;0.121343
9419.000000;0.122291
9418.000000;0.122798
9417.000000;0.123058
9416.000000;0.123239
9415.000000;0.123317
9414.000000;0.123312
9413.000000;0.123485
9412.000000;0.124085
9411.000000;0.124997
9410.000000;0.125864
9409.000000;0.126528
9408.000000;0.127200
9407.000000;0.128138
9406.000000;0.129314
9405.000000;0.130452
9404.000000;0.131312
9403.000000;0.131876
9402.000000;0.132305
9401.000000;0.132802
9400.000000;0.133491
9399.000000;0.134370
9398.000000;0.135344
9397.000000;0.136290
9396.000000;0.137110
9395.000000;0.137774
9394.000000;0.138352
9393.000000;0.138995
9392.000000;0.139825
9391.000000;0.140835
9390.000000;0.141908
9389.000000;0.142909
9388.000000;0.143760
9387.000000;0.144479
9386.000000;0.145222
9385.000000;0.146233
9384.000000;0.147669
9383.000000;0.149407
9382.000000;0.151113
9381.000000;0.152507
9380.000000;0.153553
9379.000000;0.154369
9378.000000;0.155055
9377.000000;0.155675
9376.000000;0.156356
9375.000000;0.157264
9374.000000;0.158444
9373.000000;0.159755
9372.000000;0.161020
9371.000000;0.162219
9370.000000;0.163482
9369.000000;0.164905
9368.000000;0.166427
9367.000000;0.167887
9366.000000;0.169156
9365.000000;0.170193
9364.000000;0.171051
9363.000000;0.171869
9362.000000;0.172834
9361.000000;0.174056
9360.000000;0.175471
9359.000000;0.176874
9358.000000;0.178068
9357.000000;0.178993
9356.000000;0.179769
9355.000000;0.180660
9354.000000;0.181951
9353.000000;0.183718
9352.000000;0.185674
9351.000000;0.187348
9350.000000;0.188472
9349.000000;0.189193
9348.000000;0.189886
9347.000000;0.190813
9346.000000;0.191975
9345.000000;0.193203
9344.000000;0.194325
9343.000000;0.195300
9342.000000;0.196262
9341.000000;0.197382
9340.000000;0.198661
9339.000000;0.199914
9338.000000;0.201014
9337.000000;0.202070
9336.000000;0.203280
9335.000000;0.204671
9334.000000;0.206106
9333.000000;0.207465
9332.000000;0.208706
9331.000000;0.209790
9330.000000;0.210725
9329.000000;0.211660
9328.000000;0.212754
9327.000000;0.213944
9326.000000;0.215039
9325.000000;0.216082
9324.000000;0.217383
9323.000000;0.219065
9322.000000;0.220756
9321.000000;0.221950
9320.000000;0.222579
9319.000000;0.223048
9318.000000;0.223784
9317.000000;0.224926
9316.000000;0.226387
9315.000000;0.227975
9314.000000;0.229415
9313.000000;0.230483
9312.000000;0.231231
9311.000000;0.231983
9310.000000;0.233005
9309.000000;0.234280
9308.000000;0.235632
9307.000000;0.236961
9306.000000;0.238267
9305.000000;0.239565
9304.000000;0.240868
9303.000000;0.242190
9302.000000;0.243462
9301.000000;0.244517
9300.000000;0.245298
9299.000000;0.246025
9298.000000;0.247054
9297.000000;0.248508
9296.000000;0.250126
9295.000000;0.251470
9294.000000;0.252263
9293.000000;0.252573
9292.000000;0.252791
9291.000000;0.253394
9290.000000;0.254607
9289.000000;0.256218
9288.000000;0.257787
9287.000000;0.259051
9286.000000;0.260078
9285.000000;0.261054
9284.000000;0.262063
9283.000000;0.263122
9282.000000;0.264292
9281.000000;0.265596
9280.000000;0.266890
9279.000000;0.267961
9278.000000;0.268762
9277.000000;0.269485
9276.000000;0.270364
9275.000000;0.271469
9274.000000;0.272685
9273.000000;0.273838
9272.000000;0.274849
9271.000000;0.275808
9270.000000;0.276883
9269.000000;0.278107
9268.000000;0.279265
9267.000000;0.280071
9266.000000;0.280483
9265.000000;0.280800
9264.000000;0.281432
9263.000000;0.282608
9262.000000;0.284250
9261.000000;0.286035
9260.000000;0.287575
9259.000000;0.288625
9258.000000;0.289203
9257.000000;0.289498
9256.000000;0.289688
9255.000000;0.289915
9254.000000;0.290367
9253.000000;0.291227
9252.000000;0.292479
9251.000000;0.293874
9250.000000;0.295191
9249.000000;0.296428
9248.000000;0.297663
9247.000000;0.298837
9246.000000;0.299810
9245.000000;0.300592
9244.000000;0.301357
9243.000000;0.302222
9242.000000;0.303150
9241.000000;0.304065
9240.000000;0.304941
9239.000000;0.305777
9238.000000;0.306566
9237.000000;0.307343
9236.000000;0.308154
9235.000000;0.308996
9234.000000;0.309848
9233.000000;0.310745
9232.000000;0.311709
9231.000000;0.312626
9230.000000;0.313340
9229.000000;0.313912
9228.000000;0.314580
9227.000000;0.315394
9226.000000;0.316082
9225.000000;0.316419
9224.000000;0.316615
9223.000000;0.317118
9222.000000;0.318114
9221.000000;0.319399
9220.000000;0.320696
9219.000000;0.321898
9218.000000;0.322960
9217.000000;0.323795
9216.000000;0.324383
9215.000000;0.324881
9214.000000;0.325488
9213.000000;0.326252
9212.000000;0.327040
9211.000000;0.327690
9210.000000;0.328152
9209.000000;0.328551
9208.000000;0.329121
9207.000000;0.329997
9206.000000;0.331035
9205.000000;0.331926
9204.000000;0.332556
9203.000000;0.333136
9202.000000;0.333901
9201.000000;0.334756
9200.000000;0.335393
9199.000000;0.335732
9198.000000;0.336064
9197.000000;0.336709
9196.000000;0.337670
9195.000000;0.338708
9194.000000;0.339650
9193.000000;0.340481
9192.000000;0.341201
9191.000000;0.341753
9190.000000;0.342150
9189.000000;0.342542
9188.000000;0.343087
9187.000000;0.343803
9186.000000;0.344595
9185.000000;0.345355
9184.000000;0.346009
9183.000000;0.346539
9182.000000;0.347059
9181.000000;0.347806
9180.000000;0.348902
9179.000000;0.350140
9178.000000;0.351112
9177.000000;0.351615
9176.000000;0.351838
9175.000000;0.352099
9174.000000;0.352533
9173.000000;0.353102
9172.000000;0.353783
9171.000000;0.354586
9170.000000;0.355416
9169.000000;0.356114
9168.000000;0.356682
9167.000000;0.357318
9166.000000;0.358162
9165.000000;0.359085
9164.000000;0.359841
9163.000000;0.360344
9162.000000;0.360697
9161.000000;0.361002
9160.000000;0.361281
9159.000000;0.361591
9158.000000;0.362063
9157.000000;0.362735
9156.000000;0.363441
9155.000000;0.363980
9154.000000;0.364359
9153.000000;0.364770
9152.000000;0.365351
9151.000000;0.366048
9150.000000;0.366735
9149.000000;0.367342
9148.000000;0.367845
9147.000000;0.368224
9146.000000;0.368520
9145.000000;0.368873
9144.000000;0.369421
9143.000000;0.370160
9142.000000;0.370954
9141.000000;0.371647
9140.000000;0.372135
9139.000000;0.372403
9138.000000;0.372575
9137.000000;0.372891
9136.000000;0.373511
9135.000000;0.374345
9134.000000;0.375142
9133.000000;0.375749
9132.000000;0.376198
9131.000000;0.376555
9130.000000;0.376833
9129.000000;0.377100
9128.000000;0.377531
9127.000000;0.378245
9126.000000;0.379134
9125.000000;0.379939
9124.000000;0.380461
9123.000000;0.380672
9122.000000;0.380682
9121.000000;0.380681
9120.000000;0.380868
9119.000000;0.381341
9118.000000;0.382021
9117.000000;0.382728
9116.000000;0.383334
9115.000000;0.383827
9114.000000;0.384270
9113.000000;0.384734
9112.000000;0.385253
9111.000000;0.385788
9110.000000;0.386259
9109.000000;0.386645
9108.000000;0.387008
9107.000000;0.387396
9106.000000;0.387743
9105.000000;0.387958
9104.000000;0.388068
9103.000000;0.388214
9102.000000;0.388501
9101.000000;0.388905
9100.000000;0.389343
9099.000000;0.389754
9098.000000;0.390118
9097.000000;0.390453
9096.000000;0.390829
9095.000000;0.391337
9094.000000;0.391988
9093.000000;0.392648
9092.000000;0.393125
9091.000000;0.393360
9090.000000;0.393507
9089.000000;0.393794
9088.000000;0.394282
9087.000000;0.394798
9086.000000;0.395145
9085.000000;0.395341
9084.000000;0.395577
9083.000000;0.395966
9082.000000;0.396434
9081.000000;0.396852
9080.000000;0.397165
9079.000000;0.397370
9078.000000;0.397489
9077.000000;0.397637
9076.000000;0.398010
9075.000000;0.398685
9074.000000;0.399468
9073.000000;0.400054
9072.000000;0.400312
9071.000000;0.400344
9070.000000;0.400323
9069.000000;0.400374
9068.000000;0.400582
9067.000000;0.400980
9066.000000;0.401491
9065.000000;0.401969
9064.000000;0.402321
9063.000000;0.402552
9062.000000;0.402705
9061.000000;0.402830
9060.000000;0.402993
9059.000000;0.403234
9058.000000;0.403507
9057.000000;0.403759
9056.000000;0.404045
9055.000000;0.404461
9054.000000;0.404950
9053.000000;0.405297
