Criado como novo conjunto de dados;"0307_DANIEL.spp","18362.9 Secs"
cm-1;Abs
10000.000000;0.924603
9999.000000;0.923357
9998.000000;0.922115
9997.000000;0.920876
9996.000000;0.919642
9995.000000;0.918410
9994.000000;0.917182
9993.000000;0.915956
9992.000000;0.914739
9991.000000;0.913374
9990.000000;0.911848
9989.000000;0.910358
9988.000000;0.909109
9987.000000;0.908121
9986.000000;0.907226
9985.000000;0.906196
9984.000000;0.904903
9983.000000;0.903456
9982.000000;0.902199
9981.000000;0.901438
9980.000000;0.901084
9979.000000;0.900635
9978.000000;0.899604
9977.000000;0.897968
9976.000000;0.896146
9975.000000;0.894572
9974.000000;0.893347
9973.000000;0.892280
9972.000000;0.891219
9971.000000;0.890218
9970.000000;0.889361
9969.000000;0.888491
9968.000000;0.887314
9967.000000;0.885806
9966.000000;0.884335
9965.000000;0.883258
9964.000000;0.882505
9963.000000;0.881723
9962.000000;0.880689
9961.000000;0.879397
9960.000000;0.877858
9959.000000;0.876109
9958.000000;0.874414
9957.000000;0.873154
9956.000000;0.872415
9955.000000;0.871834
9954.000000;0.870944
9953.000000;0.869557
9952.000000;0.867777
9951.000000;0.865850
9950.000000;0.864087
9949.000000;0.862769
9948.000000;0.861940
9947.000000;0.861348
9946.000000;0.860647
9945.000000;0.859605
9944.000000;0.858120
9943.000000;0.856205
9942.000000;0.854070
9941.000000;0.852103
9940.000000;0.850617
9939.000000;0.849640
9938.000000;0.848972
9937.000000;0.848392
9936.000000;0.847734
9935.000000;0.846867
9934.000000;0.845753
9933.000000;0.844512
9932.000000;0.843359
9931.000000;0.842404
9930.000000;0.841536
9929.000000;0.840507
9928.000000;0.839156
9927.000000;0.837568
9926.000000;0.835950
9925.000000;0.834349
9924.000000;0.832591
9923.000000;0.830593
9922.000000;0.828659
9921.000000;0.827271
9920.000000;0.826571
9919.000000;0.826188
9918.000000;0.825607
9917.000000;0.824576
9916.000000;0.823135
9915.000000;0.821403
9914.000000;0.819490
9913.000000;0.817552
9912.000000;0.815781
9911.000000;0.814293
9910.000000;0.813068
9909.000000;0.812017
9908.000000;0.811081
9907.000000;0.810220
9906.000000;0.809311
9905.000000;0.808116
9904.000000;0.806474
9903.000000;0.804520
9902.000000;0.802597
9901.000000;0.800943
9900.000000;0.799573
9899.000000;0.798484
9898.000000;0.797736
9897.000000;0.797222
9896.000000;0.796550
9895.000000;0.795410
9894.000000;0.793948
9893.000000;0.792549
9892.000000;0.791342
9891.000000;0.790161
9890.000000;0.788908
9889.000000;0.787633
9888.000000;0.786276
9887.000000;0.784652
9886.000000;0.782807
9885.000000;0.781074
9884.000000;0.779630
9883.000000;0.778235
9882.000000;0.776610
9881.000000;0.774871
9880.000000;0.773343
9879.000000;0.772072
9878.000000;0.770792
9877.000000;0.769351
9876.000000;0.767907
9875.000000;0.766644
9874.000000;0.765461
9873.000000;0.764091
9872.000000;0.762465
9871.000000;0.760816
9870.000000;0.759392
9869.000000;0.758166
9868.000000;0.756928
9867.000000;0.755598
9866.000000;0.754321
9865.000000;0.753196
9864.000000;0.752066
9863.000000;0.750680
9862.000000;0.749003
9861.000000;0.747259
9860.000000;0.745713
9859.000000;0.744493
9858.000000;0.743554
9857.000000;0.742703
9856.000000;0.741670
9855.000000;0.740290
9854.000000;0.738620
9853.000000;0.736877
9852.000000;0.735266
9851.000000;0.733880
9850.000000;0.732633
9849.000000;0.731228
9848.000000;0.729364
9847.000000;0.727115
9846.000000;0.724957
9845.000000;0.723277
9844.000000;0.721986
9843.000000;0.720769
9842.000000;0.719560
9841.000000;0.718496
9840.000000;0.717507
9839.000000;0.716273
9838.000000;0.714625
9837.000000;0.712730
9836.000000;0.710869
9835.000000;0.709236
9834.000000;0.707941
9833.000000;0.706967
9832.000000;0.706076
9831.000000;0.704950
9830.000000;0.703506
9829.000000;0.701919
9828.000000;0.700334
9827.000000;0.698739
9826.000000;0.697128
9825.000000;0.695555
9824.000000;0.694002
9823.000000;0.692407
9822.000000;0.690830
9821.000000;0.689365
9820.000000;0.687858
9819.000000;0.686006
9818.000000;0.683820
9817.000000;0.681753
9816.000000;0.680217
9815.000000;0.679158
9814.000000;0.678206
9813.000000;0.677049
9812.000000;0.675543
9811.000000;0.673669
9810.000000;0.671595
9809.000000;0.669637
9808.000000;0.668010
9807.000000;0.666673
9806.000000;0.665450
9805.000000;0.664152
9804.000000;0.662561
9803.000000;0.660541
9802.000000;0.658294
9801.000000;0.656284
9800.000000;0.654729
9799.000000;0.653365
9798.000000;0.651881
9797.000000;0.650363
9796.000000;0.649065
9795.000000;0.647897
9794.000000;0.646490
9793.000000;0.644732
9792.000000;0.642916
9791.000000;0.641317
9790.000000;0.639863
9789.000000;0.638305
9788.000000;0.636547
9787.000000;0.634713
9786.000000;0.633002
9785.000000;0.631553
9784.000000;0.630347
9783.000000;0.629169
9782.000000;0.627717
9781.000000;0.625849
9780.000000;0.623739
9779.000000;0.621737
9778.000000;0.620072
9777.000000;0.618688
9776.000000;0.617364
9775.000000;0.615935
9774.000000;0.614354
9773.000000;0.612594
9772.000000;0.610628
9771.000000;0.608573
9770.000000;0.606713
9769.000000;0.605236
9768.000000;0.604000
9767.000000;0.602686
9766.000000;0.601136
9765.000000;0.599416
9764.000000;0.597608
9763.000000;0.595738
9762.000000;0.593888
9761.000000;0.592166
9760.000000;0.590506
9759.000000;0.588704
9758.000000;0.586710
9757.000000;0.584709
9756.000000;0.582818
9755.000000;0.580901
9754.000000;0.578828
9753.000000;0.576777
9752.000000;0.575102
9751.000000;0.573940
9750.000000;0.573051
9749.000000;0.572016
9748.000000;0.570546
9747.000000;0.568672
9746.000000;0.566675
9745.000000;0.564789
9744.000000;0.562977
9743.000000;0.561060
9742.000000;0.559027
9741.000000;0.557065
9740.000000;0.555305
9739.000000;0.553696
9738.000000;0.552177
9737.000000;0.550741
9736.000000;0.549265
9735.000000;0.547527
9734.000000;0.545502
9733.000000;0.543480
9732.000000;0.541713
9731.000000;0.540111
9730.000000;0.538423
9729.000000;0.536572
9728.000000;0.534638
9727.000000;0.532656
9726.000000;0.530645
9725.000000;0.528729
9724.000000;0.527006
9723.000000;0.525374
9722.000000;0.523655
9721.000000;0.521851
9720.000000;0.520097
9719.000000;0.518397
9718.000000;0.516598
9717.000000;0.514620
9716.000000;0.512544
9715.000000;0.510494
9714.000000;0.508529
9713.000000;0.506649
9712.000000;0.504757
9711.000000;0.502672
9710.000000;0.500330
9709.000000;0.497952
9708.000000;0.495849
9707.000000;0.494046
9706.000000;0.492262
9705.000000;0.490281
9704.000000;0.488200
9703.000000;0.486257
9702.000000;0.484544
9701.000000;0.482986
9700.000000;0.481448
9699.000000;0.479778
9698.000000;0.477851
9697.000000;0.475677
9696.000000;0.473448
9695.000000;0.471360
9694.000000;0.469422
9693.000000;0.467520
9692.000000;0.465635
9691.000000;0.463861
9690.000000;0.462214
9689.000000;0.460514
9688.000000;0.458571
9687.000000;0.456407
9686.000000;0.454212
9685.000000;0.452088
9684.000000;0.449984
9683.000000;0.447874
9682.000000;0.445885
9681.000000;0.444134
9680.000000;0.442531
9679.000000;0.440849
9678.000000;0.438966
9677.000000;0.436917
9676.000000;0.434749
9675.000000;0.432447
9674.000000;0.430035
9673.000000;0.427626
9672.000000;0.425334
9671.000000;0.423194
9670.000000;0.421212
9669.000000;0.419411
9668.000000;0.417779
9667.000000;0.416193
9666.000000;0.414430
9665.000000;0.412273
9664.000000;0.409671
9663.000000;0.406862
9662.000000;0.404261
9661.000000;0.402125
9660.000000;0.400332
9659.000000;0.398602
9658.000000;0.396852
9657.000000;0.395179
9656.000000;0.393525
9655.000000;0.391612
9654.000000;0.389293
9653.000000;0.386784
9652.000000;0.384401
9651.000000;0.382219
9650.000000;0.380091
9649.000000;0.377909
9648.000000;0.375685
9647.000000;0.373438
9646.000000;0.371169
9645.000000;0.368934
9644.000000;0.366859
9643.000000;0.365055
9642.000000;0.363514
9641.000000;0.362063
9640.000000;0.360413
9639.000000;0.358364
9638.000000;0.355983
9637.000000;0.353520
9636.000000;0.351130
9635.000000;0.348779
9634.000000;0.346439
9633.000000;0.344220
9632.000000;0.342181
9631.000000;0.340150
9630.000000;0.337878
9629.000000;0.335322
9628.000000;0.332659
9627.000000;0.330081
9626.000000;0.327685
9625.000000;0.325501
9624.000000;0.323495
9623.000000;0.321535
9622.000000;0.319456
9621.000000;0.317206
9620.000000;0.314870
9619.000000;0.312548
9618.000000;0.310247
9617.000000;0.307899
9616.000000;0.305468
9615.000000;0.303042
9614.000000;0.300811
9613.000000;0.298861
9612.000000;0.297005
9611.000000;0.294913
9610.000000;0.292455
9609.000000;0.289843
9608.000000;0.287371
9607.000000;0.285114
9606.000000;0.282938
9605.000000;0.280724
9604.000000;0.278444
9603.000000;0.276098
9602.000000;0.273685
9601.000000;0.271251
9600.000000;0.268877
9599.000000;0.266618
9598.000000;0.264485
9597.000000;0.262470
9596.000000;0.260524
9595.000000;0.258555
9594.000000;0.256472
9593.000000;0.254233
9592.000000;0.251839
9591.000000;0.249338
9590.000000;0.246843
9589.000000;0.244482
9588.000000;0.242279
9587.000000;0.240123
9586.000000;0.237885
9585.000000;0.235497
9584.000000;0.232927
9583.000000;0.230195
9582.000000;0.227446
9581.000000;0.224889
9580.000000;0.222600
9579.000000;0.220452
9578.000000;0.218318
9577.000000;0.216206
9576.000000;0.214144
9575.000000;0.212055
9574.000000;0.209848
9573.000000;0.207538
9572.000000;0.205157
9571.000000;0.202654
9570.000000;0.199985
9569.000000;0.197236
9568.000000;0.194521
9567.000000;0.191855
9566.000000;0.189274
9565.000000;0.186976
9564.000000;0.185132
9563.000000;0.183573
9562.000000;0.181856
9561.000000;0.179674
9560.000000;0.177098
9559.000000;0.174422
9558.000000;0.171894
9557.000000;0.169625
9556.000000;0.167583
9555.000000;0.165616
9554.000000;0.163553
9553.000000;0.161343
9552.000000;0.159037
9551.000000;0.156650
9550.000000;0.154138
9549.000000;0.151548
9548.000000;0.149045
9547.000000;0.146748
9546.000000;0.144605
9545.000000;0.142489
9544.000000;0.140352
9543.000000;0.138232
9542.000000;0.136159
9541.000000;0.134110
9540.000000;0.132032
9539.000000;0.129874
9538.000000;0.127617
9537.000000;0.125286
9536.000000;0.122933
9535.000000;0.120618
9534.000000;0.118411
9533.000000;0.116377
9532.000000;0.114517
9531.000000;0.112736
9530.000000;0.110929
9529.000000;0.109064
9528.000000;0.107146
9527.000000;0.105161
9526.000000;0.103103
9525.000000;0.101011
9524.000000;0.098864
9523.000000;0.096515
9522.000000;0.093871
9521.000000;0.091144
9520.000000;0.088751
9519.000000;0.086894
9518.000000;0.085347
9517.000000;0.083739
9516.000000;0.081949
9515.000000;0.080125
9514.000000;0.078427
9513.000000;0.076858
9512.000000;0.075318
9511.000000;0.073692
9510.000000;0.071900
9509.000000;0.069951
9508.000000;0.067971
9507.000000;0.066094
9506.000000;0.064303
9505.000000;0.062455
9504.000000;0.060487
9503.000000;0.058509
9502.000000;0.056668
9501.000000;0.054994
9500.000000;0.053429
9499.000000;0.051949
9498.000000;0.050563
9497.000000;0.049215
9496.000000;0.047783
9495.000000;0.046209
9494.000000;0.044551
9493.000000;0.042901
9492.000000;0.041304
9491.000000;0.039785
9490.000000;0.038397
9489.000000;0.037186
9488.000000;0.036103
9487.000000;0.035004
9486.000000;0.033721
9485.000000;0.032156
9484.000000;0.030328
9483.000000;0.028388
9482.000000;0.026594
9481.000000;0.025218
9480.000000;0.024410
9479.000000;0.024085
9478.000000;0.023901
9477.000000;0.023434
9476.000000;0.022468
9475.000000;0.021143
9474.000000;0.019757
9473.000000;0.018460
9472.000000;0.017200
9471.000000;0.015976
9470.000000;0.014970
9469.000000;0.014335
9468.000000;0.013980
9467.000000;0.013666
9466.000000;0.013262
9465.000000;0.012796
9464.000000;0.012283
9463.000000;0.011645
9462.000000;0.010804
9461.000000;0.009770
9460.000000;0.008654
9459.000000;0.007657
9458.000000;0.007031
9457.000000;0.006888
9456.000000;0.007035
9455.000000;0.007083
9454.000000;0.006787
9453.000000;0.006217
9452.000000;0.005599
9451.000000;0.005071
9450.000000;0.004624
9449.000000;0.004215
9448.000000;0.003842
9447.000000;0.003555
9446.000000;0.003408
9445.000000;0.003393
9444.000000;0.003421
9443.000000;0.003424
9442.000000;0.003464
9441.000000;0.003697
9440.000000;0.004177
9439.000000;0.004729
9438.000000;0.005035
9437.000000;0.004875
9436.000000;0.004334
9435.000000;0.003796
9434.000000;0.003655
9433.000000;0.003979
9432.000000;0.004460
9431.000000;0.004772
9430.000000;0.004902
9429.000000;0.005072
9428.000000;0.005384
9427.000000;0.005718
9426.000000;0.005955
9425.000000;0.006157
9424.000000;0.006464
9423.000000;0.006939
9422.000000;0.007561
9421.000000;0.008267
9420.000000;0.008943
9419.000000;0.009457
9418.000000;0.009817
9417.000000;0.010198
9416.000000;0.010754
9415.000000;0.011437
9414.000000;0.012078
9413.000000;0.012583
9412.000000;0.012968
9411.000000;0.013276
9410.000000;0.013567
9409.000000;0.013968
9408.000000;0.014579
9407.000000;0.015323
9406.000000;0.016010
9405.000000;0.016602
9404.000000;0.017318
9403.000000;0.018378
9402.000000;0.019697
9401.000000;0.020948
9400.000000;0.021926
9399.000000;0.022734
9398.000000;0.023578
9397.000000;0.024508
9396.000000;0.025439
9395.000000;0.026317
9394.000000;0.027144
9393.000000;0.027891
9392.000000;0.028534
9391.000000;0.029162
9390.000000;0.029913
9389.000000;0.030801
9388.000000;0.031744
9387.000000;0.032774
9386.000000;0.034031
9385.000000;0.035494
9384.000000;0.036871
9383.000000;0.037904
9382.000000;0.038659
9381.000000;0.039400
9380.000000;0.040272
9379.000000;0.041246
9378.000000;0.042285
9377.000000;0.043410
9376.000000;0.044641
9375.000000;0.045990
9374.000000;0.047478
9373.000000;0.049042
9372.000000;0.050475
9371.000000;0.051610
9370.000000;0.052521
9369.000000;0.053442
9368.000000;0.054496
9367.000000;0.055632
9366.000000;0.056784
9365.000000;0.057938
9364.000000;0.059078
9363.000000;0.060186
9362.000000;0.061311
9361.000000;0.062511
9360.000000;0.063726
9359.000000;0.064829
9358.000000;0.065793
9357.000000;0.066723
9356.000000;0.067727
9355.000000;0.068875
9354.000000;0.070229
9353.000000;0.071768
9352.000000;0.073291
9351.000000;0.074554
9350.000000;0.075542
9349.000000;0.076469
9348.000000;0.077498
9347.000000;0.078600
9346.000000;0.079697
9345.000000;0.080792
9344.000000;0.081902
9343.000000;0.083024
9342.000000;0.084207
9341.000000;0.085544
9340.000000;0.087026
9339.000000;0.088522
9338.000000;0.089946
9337.000000;0.091318
9336.000000;0.092627
9335.000000;0.093794
9334.000000;0.094858
9333.000000;0.096019
9332.000000;0.097379
9331.000000;0.098769
9330.000000;0.099949
9329.000000;0.100915
9328.000000;0.101863
9327.000000;0.102922
9326.000000;0.104060
9325.000000;0.105204
9324.000000;0.106336
9323.000000;0.107466
9322.000000;0.108576
9321.000000;0.109638
9320.000000;0.110638
9319.000000;0.111618
9318.000000;0.112678
9317.000000;0.113889
9316.000000;0.115179
9315.000000;0.116396
9314.000000;0.117514
9313.000000;0.118679
9312.000000;0.119982
9311.000000;0.121304
9310.000000;0.122498
9309.000000;0.123619
9308.000000;0.124830
9307.000000;0.126115
9306.000000;0.127271
9305.000000;0.128213
9304.000000;0.129148
9303.000000;0.130323
9302.000000;0.131698
9301.000000;0.132980
9300.000000;0.133984
9299.000000;0.134850
9298.000000;0.135857
9297.000000;0.137076
9296.000000;0.138314
9295.000000;0.139393
9294.000000;0.140370
9293.000000;0.141415
9292.000000;0.142567
9291.000000;0.143713
9290.000000;0.144772
9289.000000;0.145764
9288.000000;0.146690
9287.000000;0.147511
9286.000000;0.148276
9285.000000;0.149171
9284.000000;0.150337
9283.000000;0.151705
9282.000000;0.153061
9281.000000;0.154250
9280.000000;0.155255
9279.000000;0.156140
9278.000000;0.156985
9277.000000;0.157839
9276.000000;0.158691
9275.000000;0.159510
9274.000000;0.160338
9273.000000;0.161288
9272.000000;0.162418
9271.000000;0.163643
9270.000000;0.164834
9269.000000;0.165932
9268.000000;0.166946
9267.000000;0.167875
9266.000000;0.168714
9265.000000;0.169508
9264.000000;0.170351
9263.000000;0.171316
9262.000000;0.172403
9261.000000;0.173528
9260.000000;0.174573
9259.000000;0.175487
9258.000000;0.176365
9257.000000;0.177355
9256.000000;0.178480
9255.000000;0.179597
9254.000000;0.180577
9253.000000;0.181454
9252.000000;0.182363
9251.000000;0.183383
9250.000000;0.184502
9249.000000;0.185653
9248.000000;0.186716
9247.000000;0.187546
9246.000000;0.188102
9245.000000;0.188531
9244.000000;0.189043
9243.000000;0.189733
9242.000000;0.190583
9241.000000;0.191601
9240.000000;0.192805
9239.000000;0.194092
9238.000000;0.195233
9237.000000;0.196102
9236.000000;0.196816
9235.000000;0.197585
9234.000000;0.198442
9233.000000;0.199232
9232.000000;0.199864
9231.000000;0.200489
9230.000000;0.201373
9229.000000;0.202593
9228.000000;0.203911
9227.000000;0.204978
9226.000000;0.205646
9225.000000;0.206076
9224.000000;0.206560
9223.000000;0.207273
9222.000000;0.208173
9221.000000;0.209096
9220.000000;0.209915
9219.000000;0.210628
9218.000000;0.211328
9217.000000;0.212089
9216.000000;0.212905
9215.000000;0.213711
9214.000000;0.214446
9213.000000;0.215093
9212.000000;0.215672
9211.000000;0.216241
9210.000000;0.216880
9209.000000;0.217662
9208.000000;0.218604
9207.000000;0.219652
9206.000000;0.220705
9205.000000;0.221638
9204.000000;0.222368
9203.000000;0.222926
9202.000000;0.223443
9201.000000;0.224053
9200.000000;0.224807
9199.000000;0.225681
9198.000000;0.226600
9197.000000;0.227440
9196.000000;0.228089
9195.000000;0.228604
9194.000000;0.229228
9193.000000;0.230129
9192.000000;0.231142
9191.000000;0.231892
9190.000000;0.232220
9189.000000;0.232370
9188.000000;0.232724
9187.000000;0.233446
9186.000000;0.234423
9185.000000;0.235453
9184.000000;0.236384
9183.000000;0.237136
9182.000000;0.237716
9181.000000;0.238217
9180.000000;0.238759
9179.000000;0.239396
9178.000000;0.240104
9177.000000;0.240845
9176.000000;0.241599
9175.000000;0.242359
9174.000000;0.243111
9173.000000;0.243835
9172.000000;0.244503
9171.000000;0.245096
9170.000000;0.245625
9169.000000;0.246111
9168.000000;0.246567
9167.000000;0.247000
9166.000000;0.247458
9165.000000;0.248008
9164.000000;0.248645
9163.000000;0.249269
9162.000000;0.249794
9161.000000;0.250254
9160.000000;0.250745
9159.000000;0.251279
9158.000000;0.251743
9157.000000;0.252049
9156.000000;0.252298
9155.000000;0.252732
9154.000000;0.253505
9153.000000;0.254503
9152.000000;0.255445
9151.000000;0.256161
9150.000000;0.256728
9149.000000;0.257324
9148.000000;0.257998
9147.000000;0.258640
9146.000000;0.259147
9145.000000;0.259551
9144.000000;0.259980
9143.000000;0.260530
9142.000000;0.261176
9141.000000;0.261795
9140.000000;0.262291
9139.000000;0.262702
9138.000000;0.263164
9137.000000;0.263739
9136.000000;0.264348
9135.000000;0.264890
9134.000000;0.265365
9133.000000;0.265814
9132.000000;0.266189
9131.000000;0.266420
9130.000000;0.266574
9129.000000;0.266836
9128.000000;0.267313
9127.000000;0.267949
9126.000000;0.268627
9125.000000;0.269275
9124.000000;0.269855
9123.000000;0.270363
9122.000000;0.270867
9121.000000;0.271429
9120.000000;0.271992
9119.000000;0.272424
9118.000000;0.272717
9117.000000;0.273019
9116.000000;0.273430
9115.000000;0.273887
9114.000000;0.274324
9113.000000;0.274805
9112.000000;0.275379
9111.000000;0.275919
9110.000000;0.276268
9109.000000;0.276495
9108.000000;0.276845
9107.000000;0.277439
9106.000000;0.278139
9105.000000;0.278730
9104.000000;0.279115
9103.000000;0.279333
9102.000000;0.279487
9101.000000;0.279698
9100.000000;0.280051
9099.000000;0.280518
9098.000000;0.280998
9097.000000;0.281440
9096.000000;0.281872
9095.000000;0.282301
9094.000000;0.282649
9093.000000;0.282855
9092.000000;0.282990
9091.000000;0.283209
9090.000000;0.283599
9089.000000;0.284130
9088.000000;0.284712
9087.000000;0.285255
9086.000000;0.285691
9085.000000;0.285985
9084.000000;0.286177
9083.000000;0.286364
9082.000000;0.286630
9081.000000;0.286969
9080.000000;0.287314
9079.000000;0.287624
9078.000000;0.287941
9077.000000;0.288355
9076.000000;0.288900
9075.000000;0.289474
9074.000000;0.289895
9073.000000;0.290068
9072.000000;0.290107
9071.000000;0.290257
9070.000000;0.290663
9069.000000;0.291211
9068.000000;0.291649
9067.000000;0.291830
9066.000000;0.291821
9065.000000;0.291784
9064.000000;0.291841
9063.000000;0.292060
9062.000000;0.292499
9061.000000;0.293152
9060.000000;0.293884
9059.000000;0.294507
9058.000000;0.294912
9057.000000;0.295098
9056.000000;0.295089
9055.000000;0.294933
9054.000000;0.294773
9053.000000;0.294806
