Criado como novo conjunto de dados;"0307_DANIEL.spp","9902.5 Secs"
cm-1;Abs
10000.000000;0.258258
9999.000000;0.257060
9998.000000;0.255866
9997.000000;0.254675
9996.000000;0.253487
9995.000000;0.252302
9994.000000;0.251122
9993.000000;0.249942
9992.000000;0.248770
9991.000000;0.247594
9990.000000;0.246434
9989.000000;0.245229
9988.000000;0.244042
9987.000000;0.243025
9986.000000;0.242128
9985.000000;0.241181
9984.000000;0.240076
9983.000000;0.238883
9982.000000;0.237730
9981.000000;0.236642
9980.000000;0.235548
9979.000000;0.234406
9978.000000;0.233255
9977.000000;0.232147
9976.000000;0.231072
9975.000000;0.229972
9974.000000;0.228811
9973.000000;0.227621
9972.000000;0.226467
9971.000000;0.225380
9970.000000;0.224320
9969.000000;0.223221
9968.000000;0.222061
9967.000000;0.220865
9966.000000;0.219664
9965.000000;0.218474
9964.000000;0.217306
9963.000000;0.216163
9962.000000;0.215024
9961.000000;0.213861
9960.000000;0.212685
9959.000000;0.211550
9958.000000;0.210495
9957.000000;0.209498
9956.000000;0.208470
9955.000000;0.207295
9954.000000;0.205913
9953.000000;0.204394
9952.000000;0.202913
9951.000000;0.201602
9950.000000;0.200441
9949.000000;0.199328
9948.000000;0.198227
9947.000000;0.197174
9946.000000;0.196149
9945.000000;0.195053
9944.000000;0.193825
9943.000000;0.192533
9942.000000;0.191277
9941.000000;0.190078
9940.000000;0.188889
9939.000000;0.187682
9938.000000;0.186477
9937.000000;0.185304
9936.000000;0.184181
9935.000000;0.183099
9934.000000;0.182004
9933.000000;0.180809
9932.000000;0.179468
9931.000000;0.178020
9930.000000;0.176551
9929.000000;0.175136
9928.000000;0.173826
9927.000000;0.172648
9926.000000;0.171578
9925.000000;0.170527
9924.000000;0.169418
9923.000000;0.168249
9922.000000;0.167075
9921.000000;0.165927
9920.000000;0.164788
9919.000000;0.163625
9918.000000;0.162420
9917.000000;0.161164
9916.000000;0.159871
9915.000000;0.158594
9914.000000;0.157410
9913.000000;0.156348
9912.000000;0.155328
9911.000000;0.154207
9910.000000;0.152893
9909.000000;0.151444
9908.000000;0.150023
9907.000000;0.148746
9906.000000;0.147574
9905.000000;0.146366
9904.000000;0.145041
9903.000000;0.143653
9902.000000;0.142324
9901.000000;0.141110
9900.000000;0.139954
9899.000000;0.138743
9898.000000;0.137405
9897.000000;0.135972
9896.000000;0.134537
9895.000000;0.133156
9894.000000;0.131806
9893.000000;0.130430
9892.000000;0.129025
9891.000000;0.127647
9890.000000;0.126358
9889.000000;0.125185
9888.000000;0.124106
9887.000000;0.123040
9886.000000;0.121861
9885.000000;0.120488
9884.000000;0.118967
9883.000000;0.117445
9882.000000;0.116042
9881.000000;0.114754
9880.000000;0.113482
9879.000000;0.112115
9878.000000;0.110621
9877.000000;0.109088
9876.000000;0.107670
9875.000000;0.106446
9874.000000;0.105332
9873.000000;0.104153
9872.000000;0.102815
9871.000000;0.101372
9870.000000;0.099931
9869.000000;0.098541
9868.000000;0.097164
9867.000000;0.095747
9866.000000;0.094294
9865.000000;0.092891
9864.000000;0.091628
9863.000000;0.090473
9862.000000;0.089278
9861.000000;0.087955
9860.000000;0.086596
9859.000000;0.085333
9858.000000;0.084121
9857.000000;0.082769
9856.000000;0.081216
9855.000000;0.079617
9854.000000;0.078142
9853.000000;0.076774
9852.000000;0.075403
9851.000000;0.074017
9850.000000;0.072689
9849.000000;0.071427
9848.000000;0.070155
9847.000000;0.068830
9846.000000;0.067489
9845.000000;0.066155
9844.000000;0.064777
9843.000000;0.063299
9842.000000;0.061755
9841.000000;0.060241
9840.000000;0.058817
9839.000000;0.057451
9838.000000;0.056074
9837.000000;0.054665
9836.000000;0.053270
9835.000000;0.051918
9834.000000;0.050538
9833.000000;0.049019
9832.000000;0.047343
9831.000000;0.045642
9830.000000;0.044077
9829.000000;0.042681
9828.000000;0.041343
9827.000000;0.039925
9826.000000;0.038385
9825.000000;0.036778
9824.000000;0.035182
9823.000000;0.033641
9822.000000;0.032179
9821.000000;0.030830
9820.000000;0.029617
9819.000000;0.028471
9818.000000;0.027225
9817.000000;0.025743
9816.000000;0.024063
9815.000000;0.022357
9814.000000;0.020753
9813.000000;0.019236
9812.000000;0.017732
9811.000000;0.016231
9810.000000;0.014775
9809.000000;0.013361
9808.000000;0.011907
9807.000000;0.010318
9806.000000;0.008582
9805.000000;0.006809
9804.000000;0.005167
9803.000000;0.003760
9802.000000;0.002520
9801.000000;0.001258
9800.000000;-0.000171
9799.000000;-0.001741
9798.000000;-0.003301
9797.000000;-0.004731
9796.000000;-0.006046
9795.000000;-0.007360
9794.000000;-0.008772
9793.000000;-0.010281
9792.000000;-0.011810
9791.000000;-0.013322
9790.000000;-0.014878
9789.000000;-0.016564
9788.000000;-0.018370
9787.000000;-0.020193
9786.000000;-0.021928
9785.000000;-0.023546
9784.000000;-0.025070
9783.000000;-0.026550
9782.000000;-0.028059
9781.000000;-0.029665
9780.000000;-0.031373
9779.000000;-0.033116
9778.000000;-0.034832
9777.000000;-0.036511
9776.000000;-0.038166
9775.000000;-0.039787
9774.000000;-0.041347
9773.000000;-0.042843
9772.000000;-0.044298
9771.000000;-0.045751
9770.000000;-0.047233
9769.000000;-0.048761
9768.000000;-0.050339
9767.000000;-0.051996
9766.000000;-0.053776
9765.000000;-0.055653
9764.000000;-0.057485
9763.000000;-0.059114
9762.000000;-0.060540
9761.000000;-0.061923
9760.000000;-0.063406
9759.000000;-0.065005
9758.000000;-0.066678
9757.000000;-0.068401
9756.000000;-0.070132
9755.000000;-0.071787
9754.000000;-0.073353
9753.000000;-0.074959
9752.000000;-0.076758
9751.000000;-0.078723
9750.000000;-0.080647
9749.000000;-0.082362
9748.000000;-0.083888
9747.000000;-0.085380
9746.000000;-0.086983
9745.000000;-0.088751
9744.000000;-0.090640
9743.000000;-0.092545
9742.000000;-0.094368
9741.000000;-0.096107
9740.000000;-0.097858
9739.000000;-0.099700
9738.000000;-0.101594
9737.000000;-0.103408
9736.000000;-0.105074
9735.000000;-0.106670
9734.000000;-0.108330
9733.000000;-0.110103
9732.000000;-0.111913
9731.000000;-0.113669
9730.000000;-0.115351
9729.000000;-0.116993
9728.000000;-0.118632
9727.000000;-0.120308
9726.000000;-0.122069
9725.000000;-0.123920
9724.000000;-0.125776
9723.000000;-0.127528
9722.000000;-0.129173
9721.000000;-0.130831
9720.000000;-0.132626
9719.000000;-0.134580
9718.000000;-0.136607
9717.000000;-0.138595
9716.000000;-0.140458
9715.000000;-0.142173
9714.000000;-0.143781
9713.000000;-0.145362
9712.000000;-0.146981
9711.000000;-0.148684
9710.000000;-0.150500
9709.000000;-0.152421
9708.000000;-0.154379
9707.000000;-0.156285
9706.000000;-0.158120
9705.000000;-0.159942
9704.000000;-0.161808
9703.000000;-0.163717
9702.000000;-0.165639
9701.000000;-0.167558
9700.000000;-0.169475
9699.000000;-0.171402
9698.000000;-0.173368
9697.000000;-0.175410
9696.000000;-0.177514
9695.000000;-0.179590
9694.000000;-0.181534
9693.000000;-0.183313
9692.000000;-0.184981
9691.000000;-0.186626
9690.000000;-0.188323
9689.000000;-0.190098
9688.000000;-0.191949
9687.000000;-0.193885
9686.000000;-0.195945
9685.000000;-0.198135
9684.000000;-0.200352
9683.000000;-0.202428
9682.000000;-0.204271
9681.000000;-0.205943
9680.000000;-0.207586
9679.000000;-0.209310
9678.000000;-0.211157
9677.000000;-0.213133
9676.000000;-0.215226
9675.000000;-0.217404
9674.000000;-0.219618
9673.000000;-0.221810
9672.000000;-0.223908
9671.000000;-0.225875
9670.000000;-0.227755
9669.000000;-0.229654
9668.000000;-0.231633
9667.000000;-0.233661
9666.000000;-0.235674
9665.000000;-0.237681
9664.000000;-0.239733
9663.000000;-0.241831
9662.000000;-0.243896
9661.000000;-0.245854
9660.000000;-0.247731
9659.000000;-0.249632
9658.000000;-0.251634
9657.000000;-0.253722
9656.000000;-0.255843
9655.000000;-0.257981
9654.000000;-0.260156
9653.000000;-0.262332
9652.000000;-0.264418
9651.000000;-0.266374
9650.000000;-0.268277
9649.000000;-0.270224
9648.000000;-0.272218
9647.000000;-0.274211
9646.000000;-0.276217
9645.000000;-0.278284
9644.000000;-0.280395
9643.000000;-0.282483
9642.000000;-0.284552
9641.000000;-0.286688
9640.000000;-0.288901
9639.000000;-0.291076
9638.000000;-0.293123
9637.000000;-0.295101
9636.000000;-0.297149
9635.000000;-0.299321
9634.000000;-0.301568
9633.000000;-0.303824
9632.000000;-0.306060
9631.000000;-0.308271
9630.000000;-0.310470
9629.000000;-0.312674
9628.000000;-0.314863
9627.000000;-0.316991
9626.000000;-0.319056
9625.000000;-0.321115
9624.000000;-0.323196
9623.000000;-0.325249
9622.000000;-0.327235
9621.000000;-0.329220
9620.000000;-0.331308
9619.000000;-0.333513
9618.000000;-0.335767
9617.000000;-0.338026
9616.000000;-0.340292
9615.000000;-0.342557
9614.000000;-0.344791
9613.000000;-0.347011
9612.000000;-0.349291
9611.000000;-0.351660
9610.000000;-0.354050
9609.000000;-0.356352
9608.000000;-0.358507
9607.000000;-0.360536
9606.000000;-0.362526
9605.000000;-0.364589
9604.000000;-0.366808
9603.000000;-0.369177
9602.000000;-0.371618
9601.000000;-0.374034
9600.000000;-0.376361
9599.000000;-0.378576
9598.000000;-0.380705
9597.000000;-0.382817
9596.000000;-0.384985
9595.000000;-0.387228
9594.000000;-0.389499
9593.000000;-0.391747
9592.000000;-0.393954
9591.000000;-0.396137
9590.000000;-0.398322
9589.000000;-0.400525
9588.000000;-0.402746
9587.000000;-0.404966
9586.000000;-0.407194
9585.000000;-0.409476
9584.000000;-0.411846
9583.000000;-0.414266
9582.000000;-0.416665
9581.000000;-0.419020
9580.000000;-0.421357
9579.000000;-0.423678
9578.000000;-0.425935
9577.000000;-0.428115
9576.000000;-0.430305
9575.000000;-0.432602
9574.000000;-0.435000
9573.000000;-0.437401
9572.000000;-0.439734
9571.000000;-0.442012
9570.000000;-0.444281
9569.000000;-0.446551
9568.000000;-0.448814
9567.000000;-0.451080
9566.000000;-0.453350
9565.000000;-0.455576
9564.000000;-0.457693
9563.000000;-0.459702
9562.000000;-0.461706
9561.000000;-0.463824
9560.000000;-0.466099
9559.000000;-0.468477
9558.000000;-0.470858
9557.000000;-0.473170
9556.000000;-0.475396
9555.000000;-0.477572
9554.000000;-0.479763
9553.000000;-0.482023
9552.000000;-0.484370
9551.000000;-0.486783
9550.000000;-0.489207
9549.000000;-0.491562
9548.000000;-0.493773
9547.000000;-0.495836
9546.000000;-0.497825
9545.000000;-0.499811
9544.000000;-0.501779
9543.000000;-0.503689
9542.000000;-0.505601
9541.000000;-0.507666
9540.000000;-0.509957
9539.000000;-0.512353
9538.000000;-0.514657
9537.000000;-0.516811
9536.000000;-0.518917
9535.000000;-0.521075
9534.000000;-0.523247
9533.000000;-0.525338
9532.000000;-0.527328
9531.000000;-0.529288
9530.000000;-0.531260
9529.000000;-0.533191
9528.000000;-0.535019
9527.000000;-0.536790
9526.000000;-0.538654
9525.000000;-0.540728
9524.000000;-0.542986
9523.000000;-0.545296
9522.000000;-0.547529
9521.000000;-0.549626
9520.000000;-0.551581
9519.000000;-0.553400
9518.000000;-0.555111
9517.000000;-0.556783
9516.000000;-0.558498
9515.000000;-0.560290
9514.000000;-0.562122
9513.000000;-0.563934
9512.000000;-0.565722
9511.000000;-0.567546
9510.000000;-0.569450
9509.000000;-0.571382
9508.000000;-0.573207
9507.000000;-0.574832
9506.000000;-0.576303
9505.000000;-0.577781
9504.000000;-0.579403
9503.000000;-0.581174
9502.000000;-0.582978
9501.000000;-0.584683
9500.000000;-0.586266
9499.000000;-0.587830
9498.000000;-0.589483
9497.000000;-0.591197
9496.000000;-0.592827
9495.000000;-0.594283
9494.000000;-0.595643
9493.000000;-0.597020
9492.000000;-0.598386
9491.000000;-0.599630
9490.000000;-0.600766
9489.000000;-0.601962
9488.000000;-0.603310
9487.000000;-0.604672
9486.000000;-0.605857
9485.000000;-0.606884
9484.000000;-0.607959
9483.000000;-0.609226
9482.000000;-0.610618
9481.000000;-0.611950
9480.000000;-0.613071
9479.000000;-0.613929
9478.000000;-0.614602
9477.000000;-0.615288
9476.000000;-0.616195
9475.000000;-0.617369
9474.000000;-0.618654
9473.000000;-0.619845
9472.000000;-0.620851
9471.000000;-0.621694
9470.000000;-0.622447
9469.000000;-0.623207
9468.000000;-0.624085
9467.000000;-0.625096
9466.000000;-0.626082
9465.000000;-0.626827
9464.000000;-0.627259
9463.000000;-0.627530
9462.000000;-0.627861
9461.000000;-0.628362
9460.000000;-0.628995
9459.000000;-0.629670
9458.000000;-0.630321
9457.000000;-0.630919
9456.000000;-0.631451
9455.000000;-0.631909
9454.000000;-0.632289
9453.000000;-0.632576
9452.000000;-0.632746
9451.000000;-0.632816
9450.000000;-0.632883
9449.000000;-0.633064
9448.000000;-0.633358
9447.000000;-0.633596
9446.000000;-0.633592
9445.000000;-0.633365
9444.000000;-0.633143
9443.000000;-0.633145
9442.000000;-0.633381
9441.000000;-0.633693
9440.000000;-0.633926
9439.000000;-0.634017
9438.000000;-0.633958
9437.000000;-0.633758
9436.000000;-0.633462
9435.000000;-0.633143
9434.000000;-0.632848
9433.000000;-0.632575
9432.000000;-0.632304
9431.000000;-0.632038
9430.000000;-0.631794
9429.000000;-0.631571
9428.000000;-0.631331
9427.000000;-0.631019
9426.000000;-0.630597
9425.000000;-0.630079
9424.000000;-0.629527
9423.000000;-0.628999
9422.000000;-0.628507
9421.000000;-0.628015
9420.000000;-0.627473
9419.000000;-0.626856
9418.000000;-0.626182
9417.000000;-0.625516
9416.000000;-0.624917
9415.000000;-0.624380
9414.000000;-0.623838
9413.000000;-0.623229
9412.000000;-0.622552
9411.000000;-0.621821
9410.000000;-0.621021
9409.000000;-0.620159
9408.000000;-0.619314
9407.000000;-0.618565
9406.000000;-0.617866
9405.000000;-0.617074
9404.000000;-0.616142
9403.000000;-0.615204
9402.000000;-0.614400
9401.000000;-0.613673
9400.000000;-0.612829
9399.000000;-0.611796
9398.000000;-0.610732
9397.000000;-0.609839
9396.000000;-0.609124
9395.000000;-0.608423
9394.000000;-0.607611
9393.000000;-0.606707
9392.000000;-0.605757
9391.000000;-0.604734
9390.000000;-0.603617
9389.000000;-0.602492
9388.000000;-0.601469
9387.000000;-0.600513
9386.000000;-0.599452
9385.000000;-0.598185
9384.000000;-0.596819
9383.000000;-0.595542
9382.000000;-0.594431
9381.000000;-0.593429
9380.000000;-0.592462
9379.000000;-0.591494
9378.000000;-0.590482
9377.000000;-0.589371
9376.000000;-0.588156
9375.000000;-0.586911
9374.000000;-0.585715
9373.000000;-0.584563
9372.000000;-0.583389
9371.000000;-0.582154
9370.000000;-0.580904
9369.000000;-0.579729
9368.000000;-0.578666
9367.000000;-0.577638
9366.000000;-0.576507
9365.000000;-0.575209
9364.000000;-0.573820
9363.000000;-0.572470
9362.000000;-0.571218
9361.000000;-0.570033
9360.000000;-0.568885
9359.000000;-0.567782
9358.000000;-0.566719
9357.000000;-0.565637
9356.000000;-0.564474
9355.000000;-0.563203
9354.000000;-0.561822
9353.000000;-0.560356
9352.000000;-0.558896
9351.000000;-0.557572
9350.000000;-0.556435
9349.000000;-0.555387
9348.000000;-0.554277
9347.000000;-0.553039
9346.000000;-0.551694
9345.000000;-0.550260
9344.000000;-0.548758
9343.000000;-0.547266
9342.000000;-0.545894
9341.000000;-0.544663
9340.000000;-0.543499
9339.000000;-0.542357
9338.000000;-0.541276
9337.000000;-0.540267
9336.000000;-0.539224
9335.000000;-0.538024
9334.000000;-0.536678
9333.000000;-0.535304
9332.000000;-0.534001
9331.000000;-0.532791
9330.000000;-0.531669
9329.000000;-0.530617
9328.000000;-0.529567
9327.000000;-0.528441
9326.000000;-0.527233
9325.000000;-0.526009
9324.000000;-0.524805
9323.000000;-0.523585
9322.000000;-0.522334
9321.000000;-0.521106
9320.000000;-0.519955
9319.000000;-0.518843
9318.000000;-0.517678
9317.000000;-0.516414
9316.000000;-0.515086
9315.000000;-0.513756
9314.000000;-0.512468
9313.000000;-0.511241
9312.000000;-0.510066
9311.000000;-0.508914
9310.000000;-0.507750
9309.000000;-0.506549
9308.000000;-0.505299
9307.000000;-0.504009
9306.000000;-0.502716
9305.000000;-0.501459
9304.000000;-0.500243
9303.000000;-0.499060
9302.000000;-0.497937
9301.000000;-0.496924
9300.000000;-0.495993
9299.000000;-0.495019
9298.000000;-0.493885
9297.000000;-0.492595
9296.000000;-0.491237
9295.000000;-0.489886
9294.000000;-0.488585
9293.000000;-0.487379
9292.000000;-0.486287
9291.000000;-0.485255
9290.000000;-0.484203
9289.000000;-0.483107
9288.000000;-0.482011
9287.000000;-0.480936
9286.000000;-0.479850
9285.000000;-0.478719
9284.000000;-0.477547
9283.000000;-0.476354
9282.000000;-0.475161
9281.000000;-0.474001
9280.000000;-0.472897
9279.000000;-0.471837
9278.000000;-0.470788
9277.000000;-0.469753
9276.000000;-0.468761
9275.000000;-0.467798
9274.000000;-0.466790
9273.000000;-0.465693
9272.000000;-0.464543
9271.000000;-0.463413
9270.000000;-0.462350
9269.000000;-0.461366
9268.000000;-0.460444
9267.000000;-0.459530
9266.000000;-0.458561
9265.000000;-0.457532
9264.000000;-0.456502
9263.000000;-0.455500
9262.000000;-0.454457
9261.000000;-0.453299
9260.000000;-0.452070
9259.000000;-0.450914
9258.000000;-0.449928
9257.000000;-0.449063
9256.000000;-0.448201
9255.000000;-0.447280
9254.000000;-0.446334
9253.000000;-0.445417
9252.000000;-0.444535
9251.000000;-0.443639
9250.000000;-0.442687
9249.000000;-0.441691
9248.000000;-0.440694
9247.000000;-0.439731
9246.000000;-0.438799
9245.000000;-0.437886
9244.000000;-0.436984
9243.000000;-0.436068
9242.000000;-0.435099
9241.000000;-0.434055
9240.000000;-0.432960
9239.000000;-0.431870
9238.000000;-0.430834
9237.000000;-0.429876
9236.000000;-0.429003
9235.000000;-0.428215
9234.000000;-0.427500
9233.000000;-0.426821
9232.000000;-0.426107
9231.000000;-0.425274
9230.000000;-0.424284
9229.000000;-0.423199
9228.000000;-0.422147
9227.000000;-0.421215
9226.000000;-0.420391
9225.000000;-0.419608
9224.000000;-0.418815
9223.000000;-0.418002
9222.000000;-0.417177
9221.000000;-0.416348
9220.000000;-0.415522
9219.000000;-0.414692
9218.000000;-0.413825
9217.000000;-0.412905
9216.000000;-0.411966
9215.000000;-0.411064
9214.000000;-0.410222
9213.000000;-0.409420
9212.000000;-0.408640
9211.000000;-0.407889
9210.000000;-0.407173
9209.000000;-0.406465
9208.000000;-0.405724
9207.000000;-0.404920
9206.000000;-0.404060
9205.000000;-0.403175
9204.000000;-0.402306
9203.000000;-0.401474
9202.000000;-0.400681
9201.000000;-0.399928
9200.000000;-0.399213
9199.000000;-0.398504
9198.000000;-0.397729
9197.000000;-0.396845
9196.000000;-0.395909
9195.000000;-0.395049
9194.000000;-0.394335
9193.000000;-0.393720
9192.000000;-0.393102
9191.000000;-0.392430
9190.000000;-0.391710
9189.000000;-0.390968
9188.000000;-0.390218
9187.000000;-0.389471
9186.000000;-0.388723
9185.000000;-0.387944
9184.000000;-0.387121
9183.000000;-0.386305
9182.000000;-0.385586
9181.000000;-0.384982
9180.000000;-0.384404
9179.000000;-0.383740
9178.000000;-0.382979
9177.000000;-0.382213
9176.000000;-0.381536
9175.000000;-0.380955
9174.000000;-0.380414
9173.000000;-0.379851
9172.000000;-0.379229
9171.000000;-0.378518
9170.000000;-0.377711
9169.000000;-0.376868
9168.000000;-0.376103
9167.000000;-0.375494
9166.000000;-0.374999
9165.000000;-0.374483
9164.000000;-0.373844
9163.000000;-0.373082
9162.000000;-0.372282
9161.000000;-0.371546
9160.000000;-0.370937
9159.000000;-0.370450
9158.000000;-0.370003
9157.000000;-0.369491
9156.000000;-0.368868
9155.000000;-0.368178
9154.000000;-0.367497
9153.000000;-0.366864
9152.000000;-0.366295
9151.000000;-0.365810
9150.000000;-0.365390
9149.000000;-0.364939
9148.000000;-0.364353
9147.000000;-0.363634
9146.000000;-0.362912
9145.000000;-0.362308
9144.000000;-0.361815
9143.000000;-0.361324
9142.000000;-0.360748
9141.000000;-0.360078
9140.000000;-0.359371
9139.000000;-0.358688
9138.000000;-0.358062
9137.000000;-0.357491
9136.000000;-0.356949
9135.000000;-0.356418
9134.000000;-0.355895
9133.000000;-0.355378
9132.000000;-0.354862
9131.000000;-0.354355
9130.000000;-0.353869
9129.000000;-0.353375
9128.000000;-0.352812
9127.000000;-0.352166
9126.000000;-0.351526
9125.000000;-0.351008
9124.000000;-0.350629
9123.000000;-0.350287
9122.000000;-0.349874
9121.000000;-0.349374
9120.000000;-0.348842
9119.000000;-0.348333
9118.000000;-0.347858
9117.000000;-0.347406
9116.000000;-0.346949
9115.000000;-0.346455
9114.000000;-0.345905
9113.000000;-0.345318
9112.000000;-0.344741
9111.000000;-0.344208
9110.000000;-0.343713
9109.000000;-0.343231
9108.000000;-0.342752
9107.000000;-0.342288
9106.000000;-0.341854
9105.000000;-0.341445
9104.000000;-0.341038
9103.000000;-0.340608
9102.000000;-0.340157
9101.000000;-0.339726
9100.000000;-0.339366
9099.000000;-0.339077
9098.000000;-0.338777
9097.000000;-0.338361
9096.000000;-0.337806
9095.000000;-0.337201
9094.000000;-0.336646
9093.000000;-0.336154
9092.000000;-0.335672
9091.000000;-0.335178
9090.000000;-0.334706
9089.000000;-0.334291
9088.000000;-0.333933
9087.000000;-0.333618
