Criado como novo conjunto de dados;"0307_DANIEL.spp","21603.1 Secs"
cm-1;Abs
10000.000000;1.047781
9999.000000;1.047318
9998.000000;1.046745
9997.000000;1.045575
9996.000000;1.043837
9995.000000;1.042133
9994.000000;1.040990
9993.000000;1.040336
9992.000000;1.039710
9991.000000;1.038784
9990.000000;1.037557
9989.000000;1.036149
9988.000000;1.034628
9987.000000;1.033063
9986.000000;1.031610
9985.000000;1.030429
9984.000000;1.029497
9983.000000;1.028547
9982.000000;1.027265
9981.000000;1.025613
9980.000000;1.023952
9979.000000;1.022730
9978.000000;1.022015
9977.000000;1.021377
9976.000000;1.020293
9975.000000;1.018656
9974.000000;1.016840
9973.000000;1.015275
9972.000000;1.014048
9971.000000;1.012951
9970.000000;1.011858
9969.000000;1.010880
9968.000000;1.010103
9967.000000;1.009308
9966.000000;1.008185
9965.000000;1.006778
9964.000000;1.005515
9963.000000;1.004663
9962.000000;1.003917
9961.000000;1.002727
9960.000000;1.000951
9959.000000;0.999045
9958.000000;0.997592
9957.000000;0.996749
9956.000000;0.996162
9955.000000;0.995321
9954.000000;0.993967
9953.000000;0.992206
9952.000000;0.990299
9951.000000;0.988399
9950.000000;0.986560
9949.000000;0.984955
9948.000000;0.983908
9947.000000;0.983570
9946.000000;0.983662
9945.000000;0.983664
9944.000000;0.983271
9943.000000;0.982566
9942.000000;0.981727
9941.000000;0.980663
9940.000000;0.979023
9939.000000;0.976602
9938.000000;0.973735
9937.000000;0.971242
9936.000000;0.969794
9935.000000;0.969295
9934.000000;0.968976
9933.000000;0.968171
9932.000000;0.966860
9931.000000;0.965378
9930.000000;0.963864
9929.000000;0.962245
9928.000000;0.960613
9927.000000;0.959242
9926.000000;0.958231
9925.000000;0.957375
9924.000000;0.956442
9923.000000;0.955376
9922.000000;0.954147
9921.000000;0.952687
9920.000000;0.951061
9919.000000;0.949524
9918.000000;0.948255
9917.000000;0.947161
9916.000000;0.946020
9915.000000;0.944709
9914.000000;0.943200
9913.000000;0.941501
9912.000000;0.939724
9911.000000;0.938112
9910.000000;0.936835
9909.000000;0.935804
9908.000000;0.934816
9907.000000;0.933822
9906.000000;0.932910
9905.000000;0.932066
9904.000000;0.931091
9903.000000;0.929784
9902.000000;0.928122
9901.000000;0.926289
9900.000000;0.924564
9899.000000;0.923183
9898.000000;0.922195
9897.000000;0.921402
9896.000000;0.920459
9895.000000;0.919063
9894.000000;0.917138
9893.000000;0.914902
9892.000000;0.912778
9891.000000;0.911156
9890.000000;0.910136
9889.000000;0.909477
9888.000000;0.908793
9887.000000;0.907794
9886.000000;0.906407
9885.000000;0.904774
9884.000000;0.903144
9883.000000;0.901697
9882.000000;0.900425
9881.000000;0.899209
9880.000000;0.897980
9879.000000;0.896722
9878.000000;0.895348
9877.000000;0.893736
9876.000000;0.891914
9875.000000;0.890081
9874.000000;0.888394
9873.000000;0.886834
9872.000000;0.885322
9871.000000;0.883850
9870.000000;0.882419
9869.000000;0.880995
9868.000000;0.879597
9867.000000;0.878300
9866.000000;0.877077
9865.000000;0.875770
9864.000000;0.874334
9863.000000;0.872954
9862.000000;0.871787
9861.000000;0.870718
9860.000000;0.869543
9859.000000;0.868222
9858.000000;0.866775
9857.000000;0.865043
9856.000000;0.862897
9855.000000;0.860624
9854.000000;0.858779
9853.000000;0.857565
9852.000000;0.856590
9851.000000;0.855350
9850.000000;0.853784
9849.000000;0.852232
9848.000000;0.851020
9847.000000;0.850223
9846.000000;0.849676
9845.000000;0.849068
9844.000000;0.848072
9843.000000;0.846576
9842.000000;0.844763
9841.000000;0.842940
9840.000000;0.841301
9839.000000;0.839890
9838.000000;0.838678
9837.000000;0.837596
9836.000000;0.836536
9835.000000;0.835361
9834.000000;0.833877
9833.000000;0.831828
9832.000000;0.829122
9831.000000;0.826142
9830.000000;0.823623
9829.000000;0.821985
9828.000000;0.820894
9827.000000;0.819646
9826.000000;0.817955
9825.000000;0.816174
9824.000000;0.814783
9823.000000;0.813890
9822.000000;0.813254
9821.000000;0.812527
9820.000000;0.811398
9819.000000;0.809687
9818.000000;0.807501
9817.000000;0.805230
9816.000000;0.803278
9815.000000;0.801776
9814.000000;0.800550
9813.000000;0.799302
9812.000000;0.797814
9811.000000;0.796083
9810.000000;0.794323
9809.000000;0.792734
9808.000000;0.791273
9807.000000;0.789765
9806.000000;0.788238
9805.000000;0.786916
9804.000000;0.785785
9803.000000;0.784398
9802.000000;0.782366
9801.000000;0.779940
9800.000000;0.777814
9799.000000;0.776377
9798.000000;0.775360
9797.000000;0.774242
9796.000000;0.772781
9795.000000;0.771064
9794.000000;0.769222
9793.000000;0.767298
9792.000000;0.765330
9791.000000;0.763433
9790.000000;0.761749
9789.000000;0.760333
9788.000000;0.759079
9787.000000;0.757740
9786.000000;0.756119
9785.000000;0.754290
9784.000000;0.752565
9783.000000;0.751164
9782.000000;0.749932
9781.000000;0.748452
9780.000000;0.746462
9779.000000;0.744126
9778.000000;0.741890
9777.000000;0.740083
9776.000000;0.738646
9775.000000;0.737228
9774.000000;0.735495
9773.000000;0.733394
9772.000000;0.731197
9771.000000;0.729350
9770.000000;0.728189
9769.000000;0.727644
9768.000000;0.727186
9767.000000;0.726183
9766.000000;0.724399
9765.000000;0.722112
9764.000000;0.719741
9763.000000;0.717518
9762.000000;0.715519
9761.000000;0.713806
9760.000000;0.712325
9759.000000;0.710841
9758.000000;0.709189
9757.000000;0.707505
9756.000000;0.705991
9755.000000;0.704507
9754.000000;0.702714
9753.000000;0.700587
9752.000000;0.698469
9751.000000;0.696528
9750.000000;0.694503
9749.000000;0.692200
9748.000000;0.689964
9747.000000;0.688359
9746.000000;0.687468
9745.000000;0.686773
9744.000000;0.685710
9743.000000;0.684156
9742.000000;0.682354
9741.000000;0.680536
9740.000000;0.678703
9739.000000;0.676744
9738.000000;0.674679
9737.000000;0.672720
9736.000000;0.671006
9735.000000;0.669326
9734.000000;0.667288
9733.000000;0.664841
9732.000000;0.662440
9731.000000;0.660563
9730.000000;0.659188
9729.000000;0.657885
9728.000000;0.656313
9727.000000;0.654450
9726.000000;0.652440
9725.000000;0.650416
9724.000000;0.648461
9723.000000;0.646578
9722.000000;0.644691
9721.000000;0.642802
9720.000000;0.641075
9719.000000;0.639634
9718.000000;0.638295
9717.000000;0.636724
9716.000000;0.634826
9715.000000;0.632805
9714.000000;0.630797
9713.000000;0.628673
9712.000000;0.626310
9711.000000;0.623889
9710.000000;0.621782
9709.000000;0.620170
9708.000000;0.618850
9707.000000;0.617394
9706.000000;0.615503
9705.000000;0.613265
9704.000000;0.611084
9703.000000;0.609305
9702.000000;0.607865
9701.000000;0.606362
9700.000000;0.604439
9699.000000;0.602062
9698.000000;0.599440
9697.000000;0.596835
9696.000000;0.594458
9695.000000;0.592429
9694.000000;0.590739
9693.000000;0.589274
9692.000000;0.587887
9691.000000;0.586424
9690.000000;0.584718
9689.000000;0.582691
9688.000000;0.580473
9687.000000;0.578279
9686.000000;0.576161
9685.000000;0.573981
9684.000000;0.571667
9683.000000;0.569352
9682.000000;0.567198
9681.000000;0.565194
9680.000000;0.563236
9679.000000;0.561305
9678.000000;0.559447
9677.000000;0.557632
9676.000000;0.555774
9675.000000;0.553868
9674.000000;0.551979
9673.000000;0.550121
9672.000000;0.548207
9671.000000;0.546166
9670.000000;0.544021
9669.000000;0.541836
9668.000000;0.539656
9667.000000;0.537496
9666.000000;0.535337
9665.000000;0.533085
9664.000000;0.530613
9663.000000;0.527921
9662.000000;0.525260
9661.000000;0.522984
9660.000000;0.521236
9659.000000;0.519794
9658.000000;0.518268
9657.000000;0.516438
9656.000000;0.514357
9655.000000;0.512200
9654.000000;0.510127
9653.000000;0.508269
9652.000000;0.506685
9651.000000;0.505213
9650.000000;0.503485
9649.000000;0.501197
9648.000000;0.498380
9647.000000;0.495337
9646.000000;0.492373
9645.000000;0.489680
9644.000000;0.487360
9643.000000;0.485408
9642.000000;0.483635
9641.000000;0.481753
9640.000000;0.479609
9639.000000;0.477299
9638.000000;0.475057
9637.000000;0.473065
9636.000000;0.471339
9635.000000;0.469686
9634.000000;0.467784
9633.000000;0.465451
9632.000000;0.462836
9631.000000;0.460267
9630.000000;0.457905
9629.000000;0.455664
9628.000000;0.453445
9627.000000;0.451301
9626.000000;0.449284
9625.000000;0.447280
9624.000000;0.445113
9623.000000;0.442756
9622.000000;0.440354
9621.000000;0.438084
9620.000000;0.436021
9619.000000;0.434099
9618.000000;0.432129
9617.000000;0.429914
9616.000000;0.427402
9615.000000;0.424728
9614.000000;0.422087
9613.000000;0.419583
9612.000000;0.417217
9611.000000;0.414971
9610.000000;0.412865
9609.000000;0.410963
9608.000000;0.409295
9607.000000;0.407720
9606.000000;0.405904
9605.000000;0.403585
9604.000000;0.400891
9603.000000;0.398261
9602.000000;0.395964
9601.000000;0.393808
9600.000000;0.391413
9599.000000;0.388690
9598.000000;0.385916
9597.000000;0.383374
9596.000000;0.381090
9595.000000;0.378898
9594.000000;0.376634
9593.000000;0.374221
9592.000000;0.371670
9591.000000;0.369073
9590.000000;0.366572
9589.000000;0.364268
9588.000000;0.362154
9587.000000;0.360153
9586.000000;0.358190
9585.000000;0.356222
9584.000000;0.354220
9583.000000;0.352101
9582.000000;0.349735
9581.000000;0.347053
9580.000000;0.344177
9579.000000;0.341372
9578.000000;0.338813
9577.000000;0.336429
9576.000000;0.334044
9575.000000;0.331625
9574.000000;0.329307
9573.000000;0.327166
9572.000000;0.325045
9571.000000;0.322674
9570.000000;0.319965
9569.000000;0.317124
9568.000000;0.314463
9567.000000;0.312117
9566.000000;0.309967
9565.000000;0.307847
9564.000000;0.305752
9563.000000;0.303777
9562.000000;0.301888
9561.000000;0.299885
9560.000000;0.297648
9559.000000;0.295318
9558.000000;0.293136
9557.000000;0.291131
9556.000000;0.289079
9555.000000;0.286774
9554.000000;0.284276
9553.000000;0.281822
9552.000000;0.279556
9551.000000;0.277356
9550.000000;0.274971
9549.000000;0.272311
9548.000000;0.269601
9547.000000;0.267190
9546.000000;0.265219
9545.000000;0.263501
9544.000000;0.261715
9543.000000;0.259651
9542.000000;0.257253
9541.000000;0.254578
9540.000000;0.251824
9539.000000;0.249306
9538.000000;0.247220
9537.000000;0.245415
9536.000000;0.243533
9535.000000;0.241382
9534.000000;0.239074
9533.000000;0.236792
9532.000000;0.234591
9531.000000;0.232491
9530.000000;0.230592
9529.000000;0.228916
9528.000000;0.227248
9527.000000;0.225274
9526.000000;0.222892
9525.000000;0.220282
9524.000000;0.217703
9523.000000;0.215340
9522.000000;0.213317
9521.000000;0.211665
9520.000000;0.210219
9519.000000;0.208678
9518.000000;0.206878
9517.000000;0.204939
9516.000000;0.203067
9515.000000;0.201286
9514.000000;0.199465
9513.000000;0.197522
9512.000000;0.195475
9511.000000;0.193333
9510.000000;0.191107
9509.000000;0.188969
9508.000000;0.187218
9507.000000;0.185950
9506.000000;0.184825
9505.000000;0.183322
9504.000000;0.181243
9503.000000;0.178880
9502.000000;0.176684
9501.000000;0.174863
9500.000000;0.173324
9499.000000;0.171865
9498.000000;0.170336
9497.000000;0.168677
9496.000000;0.166919
9495.000000;0.165156
9494.000000;0.163447
9493.000000;0.161751
9492.000000;0.160013
9491.000000;0.158301
9490.000000;0.156777
9489.000000;0.155543
9488.000000;0.154591
9487.000000;0.153883
9486.000000;0.153338
9485.000000;0.152701
9484.000000;0.151610
9483.000000;0.149922
9482.000000;0.147929
9481.000000;0.146140
9480.000000;0.144868
9479.000000;0.144115
9478.000000;0.143721
9477.000000;0.143420
9476.000000;0.142835
9475.000000;0.141680
9474.000000;0.140098
9473.000000;0.138617
9472.000000;0.137648
9471.000000;0.137118
9470.000000;0.136657
9469.000000;0.135994
9468.000000;0.135044
9467.000000;0.133794
9466.000000;0.132341
9465.000000;0.130969
9464.000000;0.129953
9463.000000;0.129269
9462.000000;0.128675
9461.000000;0.128067
9460.000000;0.127573
9459.000000;0.127272
9458.000000;0.127030
9457.000000;0.126715
9456.000000;0.126386
9455.000000;0.126115
9454.000000;0.125787
9453.000000;0.125266
9452.000000;0.124665
9451.000000;0.124243
9450.000000;0.124042
9449.000000;0.123837
9448.000000;0.123480
9447.000000;0.123120
9446.000000;0.123005
9445.000000;0.123165
9444.000000;0.123388
9443.000000;0.123458
9442.000000;0.123320
9441.000000;0.123078
9440.000000;0.122905
9439.000000;0.122915
9438.000000;0.123059
9437.000000;0.123148
9436.000000;0.123059
9435.000000;0.122902
9434.000000;0.122913
9433.000000;0.123173
9432.000000;0.123511
9431.000000;0.123735
9430.000000;0.123869
9429.000000;0.124085
9428.000000;0.124442
9427.000000;0.124805
9426.000000;0.125044
9425.000000;0.125231
9424.000000;0.125569
9423.000000;0.126159
9422.000000;0.126903
9421.000000;0.127633
9420.000000;0.128293
9419.000000;0.128948
9418.000000;0.129649
9417.000000;0.130315
9416.000000;0.130787
9415.000000;0.131017
9414.000000;0.131137
9413.000000;0.131298
9412.000000;0.131496
9411.000000;0.131656
9410.000000;0.131908
9409.000000;0.132587
9408.000000;0.133848
9407.000000;0.135377
9406.000000;0.136652
9405.000000;0.137496
9404.000000;0.138201
9403.000000;0.139086
9402.000000;0.140118
9401.000000;0.141059
9400.000000;0.141827
9399.000000;0.142541
9398.000000;0.143266
9397.000000;0.143906
9396.000000;0.144397
9395.000000;0.144852
9394.000000;0.145456
9393.000000;0.146256
9392.000000;0.147151
9391.000000;0.148037
9390.000000;0.148924
9389.000000;0.149893
9388.000000;0.150998
9387.000000;0.152216
9386.000000;0.153473
9385.000000;0.154686
9384.000000;0.155776
9383.000000;0.156715
9382.000000;0.157580
9381.000000;0.158510
9380.000000;0.159547
9379.000000;0.160554
9378.000000;0.161397
9377.000000;0.162172
9376.000000;0.163150
9375.000000;0.164459
9374.000000;0.165957
9373.000000;0.167447
9372.000000;0.168877
9371.000000;0.170232
9370.000000;0.171392
9369.000000;0.172264
9368.000000;0.173005
9367.000000;0.173909
9366.000000;0.175082
9365.000000;0.176373
9364.000000;0.177617
9363.000000;0.178822
9362.000000;0.180057
9361.000000;0.181321
9360.000000;0.182582
9359.000000;0.183824
9358.000000;0.185012
9357.000000;0.186093
9356.000000;0.187111
9355.000000;0.188237
9354.000000;0.189587
9353.000000;0.191062
9352.000000;0.192444
9351.000000;0.193616
9350.000000;0.194620
9349.000000;0.195563
9348.000000;0.196543
9347.000000;0.197634
9346.000000;0.198842
9345.000000;0.200067
9344.000000;0.201189
9343.000000;0.202224
9342.000000;0.203352
9341.000000;0.204753
9340.000000;0.206420
9339.000000;0.208155
9338.000000;0.209744
9337.000000;0.211106
9336.000000;0.212296
9335.000000;0.213417
9334.000000;0.214562
9333.000000;0.215798
9332.000000;0.217093
9331.000000;0.218231
9330.000000;0.218935
9329.000000;0.219178
9328.000000;0.219348
9327.000000;0.219960
9326.000000;0.221199
9325.000000;0.222801
9324.000000;0.224395
9323.000000;0.225853
9322.000000;0.227279
9321.000000;0.228732
9320.000000;0.230059
9319.000000;0.231032
9318.000000;0.231644
9317.000000;0.232232
9316.000000;0.233226
9315.000000;0.234708
9314.000000;0.236286
9313.000000;0.237503
9312.000000;0.238350
9311.000000;0.239252
9310.000000;0.240567
9309.000000;0.242221
9308.000000;0.243884
9307.000000;0.245339
9306.000000;0.246586
9305.000000;0.247701
9304.000000;0.248707
9303.000000;0.249586
9302.000000;0.250335
9301.000000;0.251023
9300.000000;0.251816
9299.000000;0.252889
9298.000000;0.254254
9297.000000;0.255728
9296.000000;0.257105
9295.000000;0.258327
9294.000000;0.259434
9293.000000;0.260427
9292.000000;0.261281
9291.000000;0.262060
9290.000000;0.262900
9289.000000;0.263865
9288.000000;0.264865
9287.000000;0.265770
9286.000000;0.266569
9285.000000;0.267398
9284.000000;0.268399
9283.000000;0.269572
9282.000000;0.270781
9281.000000;0.271916
9280.000000;0.273016
9279.000000;0.274174
9278.000000;0.275384
9277.000000;0.276548
9276.000000;0.277615
9275.000000;0.278623
9274.000000;0.279602
9273.000000;0.280544
9272.000000;0.281485
9271.000000;0.282495
9270.000000;0.283561
9269.000000;0.284595
9268.000000;0.285600
9267.000000;0.286698
9266.000000;0.287904
9265.000000;0.288995
9264.000000;0.289742
9263.000000;0.290226
9262.000000;0.290769
9261.000000;0.291601
9260.000000;0.292678
9259.000000;0.293789
9258.000000;0.294760
9257.000000;0.295564
9256.000000;0.296339
9255.000000;0.297289
9254.000000;0.298479
9253.000000;0.299751
9252.000000;0.300897
9251.000000;0.301897
9250.000000;0.302866
9249.000000;0.303823
9248.000000;0.304626
9247.000000;0.305186
9246.000000;0.305635
9245.000000;0.306207
9244.000000;0.307005
9243.000000;0.307919
9242.000000;0.308785
9241.000000;0.309563
9240.000000;0.310361
9239.000000;0.311294
9238.000000;0.312354
9237.000000;0.313436
9236.000000;0.314439
9235.000000;0.315291
9234.000000;0.315936
9233.000000;0.316424
9232.000000;0.317017
9231.000000;0.318032
9230.000000;0.319464
9229.000000;0.320904
9228.000000;0.321934
9227.000000;0.322548
9226.000000;0.323064
9225.000000;0.323735
9224.000000;0.324619
9223.000000;0.325702
9222.000000;0.326924
9221.000000;0.328084
9220.000000;0.328944
9219.000000;0.329505
9218.000000;0.330030
9217.000000;0.330704
9216.000000;0.331418
9215.000000;0.331965
9214.000000;0.332328
9213.000000;0.332680
9212.000000;0.333174
9211.000000;0.333844
9210.000000;0.334639
9209.000000;0.335484
9208.000000;0.336308
9207.000000;0.337101
9206.000000;0.337905
9205.000000;0.338740
9204.000000;0.339581
9203.000000;0.340432
9202.000000;0.341359
9201.000000;0.342365
9200.000000;0.343311
9199.000000;0.344046
9198.000000;0.344597
9197.000000;0.345154
9196.000000;0.345863
9195.000000;0.346702
9194.000000;0.347549
9193.000000;0.348307
9192.000000;0.348955
9191.000000;0.349520
9190.000000;0.350024
9189.000000;0.350470
9188.000000;0.350877
9187.000000;0.351332
9186.000000;0.351956
9185.000000;0.352783
9184.000000;0.353693
9183.000000;0.354507
9182.000000;0.355160
9181.000000;0.355738
9180.000000;0.356356
9179.000000;0.357037
9178.000000;0.357719
9177.000000;0.358350
9176.000000;0.358947
9175.000000;0.359553
9174.000000;0.360184
9173.000000;0.360818
9172.000000;0.361434
9171.000000;0.362023
9170.000000;0.362555
9169.000000;0.362976
9168.000000;0.363273
9167.000000;0.363528
9166.000000;0.363862
9165.000000;0.364324
9164.000000;0.364872
9163.000000;0.365468
9162.000000;0.366139
9161.000000;0.366908
9160.000000;0.367708
9159.000000;0.368408
9158.000000;0.368906
9157.000000;0.369192
9156.000000;0.369347
9155.000000;0.369539
9154.000000;0.369959
9153.000000;0.370710
9152.000000;0.371716
9151.000000;0.372767
9150.000000;0.373655
9149.000000;0.374274
9148.000000;0.374630
9147.000000;0.374820
9146.000000;0.375015
9145.000000;0.375379
9144.000000;0.375974
9143.000000;0.376747
9142.000000;0.377609
9141.000000;0.378491
9140.000000;0.379296
9139.000000;0.379880
9138.000000;0.380148
9137.000000;0.380197
9136.000000;0.380311
9135.000000;0.380780
9134.000000;0.381669
9133.000000;0.382725
9132.000000;0.383496
9131.000000;0.383666
9130.000000;0.383368
9129.000000;0.383143
9128.000000;0.383500
9127.000000;0.384485
9126.000000;0.385694
9125.000000;0.386678
9124.000000;0.387272
9123.000000;0.387580
9122.000000;0.387773
9121.000000;0.387981
9120.000000;0.388257
9119.000000;0.388567
9118.000000;0.388847
9117.000000;0.389138
9116.000000;0.389587
9115.000000;0.390265
9114.000000;0.391037
9113.000000;0.391722
9112.000000;0.392310
9111.000000;0.392914
9110.000000;0.393544
9109.000000;0.394081
9108.000000;0.394471
9107.000000;0.394822
9106.000000;0.395247
9105.000000;0.395729
9104.000000;0.396172
9103.000000;0.396512
9102.000000;0.396736
9101.000000;0.396886
9100.000000;0.397071
9099.000000;0.397403
9098.000000;0.397862
9097.000000;0.398278
9096.000000;0.398507
9095.000000;0.398577
9094.000000;0.398645
9093.000000;0.398898
9092.000000;0.399483
9091.000000;0.400414
9090.000000;0.401475
9089.000000;0.402327
9088.000000;0.402801
9087.000000;0.403026
9086.000000;0.403195
9085.000000;0.403308
9084.000000;0.403284
9083.000000;0.403212
9082.000000;0.403338
9081.000000;0.403763
9080.000000;0.404323
9079.000000;0.404784
9078.000000;0.405062
9077.000000;0.405236
9076.000000;0.405428
9075.000000;0.405737
9074.000000;0.406198
9073.000000;0.406748
9072.000000;0.407258
9071.000000;0.407631
9070.000000;0.407856
9069.000000;0.407966
9068.000000;0.408026
9067.000000;0.408152
9066.000000;0.408468
9065.000000;0.408952
9064.000000;0.409405
9063.000000;0.409614
9062.000000;0.409573
9061.000000;0.409484
9060.000000;0.409571
9059.000000;0.409910
9058.000000;0.410416
9057.000000;0.410923
9056.000000;0.411284
9055.000000;0.411453
9054.000000;0.411514
9053.000000;0.411627
