Criado como novo conjunto de dados;"0307_DANIEL.spp","60485.2 Secs"
cm-1;Abs
10000.000000;0.541023
9999.000000;0.540446
9998.000000;0.539699
9997.000000;0.538762
9996.000000;0.537677
9995.000000;0.536429
9994.000000;0.535088
9993.000000;0.533864
9992.000000;0.532996
9991.000000;0.532501
9990.000000;0.532139
9989.000000;0.531612
9988.000000;0.530825
9987.000000;0.529954
9986.000000;0.529275
9985.000000;0.528912
9984.000000;0.528707
9983.000000;0.528328
9982.000000;0.527545
9981.000000;0.526426
9980.000000;0.525247
9979.000000;0.524224
9978.000000;0.523362
9977.000000;0.522533
9976.000000;0.521646
9975.000000;0.520717
9974.000000;0.519838
9973.000000;0.519099
9972.000000;0.518494
9971.000000;0.517885
9970.000000;0.517109
9969.000000;0.516171
9968.000000;0.515284
9967.000000;0.514652
9966.000000;0.514230
9965.000000;0.513758
9964.000000;0.513009
9963.000000;0.511974
9962.000000;0.510808
9961.000000;0.509694
9960.000000;0.508741
9959.000000;0.507955
9958.000000;0.507261
9957.000000;0.506574
9956.000000;0.505868
9955.000000;0.505173
9954.000000;0.504495
9953.000000;0.503745
9952.000000;0.502790
9951.000000;0.501605
9950.000000;0.500370
9949.000000;0.499356
9948.000000;0.498660
9947.000000;0.498068
9946.000000;0.497271
9945.000000;0.496207
9944.000000;0.495126
9943.000000;0.494267
9942.000000;0.493566
9941.000000;0.492734
9940.000000;0.491595
9939.000000;0.490264
9938.000000;0.489026
9937.000000;0.488120
9936.000000;0.487588
9935.000000;0.487263
9934.000000;0.486870
9933.000000;0.486198
9932.000000;0.485208
9931.000000;0.483990
9930.000000;0.482641
9929.000000;0.481227
9928.000000;0.479845
9927.000000;0.478685
9926.000000;0.477930
9925.000000;0.477563
9924.000000;0.477281
9923.000000;0.476708
9922.000000;0.475773
9921.000000;0.474782
9920.000000;0.474051
9919.000000;0.473515
9918.000000;0.472858
9917.000000;0.471958
9916.000000;0.471024
9915.000000;0.470249
9914.000000;0.469548
9913.000000;0.468738
9912.000000;0.467822
9911.000000;0.466946
9910.000000;0.466184
9909.000000;0.465499
9908.000000;0.464823
9907.000000;0.464046
9906.000000;0.463049
9905.000000;0.461880
9904.000000;0.460805
9903.000000;0.460017
9902.000000;0.459343
9901.000000;0.458414
9900.000000;0.457102
9899.000000;0.455620
9898.000000;0.454207
9897.000000;0.452930
9896.000000;0.451779
9895.000000;0.450761
9894.000000;0.449801
9893.000000;0.448721
9892.000000;0.447445
9891.000000;0.446178
9890.000000;0.445254
9889.000000;0.444796
9888.000000;0.444538
9887.000000;0.444005
9886.000000;0.442921
9885.000000;0.441487
9884.000000;0.440206
9883.000000;0.439377
9882.000000;0.438797
9881.000000;0.438018
9880.000000;0.436825
9879.000000;0.435368
9878.000000;0.433892
9877.000000;0.432540
9876.000000;0.431384
9875.000000;0.430476
9874.000000;0.429779
9873.000000;0.429153
9872.000000;0.428461
9871.000000;0.427626
9870.000000;0.426618
9869.000000;0.425467
9868.000000;0.424307
9867.000000;0.423257
9866.000000;0.422266
9865.000000;0.421197
9864.000000;0.420057
9863.000000;0.418985
9862.000000;0.417984
9861.000000;0.416824
9860.000000;0.415333
9859.000000;0.413668
9858.000000;0.412194
9857.000000;0.411170
9856.000000;0.410592
9855.000000;0.410256
9854.000000;0.409859
9853.000000;0.409137
9852.000000;0.408025
9851.000000;0.406667
9850.000000;0.405249
9849.000000;0.403869
9848.000000;0.402592
9847.000000;0.401507
9846.000000;0.400615
9845.000000;0.399746
9844.000000;0.398711
9843.000000;0.397494
9842.000000;0.396226
9841.000000;0.395010
9840.000000;0.393875
9839.000000;0.392871
9838.000000;0.392039
9837.000000;0.391276
9836.000000;0.390341
9835.000000;0.389102
9834.000000;0.387705
9833.000000;0.386434
9832.000000;0.385394
9831.000000;0.384392
9830.000000;0.383164
9829.000000;0.381690
9828.000000;0.380217
9827.000000;0.378988
9826.000000;0.378000
9825.000000;0.377075
9824.000000;0.376110
9823.000000;0.375139
9822.000000;0.374159
9821.000000;0.373019
9820.000000;0.371605
9819.000000;0.370073
9818.000000;0.368790
9817.000000;0.367974
9816.000000;0.367439
9815.000000;0.366711
9814.000000;0.365452
9813.000000;0.363752
9812.000000;0.362022
9811.000000;0.360611
9810.000000;0.359564
9809.000000;0.358697
9808.000000;0.357809
9807.000000;0.356784
9806.000000;0.355594
9805.000000;0.354299
9804.000000;0.353020
9803.000000;0.351835
9802.000000;0.350697
9801.000000;0.349496
9800.000000;0.348195
9799.000000;0.346852
9798.000000;0.345527
9797.000000;0.344240
9796.000000;0.342998
9795.000000;0.341784
9794.000000;0.340532
9793.000000;0.339183
9792.000000;0.337770
9791.000000;0.336395
9790.000000;0.335137
9789.000000;0.334012
9788.000000;0.332971
9787.000000;0.331871
9786.000000;0.330517
9785.000000;0.328884
9784.000000;0.327279
9783.000000;0.326115
9782.000000;0.325469
9781.000000;0.324981
9780.000000;0.324231
9779.000000;0.323099
9778.000000;0.321699
9777.000000;0.320114
9776.000000;0.318341
9775.000000;0.316429
9774.000000;0.314559
9773.000000;0.312934
9772.000000;0.311635
9771.000000;0.310551
9770.000000;0.309427
9769.000000;0.308044
9768.000000;0.306408
9767.000000;0.304773
9766.000000;0.303432
9765.000000;0.302468
9764.000000;0.301699
9763.000000;0.300792
9762.000000;0.299474
9761.000000;0.297714
9760.000000;0.295756
9759.000000;0.293941
9758.000000;0.292461
9757.000000;0.291291
9756.000000;0.290309
9755.000000;0.289391
9754.000000;0.288398
9753.000000;0.287203
9752.000000;0.285796
9751.000000;0.284323
9750.000000;0.282926
9749.000000;0.281602
9748.000000;0.280230
9747.000000;0.278714
9746.000000;0.277041
9745.000000;0.275267
9744.000000;0.273494
9743.000000;0.271819
9742.000000;0.270262
9741.000000;0.268757
9740.000000;0.267248
9739.000000;0.265783
9738.000000;0.264476
9737.000000;0.263398
9736.000000;0.262522
9735.000000;0.261727
9734.000000;0.260833
9733.000000;0.259680
9732.000000;0.258220
9731.000000;0.256532
9730.000000;0.254750
9729.000000;0.253013
9728.000000;0.251461
9727.000000;0.250178
9726.000000;0.249085
9725.000000;0.247966
9724.000000;0.246656
9723.000000;0.245182
9722.000000;0.243690
9721.000000;0.242263
9720.000000;0.240853
9719.000000;0.239364
9718.000000;0.237737
9717.000000;0.235964
9716.000000;0.234087
9715.000000;0.232188
9714.000000;0.230365
9713.000000;0.228678
9712.000000;0.227126
9711.000000;0.225668
9710.000000;0.224270
9709.000000;0.222912
9708.000000;0.221540
9707.000000;0.220050
9706.000000;0.218370
9705.000000;0.216587
9704.000000;0.214900
9703.000000;0.213389
9702.000000;0.211899
9701.000000;0.210229
9700.000000;0.208401
9699.000000;0.206615
9698.000000;0.204959
9697.000000;0.203299
9696.000000;0.201489
9695.000000;0.199598
9694.000000;0.197850
9693.000000;0.196384
9692.000000;0.195094
9691.000000;0.193707
9690.000000;0.192018
9689.000000;0.190110
9688.000000;0.188309
9687.000000;0.186869
9686.000000;0.185693
9685.000000;0.184447
9684.000000;0.182918
9683.000000;0.181186
9682.000000;0.179449
9681.000000;0.177820
9680.000000;0.176290
9679.000000;0.174776
9678.000000;0.173160
9677.000000;0.171376
9676.000000;0.169501
9675.000000;0.167673
9674.000000;0.165896
9673.000000;0.164060
9672.000000;0.162176
9671.000000;0.160433
9670.000000;0.158954
9669.000000;0.157617
9668.000000;0.156230
9667.000000;0.154767
9666.000000;0.153284
9665.000000;0.151703
9664.000000;0.149855
9663.000000;0.147742
9662.000000;0.145608
9661.000000;0.143690
9660.000000;0.141991
9659.000000;0.140297
9658.000000;0.138418
9657.000000;0.136359
9656.000000;0.134289
9655.000000;0.132350
9654.000000;0.130514
9653.000000;0.128700
9652.000000;0.126971
9651.000000;0.125514
9650.000000;0.124368
9649.000000;0.123288
9648.000000;0.121934
9647.000000;0.120143
9646.000000;0.117997
9645.000000;0.115698
9644.000000;0.113469
9643.000000;0.111466
9642.000000;0.109663
9641.000000;0.107870
9640.000000;0.105950
9639.000000;0.103978
9638.000000;0.102126
9637.000000;0.100471
9636.000000;0.098979
9635.000000;0.097564
9634.000000;0.096041
9633.000000;0.094117
9632.000000;0.091679
9631.000000;0.089064
9630.000000;0.086846
9629.000000;0.085275
9628.000000;0.084043
9627.000000;0.082642
9626.000000;0.080827
9625.000000;0.078684
9624.000000;0.076392
9623.000000;0.074060
9622.000000;0.071766
9621.000000;0.069608
9620.000000;0.067659
9619.000000;0.065895
9618.000000;0.064169
9617.000000;0.062306
9616.000000;0.060301
9615.000000;0.058397
9614.000000;0.056860
9613.000000;0.055632
9612.000000;0.054298
9611.000000;0.052457
9610.000000;0.050099
9609.000000;0.047550
9608.000000;0.045137
9607.000000;0.042983
9606.000000;0.041066
9605.000000;0.039336
9604.000000;0.037694
9603.000000;0.035942
9602.000000;0.033877
9601.000000;0.031489
9600.000000;0.029042
9599.000000;0.026894
9598.000000;0.025182
9597.000000;0.023661
9596.000000;0.021919
9595.000000;0.019775
9594.000000;0.017452
9593.000000;0.015321
9592.000000;0.013528
9591.000000;0.011897
9590.000000;0.010169
9589.000000;0.008239
9588.000000;0.006166
9587.000000;0.004059
9586.000000;0.002010
9585.000000;0.000076
9584.000000;-0.001755
9583.000000;-0.003588
9582.000000;-0.005549
9581.000000;-0.007666
9580.000000;-0.009839
9579.000000;-0.011934
9578.000000;-0.013921
9577.000000;-0.015912
9576.000000;-0.018046
9575.000000;-0.020302
9574.000000;-0.022451
9573.000000;-0.024278
9572.000000;-0.025878
9571.000000;-0.027624
9570.000000;-0.029775
9569.000000;-0.032165
9568.000000;-0.034386
9567.000000;-0.036247
9566.000000;-0.037944
9565.000000;-0.039799
9564.000000;-0.041962
9563.000000;-0.044382
9562.000000;-0.046919
9561.000000;-0.049374
9560.000000;-0.051529
9559.000000;-0.053310
9558.000000;-0.054870
9557.000000;-0.056429
9556.000000;-0.058061
9555.000000;-0.059728
9554.000000;-0.061496
9553.000000;-0.063538
9552.000000;-0.065900
9551.000000;-0.068358
9550.000000;-0.070601
9549.000000;-0.072506
9548.000000;-0.074194
9547.000000;-0.075848
9546.000000;-0.077557
9545.000000;-0.079304
9544.000000;-0.081059
9543.000000;-0.082843
9542.000000;-0.084735
9541.000000;-0.086801
9540.000000;-0.089010
9539.000000;-0.091204
9538.000000;-0.093191
9537.000000;-0.094902
9536.000000;-0.096473
9535.000000;-0.098139
9534.000000;-0.100022
9533.000000;-0.102038
9532.000000;-0.104020
9531.000000;-0.105893
9530.000000;-0.107688
9529.000000;-0.109429
9528.000000;-0.111101
9527.000000;-0.112714
9526.000000;-0.114319
9525.000000;-0.115944
9524.000000;-0.117596
9523.000000;-0.119331
9522.000000;-0.121225
9521.000000;-0.123244
9520.000000;-0.125239
9519.000000;-0.127103
9518.000000;-0.128828
9517.000000;-0.130383
9516.000000;-0.131673
9515.000000;-0.132738
9514.000000;-0.133861
9513.000000;-0.135325
9512.000000;-0.137111
9511.000000;-0.138950
9510.000000;-0.140646
9509.000000;-0.142205
9508.000000;-0.143687
9507.000000;-0.145081
9506.000000;-0.146373
9505.000000;-0.147628
9504.000000;-0.148966
9503.000000;-0.150498
9502.000000;-0.152263
9501.000000;-0.154168
9500.000000;-0.156002
9499.000000;-0.157581
9498.000000;-0.158877
9497.000000;-0.159951
9496.000000;-0.160866
9495.000000;-0.161709
9494.000000;-0.162622
9493.000000;-0.163660
9492.000000;-0.164691
9491.000000;-0.165626
9490.000000;-0.166649
9489.000000;-0.167999
9488.000000;-0.169533
9487.000000;-0.170768
9486.000000;-0.171449
9485.000000;-0.171851
9484.000000;-0.172429
9483.000000;-0.173343
9482.000000;-0.174458
9481.000000;-0.175579
9480.000000;-0.176544
9479.000000;-0.177239
9478.000000;-0.177768
9477.000000;-0.178488
9476.000000;-0.179658
9475.000000;-0.181069
9474.000000;-0.182225
9473.000000;-0.182874
9472.000000;-0.183208
9471.000000;-0.183551
9470.000000;-0.184055
9469.000000;-0.184723
9468.000000;-0.185549
9467.000000;-0.186506
9466.000000;-0.187485
9465.000000;-0.188339
9464.000000;-0.188962
9463.000000;-0.189348
9462.000000;-0.189590
9461.000000;-0.189829
9460.000000;-0.190098
9459.000000;-0.190250
9458.000000;-0.190135
9457.000000;-0.189856
9456.000000;-0.189734
9455.000000;-0.189972
9454.000000;-0.190441
9453.000000;-0.190866
9452.000000;-0.191109
9451.000000;-0.191218
9450.000000;-0.191274
9449.000000;-0.191293
9448.000000;-0.191221
9447.000000;-0.190961
9446.000000;-0.190429
9445.000000;-0.189696
9444.000000;-0.189041
9443.000000;-0.188764
9442.000000;-0.188907
9441.000000;-0.189217
9440.000000;-0.189362
9439.000000;-0.189160
9438.000000;-0.188623
9437.000000;-0.187904
9436.000000;-0.187233
9435.000000;-0.186790
9434.000000;-0.186551
9433.000000;-0.186282
9432.000000;-0.185761
9431.000000;-0.185016
9430.000000;-0.184299
9429.000000;-0.183840
9428.000000;-0.183659
9427.000000;-0.183592
9426.000000;-0.183429
9425.000000;-0.183028
9424.000000;-0.182382
9423.000000;-0.181606
9422.000000;-0.180816
9421.000000;-0.179986
9420.000000;-0.178972
9419.000000;-0.177729
9418.000000;-0.176448
9417.000000;-0.175419
9416.000000;-0.174745
9415.000000;-0.174249
9414.000000;-0.173671
9413.000000;-0.172914
9412.000000;-0.172080
9411.000000;-0.171297
9410.000000;-0.170553
9409.000000;-0.169716
9408.000000;-0.168713
9407.000000;-0.167621
9406.000000;-0.166553
9405.000000;-0.165489
9404.000000;-0.164347
9403.000000;-0.163193
9402.000000;-0.162214
9401.000000;-0.161397
9400.000000;-0.160386
9399.000000;-0.158854
9398.000000;-0.156977
9397.000000;-0.155345
9396.000000;-0.154381
9395.000000;-0.153935
9394.000000;-0.153503
9393.000000;-0.152716
9392.000000;-0.151568
9391.000000;-0.150284
9390.000000;-0.149069
9389.000000;-0.147944
9388.000000;-0.146766
9387.000000;-0.145389
9386.000000;-0.143796
9385.000000;-0.142082
9384.000000;-0.140362
9383.000000;-0.138769
9382.000000;-0.137466
9381.000000;-0.136494
9380.000000;-0.135615
9379.000000;-0.134477
9378.000000;-0.132991
9377.000000;-0.131417
9376.000000;-0.129994
9375.000000;-0.128643
9374.000000;-0.127158
9373.000000;-0.125549
9372.000000;-0.124020
9371.000000;-0.122675
9370.000000;-0.121439
9369.000000;-0.120230
9368.000000;-0.119039
9367.000000;-0.117822
9366.000000;-0.116461
9365.000000;-0.114921
9364.000000;-0.113364
9363.000000;-0.111990
9362.000000;-0.110794
9361.000000;-0.109536
9360.000000;-0.107970
9359.000000;-0.106106
9358.000000;-0.104224
9357.000000;-0.102628
9356.000000;-0.101365
9355.000000;-0.100236
9354.000000;-0.099057
9353.000000;-0.097833
9352.000000;-0.096639
9351.000000;-0.095434
9350.000000;-0.094123
9349.000000;-0.092770
9348.000000;-0.091579
9347.000000;-0.090626
9346.000000;-0.089692
9345.000000;-0.088456
9344.000000;-0.086805
9343.000000;-0.084894
9342.000000;-0.082941
9341.000000;-0.081052
9340.000000;-0.079245
9339.000000;-0.077526
9338.000000;-0.075904
9337.000000;-0.074354
9336.000000;-0.072877
9335.000000;-0.071552
9334.000000;-0.070451
9333.000000;-0.069482
9332.000000;-0.068416
9331.000000;-0.067103
9330.000000;-0.065603
9329.000000;-0.064061
9328.000000;-0.062534
9327.000000;-0.061033
9326.000000;-0.059634
9325.000000;-0.058386
9324.000000;-0.057163
9323.000000;-0.055765
9322.000000;-0.054182
9321.000000;-0.052619
9320.000000;-0.051219
9319.000000;-0.049900
9318.000000;-0.048516
9317.000000;-0.047047
9316.000000;-0.045543
9315.000000;-0.043996
9314.000000;-0.042412
9313.000000;-0.040928
9312.000000;-0.039746
9311.000000;-0.038914
9310.000000;-0.038210
9309.000000;-0.037248
9308.000000;-0.035734
9307.000000;-0.033712
9306.000000;-0.031585
9305.000000;-0.029789
9304.000000;-0.028408
9303.000000;-0.027186
9302.000000;-0.025939
9301.000000;-0.024785
9300.000000;-0.023868
9299.000000;-0.023017
9298.000000;-0.021882
9297.000000;-0.020340
9296.000000;-0.018616
9295.000000;-0.017013
9294.000000;-0.015660
9293.000000;-0.014516
9292.000000;-0.013470
9291.000000;-0.012380
9290.000000;-0.011142
9289.000000;-0.009754
9288.000000;-0.008286
9287.000000;-0.006787
9286.000000;-0.005286
9285.000000;-0.003865
9284.000000;-0.002619
9283.000000;-0.001517
9282.000000;-0.000390
9281.000000;0.000910
9280.000000;0.002379
9279.000000;0.003893
9278.000000;0.005302
9277.000000;0.006504
9276.000000;0.007505
9275.000000;0.008452
9274.000000;0.009568
9273.000000;0.010972
9272.000000;0.012568
9271.000000;0.014106
9270.000000;0.015381
9269.000000;0.016420
9268.000000;0.017474
9267.000000;0.018769
9266.000000;0.020204
9265.000000;0.021380
9264.000000;0.022022
9263.000000;0.022378
9262.000000;0.023072
9261.000000;0.024522
9260.000000;0.026539
9259.000000;0.028514
9258.000000;0.029972
9257.000000;0.030930
9256.000000;0.031780
9255.000000;0.032867
9254.000000;0.034197
9253.000000;0.035517
9252.000000;0.036628
9251.000000;0.037556
9250.000000;0.038445
9249.000000;0.039367
9248.000000;0.040319
9247.000000;0.041304
9246.000000;0.042314
9245.000000;0.043269
9244.000000;0.044092
9243.000000;0.044855
9242.000000;0.045762
9241.000000;0.046961
9240.000000;0.048417
9239.000000;0.049961
9238.000000;0.051390
9237.000000;0.052536
9236.000000;0.053334
9235.000000;0.053893
9234.000000;0.054465
9233.000000;0.055293
9232.000000;0.056458
9231.000000;0.057857
9230.000000;0.059287
9229.000000;0.060580
9228.000000;0.061718
9227.000000;0.062815
9226.000000;0.063944
9225.000000;0.065021
9224.000000;0.065929
9223.000000;0.066706
9222.000000;0.067517
9221.000000;0.068437
9220.000000;0.069394
9219.000000;0.070358
9218.000000;0.071457
9217.000000;0.072796
9216.000000;0.074244
9215.000000;0.075498
9214.000000;0.076373
9213.000000;0.076949
9212.000000;0.077466
9211.000000;0.078144
9210.000000;0.079094
9209.000000;0.080321
9208.000000;0.081741
9207.000000;0.083214
9206.000000;0.084564
9205.000000;0.085629
9204.000000;0.086343
9203.000000;0.086808
9202.000000;0.087256
9201.000000;0.087880
9200.000000;0.088688
9199.000000;0.089539
9198.000000;0.090330
9197.000000;0.091133
9196.000000;0.092148
9195.000000;0.093502
9194.000000;0.095052
9193.000000;0.096415
9192.000000;0.097249
9191.000000;0.097583
9190.000000;0.097812
9189.000000;0.098340
9188.000000;0.099248
9187.000000;0.100333
9186.000000;0.101393
9185.000000;0.102361
9184.000000;0.103216
9183.000000;0.103897
9182.000000;0.104415
9181.000000;0.104945
9180.000000;0.105710
9179.000000;0.106770
9178.000000;0.107953
9177.000000;0.108997
9176.000000;0.109742
9175.000000;0.110243
9174.000000;0.110734
9173.000000;0.111437
9172.000000;0.112347
9171.000000;0.113224
9170.000000;0.113880
9169.000000;0.114445
9168.000000;0.115245
9167.000000;0.116411
9166.000000;0.117709
9165.000000;0.118803
9164.000000;0.119616
9163.000000;0.120342
9162.000000;0.121180
9161.000000;0.122144
9160.000000;0.123126
9159.000000;0.124026
9158.000000;0.124792
9157.000000;0.125401
9156.000000;0.125863
9155.000000;0.126235
9154.000000;0.126632
9153.000000;0.127198
9152.000000;0.128023
9151.000000;0.129051
9150.000000;0.130080
9149.000000;0.130901
9148.000000;0.131459
9147.000000;0.131879
9146.000000;0.132351
9145.000000;0.133008
9144.000000;0.133889
9143.000000;0.134926
9142.000000;0.135956
9141.000000;0.136815
9140.000000;0.137472
9139.000000;0.138063
9138.000000;0.138756
9137.000000;0.139597
9136.000000;0.140480
9135.000000;0.141261
9134.000000;0.141869
9133.000000;0.142330
9132.000000;0.142729
9131.000000;0.143165
9130.000000;0.143722
9129.000000;0.144430
9128.000000;0.145246
9127.000000;0.146091
9126.000000;0.146929
9125.000000;0.147787
9124.000000;0.148677
9123.000000;0.149532
9122.000000;0.150264
9121.000000;0.150840
9120.000000;0.151273
9119.000000;0.151541
9118.000000;0.151640
9117.000000;0.151692
9116.000000;0.151900
9115.000000;0.152344
9114.000000;0.152914
9113.000000;0.153508
9112.000000;0.154206
9111.000000;0.155160
9110.000000;0.156345
9109.000000;0.157534
9108.000000;0.158495
9107.000000;0.159141
9106.000000;0.159548
9105.000000;0.159898
9104.000000;0.160384
9103.000000;0.161035
9102.000000;0.161634
9101.000000;0.161924
9100.000000;0.161934
9099.000000;0.162018
9098.000000;0.162508
9097.000000;0.163378
9096.000000;0.164280
9095.000000;0.164906
9094.000000;0.165253
9093.000000;0.165573
9092.000000;0.166099
9091.000000;0.166830
9090.000000;0.167591
9089.000000;0.168247
9088.000000;0.168808
9087.000000;0.169331
9086.000000;0.169807
9085.000000;0.170215
9084.000000;0.170618
9083.000000;0.171109
9082.000000;0.171677
9081.000000;0.172239
9080.000000;0.172779
9079.000000;0.173370
9078.000000;0.174052
9077.000000;0.174762
9076.000000;0.175409
9075.000000;0.175942
9074.000000;0.176344
9073.000000;0.176630
9072.000000;0.176875
9071.000000;0.177163
9070.000000;0.177505
9069.000000;0.177845
9068.000000;0.178169
9067.000000;0.178539
