Criado como novo conjunto de dados;"0307_DANIEL.spp","50584.9 Secs"
cm-1;Abs
10000.000000;0.477594
9999.000000;0.476227
9998.000000;0.474785
9997.000000;0.473576
9996.000000;0.472641
9995.000000;0.471650
9994.000000;0.470385
9993.000000;0.468948
9992.000000;0.467601
9991.000000;0.466462
9990.000000;0.465517
9989.000000;0.464741
9988.000000;0.464089
9987.000000;0.463411
9986.000000;0.462517
9985.000000;0.461356
9984.000000;0.460072
9983.000000;0.458861
9982.000000;0.457802
9981.000000;0.456800
9980.000000;0.455677
9979.000000;0.454323
9978.000000;0.452801
9977.000000;0.451309
9976.000000;0.450040
9975.000000;0.449060
9974.000000;0.448281
9973.000000;0.447535
9972.000000;0.446664
9971.000000;0.445615
9970.000000;0.444472
9969.000000;0.443390
9968.000000;0.442468
9967.000000;0.441672
9966.000000;0.440850
9965.000000;0.439821
9964.000000;0.438486
9963.000000;0.436911
9962.000000;0.435296
9961.000000;0.433830
9960.000000;0.432570
9959.000000;0.431463
9958.000000;0.430439
9957.000000;0.429430
9956.000000;0.428335
9955.000000;0.427081
9954.000000;0.425734
9953.000000;0.424484
9952.000000;0.423441
9951.000000;0.422493
9950.000000;0.421410
9949.000000;0.420092
9948.000000;0.418661
9947.000000;0.417322
9946.000000;0.416146
9945.000000;0.415037
9944.000000;0.413897
9943.000000;0.412752
9942.000000;0.411675
9941.000000;0.410619
9940.000000;0.409424
9939.000000;0.408047
9938.000000;0.406680
9937.000000;0.405547
9936.000000;0.404616
9935.000000;0.403617
9934.000000;0.402362
9933.000000;0.400948
9932.000000;0.399640
9931.000000;0.398592
9930.000000;0.397724
9929.000000;0.396808
9928.000000;0.395656
9927.000000;0.394271
9926.000000;0.392822
9925.000000;0.391467
9924.000000;0.390187
9923.000000;0.388853
9922.000000;0.387432
9921.000000;0.386060
9920.000000;0.384881
9919.000000;0.383897
9918.000000;0.382984
9917.000000;0.382016
9916.000000;0.380911
9915.000000;0.379638
9914.000000;0.378238
9913.000000;0.376819
9912.000000;0.375463
9911.000000;0.374142
9910.000000;0.372774
9909.000000;0.371340
9908.000000;0.369909
9907.000000;0.368570
9906.000000;0.367370
9905.000000;0.366308
9904.000000;0.365321
9903.000000;0.364286
9902.000000;0.363104
9901.000000;0.361789
9900.000000;0.360443
9899.000000;0.359118
9898.000000;0.357756
9897.000000;0.356283
9896.000000;0.354721
9895.000000;0.353152
9894.000000;0.351628
9893.000000;0.350172
9892.000000;0.348844
9891.000000;0.347714
9890.000000;0.346725
9889.000000;0.345679
9888.000000;0.344416
9887.000000;0.342994
9886.000000;0.341622
9885.000000;0.340451
9884.000000;0.339465
9883.000000;0.338546
9882.000000;0.337572
9881.000000;0.336452
9880.000000;0.335148
9879.000000;0.333717
9878.000000;0.332279
9877.000000;0.330893
9876.000000;0.329502
9875.000000;0.328030
9874.000000;0.326504
9873.000000;0.325037
9872.000000;0.323703
9871.000000;0.322471
9870.000000;0.321250
9869.000000;0.319943
9868.000000;0.318487
9867.000000;0.316874
9866.000000;0.315164
9865.000000;0.313467
9864.000000;0.311898
9863.000000;0.310533
9862.000000;0.309376
9861.000000;0.308354
9860.000000;0.307341
9859.000000;0.306216
9858.000000;0.304915
9857.000000;0.303445
9856.000000;0.301885
9855.000000;0.300338
9854.000000;0.298859
9853.000000;0.297413
9852.000000;0.295955
9851.000000;0.294551
9850.000000;0.293351
9849.000000;0.292406
9848.000000;0.291558
9847.000000;0.290552
9846.000000;0.289237
9845.000000;0.287638
9844.000000;0.285891
9843.000000;0.284141
9842.000000;0.282488
9841.000000;0.280971
9840.000000;0.279595
9839.000000;0.278356
9838.000000;0.277217
9837.000000;0.276056
9836.000000;0.274725
9835.000000;0.273189
9834.000000;0.271551
9833.000000;0.269901
9832.000000;0.268235
9831.000000;0.266577
9830.000000;0.265070
9829.000000;0.263791
9828.000000;0.262579
9827.000000;0.261180
9826.000000;0.259579
9825.000000;0.258009
9824.000000;0.256608
9823.000000;0.255229
9822.000000;0.253670
9821.000000;0.251967
9820.000000;0.250340
9819.000000;0.248921
9818.000000;0.247649
9817.000000;0.246418
9816.000000;0.245196
9815.000000;0.243973
9814.000000;0.242679
9813.000000;0.241227
9812.000000;0.239606
9811.000000;0.237901
9810.000000;0.236208
9809.000000;0.234559
9808.000000;0.232921
9807.000000;0.231266
9806.000000;0.229614
9805.000000;0.228025
9804.000000;0.226554
9803.000000;0.225210
9802.000000;0.223933
9801.000000;0.222628
9800.000000;0.221233
9799.000000;0.219768
9798.000000;0.218299
9797.000000;0.216857
9796.000000;0.215419
9795.000000;0.213968
9794.000000;0.212515
9793.000000;0.211040
9792.000000;0.209461
9791.000000;0.207723
9790.000000;0.205886
9789.000000;0.204082
9788.000000;0.202389
9787.000000;0.200803
9786.000000;0.199295
9785.000000;0.197855
9784.000000;0.196464
9783.000000;0.195074
9782.000000;0.193614
9781.000000;0.192009
9780.000000;0.190223
9779.000000;0.188321
9778.000000;0.186456
9777.000000;0.184757
9776.000000;0.183227
9775.000000;0.181794
9774.000000;0.180414
9773.000000;0.179065
9772.000000;0.177681
9771.000000;0.176178
9770.000000;0.174556
9769.000000;0.172891
9768.000000;0.171226
9767.000000;0.169529
9766.000000;0.167798
9765.000000;0.166109
9764.000000;0.164519
9763.000000;0.162988
9762.000000;0.161442
9761.000000;0.159878
9760.000000;0.158330
9759.000000;0.156768
9758.000000;0.155100
9757.000000;0.153291
9756.000000;0.151448
9755.000000;0.149735
9754.000000;0.148218
9753.000000;0.146782
9752.000000;0.145228
9751.000000;0.143456
9750.000000;0.141546
9749.000000;0.139664
9748.000000;0.137924
9747.000000;0.136334
9746.000000;0.134823
9745.000000;0.133278
9744.000000;0.131575
9743.000000;0.129665
9742.000000;0.127627
9741.000000;0.125615
9740.000000;0.123731
9739.000000;0.121993
9738.000000;0.120389
9737.000000;0.118884
9736.000000;0.117395
9735.000000;0.115818
9734.000000;0.114132
9733.000000;0.112412
9732.000000;0.110720
9731.000000;0.109019
9730.000000;0.107233
9729.000000;0.105349
9728.000000;0.103435
9727.000000;0.101587
9726.000000;0.099858
9725.000000;0.098207
9724.000000;0.096512
9723.000000;0.094673
9722.000000;0.092721
9721.000000;0.090800
9720.000000;0.089010
9719.000000;0.087325
9718.000000;0.085689
9717.000000;0.084116
9716.000000;0.082631
9715.000000;0.081161
9714.000000;0.079573
9713.000000;0.077798
9712.000000;0.075868
9711.000000;0.073845
9710.000000;0.071766
9709.000000;0.069679
9708.000000;0.067639
9707.000000;0.065663
9706.000000;0.063706
9705.000000;0.061742
9704.000000;0.059817
9703.000000;0.057997
9702.000000;0.056263
9701.000000;0.054503
9700.000000;0.052618
9699.000000;0.050631
9698.000000;0.048655
9697.000000;0.046771
9696.000000;0.044950
9695.000000;0.043102
9694.000000;0.041189
9693.000000;0.039255
9692.000000;0.037370
9691.000000;0.035564
9690.000000;0.033820
9689.000000;0.032104
9688.000000;0.030375
9687.000000;0.028579
9686.000000;0.026655
9685.000000;0.024573
9684.000000;0.022364
9683.000000;0.020140
9682.000000;0.018051
9681.000000;0.016197
9680.000000;0.014546
9679.000000;0.012957
9678.000000;0.011268
9677.000000;0.009389
9676.000000;0.007324
9675.000000;0.005157
9674.000000;0.003010
9673.000000;0.000962
9672.000000;-0.001016
9671.000000;-0.003022
9670.000000;-0.005102
9669.000000;-0.007193
9668.000000;-0.009216
9667.000000;-0.011178
9666.000000;-0.013139
9665.000000;-0.015090
9664.000000;-0.016946
9663.000000;-0.018676
9662.000000;-0.020403
9661.000000;-0.022318
9660.000000;-0.024495
9659.000000;-0.026817
9658.000000;-0.029104
9657.000000;-0.031265
9656.000000;-0.033324
9655.000000;-0.035321
9654.000000;-0.037259
9653.000000;-0.039141
9652.000000;-0.041020
9651.000000;-0.042974
9650.000000;-0.045040
9649.000000;-0.047174
9648.000000;-0.049287
9647.000000;-0.051307
9646.000000;-0.053243
9645.000000;-0.055201
9644.000000;-0.057300
9643.000000;-0.059545
9642.000000;-0.061801
9641.000000;-0.063941
9640.000000;-0.065976
9639.000000;-0.068032
9638.000000;-0.070193
9637.000000;-0.072426
9636.000000;-0.074639
9635.000000;-0.076752
9634.000000;-0.078737
9633.000000;-0.080647
9632.000000;-0.082626
9631.000000;-0.084811
9630.000000;-0.087197
9629.000000;-0.089622
9628.000000;-0.091932
9627.000000;-0.094104
9626.000000;-0.096208
9625.000000;-0.098294
9624.000000;-0.100377
9623.000000;-0.102480
9622.000000;-0.104638
9621.000000;-0.106831
9620.000000;-0.108993
9619.000000;-0.111081
9618.000000;-0.113133
9617.000000;-0.115237
9616.000000;-0.117450
9615.000000;-0.119744
9614.000000;-0.122018
9613.000000;-0.124191
9612.000000;-0.126282
9611.000000;-0.128394
9610.000000;-0.130590
9609.000000;-0.132816
9608.000000;-0.134991
9607.000000;-0.137140
9606.000000;-0.139414
9605.000000;-0.141923
9604.000000;-0.144584
9603.000000;-0.147149
9602.000000;-0.149400
9601.000000;-0.151325
9600.000000;-0.153120
9599.000000;-0.155030
9598.000000;-0.157175
9597.000000;-0.159514
9596.000000;-0.161920
9595.000000;-0.164281
9594.000000;-0.166540
9593.000000;-0.168711
9592.000000;-0.170881
9591.000000;-0.173155
9590.000000;-0.175566
9589.000000;-0.178030
9588.000000;-0.180406
9587.000000;-0.182615
9586.000000;-0.184691
9585.000000;-0.186743
9584.000000;-0.188871
9583.000000;-0.191099
9582.000000;-0.193391
9581.000000;-0.195725
9580.000000;-0.198111
9579.000000;-0.200525
9578.000000;-0.202866
9577.000000;-0.205050
9576.000000;-0.207131
9575.000000;-0.209253
9574.000000;-0.211468
9573.000000;-0.213693
9572.000000;-0.215879
9571.000000;-0.218120
9570.000000;-0.220519
9569.000000;-0.222994
9568.000000;-0.225350
9567.000000;-0.227500
9566.000000;-0.229524
9565.000000;-0.231527
9564.000000;-0.233550
9563.000000;-0.235637
9562.000000;-0.237871
9561.000000;-0.240277
9560.000000;-0.242752
9559.000000;-0.245156
9558.000000;-0.247426
9557.000000;-0.249579
9556.000000;-0.251648
9555.000000;-0.253687
9554.000000;-0.255785
9553.000000;-0.258006
9552.000000;-0.260337
9551.000000;-0.262727
9550.000000;-0.265150
9549.000000;-0.267582
9548.000000;-0.269940
9547.000000;-0.272116
9546.000000;-0.274097
9545.000000;-0.275983
9544.000000;-0.277878
9543.000000;-0.279806
9542.000000;-0.281765
9541.000000;-0.283801
9540.000000;-0.285986
9539.000000;-0.288330
9538.000000;-0.290750
9537.000000;-0.293135
9536.000000;-0.295404
9535.000000;-0.297526
9534.000000;-0.299502
9533.000000;-0.301373
9532.000000;-0.303221
9531.000000;-0.305141
9530.000000;-0.307182
9529.000000;-0.309310
9528.000000;-0.311439
9527.000000;-0.313508
9526.000000;-0.315518
9525.000000;-0.317504
9524.000000;-0.319493
9523.000000;-0.321513
9522.000000;-0.323589
9521.000000;-0.325692
9520.000000;-0.327712
9519.000000;-0.329552
9518.000000;-0.331242
9517.000000;-0.332910
9516.000000;-0.334622
9515.000000;-0.336322
9514.000000;-0.337968
9513.000000;-0.339656
9512.000000;-0.341519
9511.000000;-0.343532
9510.000000;-0.345536
9509.000000;-0.347423
9508.000000;-0.349235
9507.000000;-0.351033
9506.000000;-0.352789
9505.000000;-0.354450
9504.000000;-0.356061
9503.000000;-0.357707
9502.000000;-0.359374
9501.000000;-0.360960
9500.000000;-0.362448
9499.000000;-0.363997
9498.000000;-0.365771
9497.000000;-0.367729
9496.000000;-0.369620
9495.000000;-0.371220
9494.000000;-0.372528
9493.000000;-0.373726
9492.000000;-0.374965
9491.000000;-0.376245
9490.000000;-0.377471
9489.000000;-0.378576
9488.000000;-0.379555
9487.000000;-0.380453
9486.000000;-0.381362
9485.000000;-0.382420
9484.000000;-0.383730
9483.000000;-0.385241
9482.000000;-0.386745
9481.000000;-0.388010
9480.000000;-0.388942
9479.000000;-0.389622
9478.000000;-0.390252
9477.000000;-0.391038
9476.000000;-0.392078
9475.000000;-0.393307
9474.000000;-0.394548
9473.000000;-0.395639
9472.000000;-0.396544
9471.000000;-0.397347
9470.000000;-0.398170
9469.000000;-0.399088
9468.000000;-0.400084
9467.000000;-0.401071
9466.000000;-0.401961
9465.000000;-0.402715
9464.000000;-0.403326
9463.000000;-0.403798
9462.000000;-0.404189
9461.000000;-0.404625
9460.000000;-0.405209
9459.000000;-0.405881
9458.000000;-0.406457
9457.000000;-0.406836
9456.000000;-0.407120
9455.000000;-0.407473
9454.000000;-0.407912
9453.000000;-0.408297
9452.000000;-0.408494
9451.000000;-0.408522
9450.000000;-0.408540
9449.000000;-0.408712
9448.000000;-0.409068
9447.000000;-0.409451
9446.000000;-0.409633
9445.000000;-0.409516
9444.000000;-0.409236
9443.000000;-0.409056
9442.000000;-0.409135
9441.000000;-0.409407
9440.000000;-0.409638
9439.000000;-0.409618
9438.000000;-0.409334
9437.000000;-0.408980
9436.000000;-0.408755
9435.000000;-0.408670
9434.000000;-0.408574
9433.000000;-0.408368
9432.000000;-0.408099
9431.000000;-0.407841
9430.000000;-0.407592
9429.000000;-0.407328
9428.000000;-0.407060
9427.000000;-0.406771
9426.000000;-0.406368
9425.000000;-0.405810
9424.000000;-0.405227
9423.000000;-0.404792
9422.000000;-0.404487
9421.000000;-0.404098
9420.000000;-0.403454
9419.000000;-0.402599
9418.000000;-0.401710
9417.000000;-0.400934
9416.000000;-0.400290
9415.000000;-0.399688
9414.000000;-0.399017
9413.000000;-0.398266
9412.000000;-0.397555
9411.000000;-0.397004
9410.000000;-0.396555
9409.000000;-0.396019
9408.000000;-0.395299
9407.000000;-0.394503
9406.000000;-0.393774
9405.000000;-0.393084
9404.000000;-0.392276
9403.000000;-0.391276
9402.000000;-0.390181
9401.000000;-0.389130
9400.000000;-0.388161
9399.000000;-0.387243
9398.000000;-0.386374
9397.000000;-0.385582
9396.000000;-0.384822
9395.000000;-0.383975
9394.000000;-0.382994
9393.000000;-0.381993
9392.000000;-0.381126
9391.000000;-0.380396
9390.000000;-0.379666
9389.000000;-0.378833
9388.000000;-0.377899
9387.000000;-0.376881
9386.000000;-0.375751
9385.000000;-0.374488
9384.000000;-0.373129
9383.000000;-0.371708
9382.000000;-0.370226
9381.000000;-0.368735
9380.000000;-0.367392
9379.000000;-0.366334
9378.000000;-0.365515
9377.000000;-0.364722
9376.000000;-0.363743
9375.000000;-0.362513
9374.000000;-0.361110
9373.000000;-0.359667
9372.000000;-0.358269
9371.000000;-0.356919
9370.000000;-0.355618
9369.000000;-0.354429
9368.000000;-0.353410
9367.000000;-0.352491
9366.000000;-0.351515
9365.000000;-0.350425
9364.000000;-0.349302
9363.000000;-0.348200
9362.000000;-0.347039
9361.000000;-0.345736
9360.000000;-0.344352
9359.000000;-0.343000
9358.000000;-0.341704
9357.000000;-0.340442
9356.000000;-0.339247
9355.000000;-0.338138
9354.000000;-0.337021
9353.000000;-0.335790
9352.000000;-0.334499
9351.000000;-0.333298
9350.000000;-0.332199
9349.000000;-0.331069
9348.000000;-0.329840
9347.000000;-0.328592
9346.000000;-0.327362
9345.000000;-0.326042
9344.000000;-0.324537
9343.000000;-0.322936
9342.000000;-0.321421
9341.000000;-0.320079
9340.000000;-0.318872
9339.000000;-0.317743
9338.000000;-0.316659
9337.000000;-0.315576
9336.000000;-0.314438
9335.000000;-0.313224
9334.000000;-0.311946
9333.000000;-0.310628
9332.000000;-0.309302
9331.000000;-0.308010
9330.000000;-0.306768
9329.000000;-0.305536
9328.000000;-0.304274
9327.000000;-0.303003
9326.000000;-0.301786
9325.000000;-0.300652
9324.000000;-0.299554
9323.000000;-0.298412
9322.000000;-0.297200
9321.000000;-0.295977
9320.000000;-0.294836
9319.000000;-0.293797
9318.000000;-0.292753
9317.000000;-0.291552
9316.000000;-0.290161
9315.000000;-0.288718
9314.000000;-0.287406
9313.000000;-0.286299
9312.000000;-0.285332
9311.000000;-0.284386
9310.000000;-0.283353
9309.000000;-0.282152
9308.000000;-0.280761
9307.000000;-0.279244
9306.000000;-0.277726
9305.000000;-0.276299
9304.000000;-0.274965
9303.000000;-0.273680
9302.000000;-0.272445
9301.000000;-0.271307
9300.000000;-0.270273
9299.000000;-0.269268
9298.000000;-0.268186
9297.000000;-0.266989
9296.000000;-0.265728
9295.000000;-0.264492
9294.000000;-0.263343
9293.000000;-0.262283
9292.000000;-0.261259
9291.000000;-0.260205
9290.000000;-0.259093
9289.000000;-0.257942
9288.000000;-0.256778
9287.000000;-0.255620
9286.000000;-0.254516
9285.000000;-0.253524
9284.000000;-0.252629
9283.000000;-0.251685
9282.000000;-0.250548
9281.000000;-0.249239
9280.000000;-0.247921
9279.000000;-0.246708
9278.000000;-0.245582
9277.000000;-0.244483
9276.000000;-0.243417
9275.000000;-0.242403
9274.000000;-0.241392
9273.000000;-0.240310
9272.000000;-0.239161
9271.000000;-0.238031
9270.000000;-0.237003
9269.000000;-0.236099
9268.000000;-0.235271
9267.000000;-0.234433
9266.000000;-0.233513
9265.000000;-0.232512
9264.000000;-0.231478
9263.000000;-0.230423
9262.000000;-0.229293
9261.000000;-0.228067
9260.000000;-0.226825
9259.000000;-0.225671
9258.000000;-0.224624
9257.000000;-0.223617
9256.000000;-0.222606
9255.000000;-0.221623
9254.000000;-0.220716
9253.000000;-0.219887
9252.000000;-0.219072
9251.000000;-0.218183
9250.000000;-0.217168
9249.000000;-0.216085
9248.000000;-0.215067
9247.000000;-0.214201
9246.000000;-0.213425
9245.000000;-0.212577
9244.000000;-0.211542
9243.000000;-0.210357
9242.000000;-0.209179
9241.000000;-0.208166
9240.000000;-0.207352
9239.000000;-0.206623
9238.000000;-0.205817
9237.000000;-0.204877
9236.000000;-0.203886
9235.000000;-0.202964
9234.000000;-0.202157
9233.000000;-0.201434
9232.000000;-0.200710
9231.000000;-0.199876
9230.000000;-0.198856
9229.000000;-0.197693
9228.000000;-0.196534
9227.000000;-0.195487
9226.000000;-0.194534
9225.000000;-0.193622
9224.000000;-0.192763
9223.000000;-0.192001
9222.000000;-0.191306
9221.000000;-0.190598
9220.000000;-0.189854
9219.000000;-0.189118
9218.000000;-0.188408
9217.000000;-0.187682
9216.000000;-0.186896
9215.000000;-0.186047
9214.000000;-0.185155
9213.000000;-0.184233
9212.000000;-0.183302
9211.000000;-0.182391
9210.000000;-0.181518
9209.000000;-0.180699
9208.000000;-0.179951
9207.000000;-0.179274
9206.000000;-0.178632
9205.000000;-0.177975
9204.000000;-0.177279
9203.000000;-0.176527
9202.000000;-0.175672
9201.000000;-0.174675
9200.000000;-0.173587
9199.000000;-0.172550
9198.000000;-0.171701
9197.000000;-0.171067
9196.000000;-0.170538
9195.000000;-0.169940
9194.000000;-0.169162
9193.000000;-0.168255
9192.000000;-0.167378
9191.000000;-0.166627
9190.000000;-0.165940
9189.000000;-0.165204
9188.000000;-0.164408
9187.000000;-0.163630
9186.000000;-0.162904
9185.000000;-0.162176
9184.000000;-0.161412
9183.000000;-0.160658
9182.000000;-0.159981
9181.000000;-0.159374
9180.000000;-0.158747
9179.000000;-0.158010
9178.000000;-0.157161
9177.000000;-0.156299
9176.000000;-0.155545
9175.000000;-0.154937
9174.000000;-0.154413
9173.000000;-0.153881
9172.000000;-0.153282
9171.000000;-0.152590
9170.000000;-0.151811
9169.000000;-0.151019
9168.000000;-0.150333
9167.000000;-0.149800
9166.000000;-0.149346
9165.000000;-0.148869
9164.000000;-0.148339
9163.000000;-0.147769
9162.000000;-0.147124
9161.000000;-0.146368
9160.000000;-0.145552
9159.000000;-0.144783
9158.000000;-0.144100
9157.000000;-0.143462
9156.000000;-0.142844
9155.000000;-0.142264
9154.000000;-0.141723
9153.000000;-0.141176
9152.000000;-0.140588
9151.000000;-0.139953
9150.000000;-0.139272
9149.000000;-0.138556
9148.000000;-0.137861
9147.000000;-0.137246
9146.000000;-0.136691
9145.000000;-0.136106
9144.000000;-0.135450
9143.000000;-0.134770
9142.000000;-0.134120
9141.000000;-0.133513
9140.000000;-0.132957
9139.000000;-0.132478
9138.000000;-0.132071
9137.000000;-0.131680
9136.000000;-0.131257
9135.000000;-0.130804
9134.000000;-0.130336
9133.000000;-0.129847
9132.000000;-0.129329
9131.000000;-0.128782
9130.000000;-0.128186
9129.000000;-0.127522
9128.000000;-0.126831
9127.000000;-0.126210
9126.000000;-0.125701
9125.000000;-0.125245
9124.000000;-0.124753
9123.000000;-0.124180
9122.000000;-0.123518
9121.000000;-0.122788
9120.000000;-0.122089
9119.000000;-0.121564
9118.000000;-0.121253
9117.000000;-0.121017
9116.000000;-0.120666
9115.000000;-0.120146
9114.000000;-0.119562
9113.000000;-0.119037
9112.000000;-0.118614
9111.000000;-0.118255
9110.000000;-0.117875
9109.000000;-0.117389
9108.000000;-0.116775
9107.000000;-0.116119
9106.000000;-0.115541
9105.000000;-0.115092
9104.000000;-0.114720
9103.000000;-0.114340
9102.000000;-0.113904
9101.000000;-0.113420
9100.000000;-0.112934
9099.000000;-0.112486
9098.000000;-0.112059
9097.000000;-0.111583
9096.000000;-0.111025
9095.000000;-0.110449
9094.000000;-0.109948
9093.000000;-0.109529
9092.000000;-0.109122
9091.000000;-0.108689
9090.000000;-0.108268
9089.000000;-0.107902
9088.000000;-0.107567
9087.000000;-0.107209
9086.000000;-0.106806
9085.000000;-0.106381
9084.000000;-0.105958
9083.000000;-0.105544
9082.000000;-0.105142
9081.000000;-0.104764
