Criado como novo conjunto de dados;"0307_DANIEL.spp","34023.7 Secs"
cm-1;Abs
10000.000000;1.140546
9999.000000;1.138591
9998.000000;1.136678
9997.000000;1.135288
9996.000000;1.134523
9995.000000;1.134023
9994.000000;1.133511
9993.000000;1.132901
9992.000000;1.132120
9991.000000;1.130915
9990.000000;1.129131
9989.000000;1.126903
9988.000000;1.124514
9987.000000;1.122187
9986.000000;1.120173
9985.000000;1.118864
9984.000000;1.118525
9983.000000;1.118910
9982.000000;1.119327
9981.000000;1.119176
9980.000000;1.118345
9979.000000;1.117057
9978.000000;1.115508
9977.000000;1.113782
9976.000000;1.112020
9975.000000;1.110444
9974.000000;1.109159
9973.000000;1.108058
9972.000000;1.107004
9971.000000;1.106002
9970.000000;1.105097
9969.000000;1.104170
9968.000000;1.103018
9967.000000;1.101614
9966.000000;1.100156
9965.000000;1.098799
9964.000000;1.097524
9963.000000;1.096303
9962.000000;1.095245
9961.000000;1.094395
9960.000000;1.093549
9959.000000;1.092484
9958.000000;1.091302
9957.000000;1.090301
9956.000000;1.089481
9955.000000;1.088435
9954.000000;1.086807
9953.000000;1.084719
9952.000000;1.082626
9951.000000;1.080874
9950.000000;1.079519
9949.000000;1.078468
9948.000000;1.077613
9947.000000;1.076806
9946.000000;1.075850
9945.000000;1.074628
9944.000000;1.073236
9943.000000;1.071954
9942.000000;1.071015
9941.000000;1.070352
9940.000000;1.069565
9939.000000;1.068195
9938.000000;1.066099
9937.000000;1.063585
9936.000000;1.061188
9935.000000;1.059301
9934.000000;1.057926
9933.000000;1.056728
9932.000000;1.055354
9931.000000;1.053765
9930.000000;1.052271
9929.000000;1.051203
9928.000000;1.050591
9927.000000;1.050182
9926.000000;1.049730
9925.000000;1.049184
9924.000000;1.048563
9923.000000;1.047730
9922.000000;1.046410
9921.000000;1.044539
9920.000000;1.042580
9919.000000;1.041287
9918.000000;1.040942
9917.000000;1.040843
9916.000000;1.039831
9915.000000;1.037446
9914.000000;1.034385
9913.000000;1.031697
9912.000000;1.029811
9911.000000;1.028528
9910.000000;1.027641
9909.000000;1.027108
9908.000000;1.026682
9907.000000;1.025871
9906.000000;1.024428
9905.000000;1.022623
9904.000000;1.020853
9903.000000;1.019246
9902.000000;1.017753
9901.000000;1.016389
9900.000000;1.015145
9899.000000;1.013845
9898.000000;1.012314
9897.000000;1.010641
9896.000000;1.009082
9895.000000;1.007779
9894.000000;1.006690
9893.000000;1.005698
9892.000000;1.004650
9891.000000;1.003348
9890.000000;1.001715
9889.000000;0.999982
9888.000000;0.998520
9887.000000;0.997413
9886.000000;0.996351
9885.000000;0.995024
9884.000000;0.993526
9883.000000;0.992219
9882.000000;0.991246
9881.000000;0.990337
9880.000000;0.989165
9879.000000;0.987769
9878.000000;0.986480
9877.000000;0.985430
9876.000000;0.984312
9875.000000;0.982736
9874.000000;0.980737
9873.000000;0.978790
9872.000000;0.977311
9871.000000;0.976245
9870.000000;0.975174
9869.000000;0.973740
9868.000000;0.971961
9867.000000;0.970161
9866.000000;0.968632
9865.000000;0.967346
9864.000000;0.966009
9863.000000;0.964430
9862.000000;0.962752
9861.000000;0.961238
9860.000000;0.959872
9859.000000;0.958342
9858.000000;0.956423
9857.000000;0.954240
9856.000000;0.952111
9855.000000;0.950219
9854.000000;0.948535
9853.000000;0.946953
9852.000000;0.945422
9851.000000;0.943955
9850.000000;0.942598
9849.000000;0.941370
9848.000000;0.940209
9847.000000;0.938999
9846.000000;0.937688
9845.000000;0.936338
9844.000000;0.935042
9843.000000;0.933811
9842.000000;0.932585
9841.000000;0.931292
9840.000000;0.929838
9839.000000;0.928117
9838.000000;0.926137
9837.000000;0.924143
9836.000000;0.922507
9835.000000;0.921419
9834.000000;0.920680
9833.000000;0.919879
9832.000000;0.918791
9831.000000;0.917542
9830.000000;0.916326
9829.000000;0.915069
9828.000000;0.913507
9827.000000;0.911584
9826.000000;0.909572
9825.000000;0.907707
9824.000000;0.905856
9823.000000;0.903733
9822.000000;0.901427
9821.000000;0.899478
9820.000000;0.898359
9819.000000;0.897969
9818.000000;0.897671
9817.000000;0.896771
9816.000000;0.895001
9815.000000;0.892663
9814.000000;0.890409
9813.000000;0.888783
9812.000000;0.887846
9811.000000;0.887157
9810.000000;0.886114
9809.000000;0.884398
9808.000000;0.882144
9807.000000;0.879735
9806.000000;0.877432
9805.000000;0.875208
9804.000000;0.872968
9803.000000;0.870873
9802.000000;0.869317
9801.000000;0.868481
9800.000000;0.868042
9799.000000;0.867454
9798.000000;0.866450
9797.000000;0.865108
9796.000000;0.863494
9795.000000;0.861483
9794.000000;0.859060
9793.000000;0.856566
9792.000000;0.854471
9791.000000;0.852967
9790.000000;0.851866
9789.000000;0.850832
9788.000000;0.849601
9787.000000;0.848050
9786.000000;0.846244
9785.000000;0.844429
9784.000000;0.842828
9783.000000;0.841390
9782.000000;0.839811
9781.000000;0.837899
9780.000000;0.835800
9779.000000;0.833797
9778.000000;0.831978
9777.000000;0.830239
9776.000000;0.828537
9775.000000;0.826923
9774.000000;0.825319
9773.000000;0.823525
9772.000000;0.821535
9771.000000;0.819656
9770.000000;0.818098
9769.000000;0.816600
9768.000000;0.814740
9767.000000;0.812572
9766.000000;0.810633
9765.000000;0.809274
9764.000000;0.808233
9763.000000;0.807003
9762.000000;0.805401
9761.000000;0.803613
9760.000000;0.801828
9759.000000;0.800034
9758.000000;0.798141
9757.000000;0.796134
9756.000000;0.794085
9755.000000;0.792068
9754.000000;0.790070
9753.000000;0.788004
9752.000000;0.785896
9751.000000;0.783999
9750.000000;0.782576
9749.000000;0.781533
9748.000000;0.780471
9747.000000;0.779151
9746.000000;0.777689
9745.000000;0.776189
9744.000000;0.774451
9743.000000;0.772275
9742.000000;0.769864
9741.000000;0.767611
9740.000000;0.765574
9739.000000;0.763434
9738.000000;0.760948
9737.000000;0.758228
9736.000000;0.755640
9735.000000;0.753582
9734.000000;0.752312
9733.000000;0.751707
9732.000000;0.751189
9731.000000;0.750118
9730.000000;0.748333
9729.000000;0.746160
9728.000000;0.743917
9727.000000;0.741622
9726.000000;0.739233
9725.000000;0.736930
9724.000000;0.735009
9723.000000;0.733601
9722.000000;0.732551
9721.000000;0.731515
9720.000000;0.730211
9719.000000;0.728653
9718.000000;0.727105
9717.000000;0.725696
9716.000000;0.724135
9715.000000;0.722019
9714.000000;0.719366
9713.000000;0.716625
9712.000000;0.714179
9711.000000;0.712070
9710.000000;0.710217
9709.000000;0.708616
9708.000000;0.707235
9707.000000;0.705905
9706.000000;0.704454
9705.000000;0.702798
9704.000000;0.700865
9703.000000;0.698622
9702.000000;0.696249
9701.000000;0.694043
9700.000000;0.692013
9699.000000;0.689794
9698.000000;0.687148
9697.000000;0.684390
9696.000000;0.682121
9695.000000;0.680622
9694.000000;0.679638
9693.000000;0.678651
9692.000000;0.677227
9691.000000;0.675242
9690.000000;0.672998
9689.000000;0.671000
9688.000000;0.669430
9687.000000;0.667890
9686.000000;0.665881
9685.000000;0.663466
9684.000000;0.661187
9683.000000;0.659326
9682.000000;0.657554
9681.000000;0.655410
9680.000000;0.652907
9679.000000;0.650452
9678.000000;0.648334
9677.000000;0.646473
9676.000000;0.644617
9675.000000;0.642567
9674.000000;0.640235
9673.000000;0.637655
9672.000000;0.635021
9671.000000;0.632562
9670.000000;0.630319
9669.000000;0.628147
9668.000000;0.625961
9667.000000;0.623864
9666.000000;0.621911
9665.000000;0.619895
9664.000000;0.617595
9663.000000;0.615194
9662.000000;0.613206
9661.000000;0.611904
9660.000000;0.610961
9659.000000;0.609757
9658.000000;0.607950
9657.000000;0.605661
9656.000000;0.603215
9655.000000;0.600828
9654.000000;0.598497
9653.000000;0.596111
9652.000000;0.593630
9651.000000;0.591168
9650.000000;0.588878
9649.000000;0.586771
9648.000000;0.584735
9647.000000;0.582731
9646.000000;0.580810
9645.000000;0.578930
9644.000000;0.576961
9643.000000;0.574925
9642.000000;0.572992
9641.000000;0.571105
9640.000000;0.568883
9639.000000;0.566157
9638.000000;0.563393
9637.000000;0.561236
9636.000000;0.559709
9635.000000;0.558177
9634.000000;0.556060
9633.000000;0.553310
9632.000000;0.550239
9631.000000;0.547220
9630.000000;0.544598
9629.000000;0.542531
9628.000000;0.540737
9627.000000;0.538681
9626.000000;0.536175
9625.000000;0.533632
9624.000000;0.531555
9623.000000;0.529941
9622.000000;0.528359
9621.000000;0.526471
9620.000000;0.524301
9619.000000;0.522047
9618.000000;0.519808
9617.000000;0.517500
9616.000000;0.514981
9615.000000;0.512288
9614.000000;0.509706
9613.000000;0.507469
9612.000000;0.505381
9611.000000;0.502962
9610.000000;0.500048
9609.000000;0.497054
9608.000000;0.494492
9607.000000;0.492399
9606.000000;0.490429
9605.000000;0.488360
9604.000000;0.486286
9603.000000;0.484334
9602.000000;0.482433
9601.000000;0.480423
9600.000000;0.478245
9599.000000;0.475944
9598.000000;0.473562
9597.000000;0.471088
9596.000000;0.468530
9595.000000;0.465979
9594.000000;0.463579
9593.000000;0.461371
9592.000000;0.459213
9591.000000;0.456947
9590.000000;0.454610
9589.000000;0.452378
9588.000000;0.450279
9587.000000;0.448104
9586.000000;0.445667
9585.000000;0.443004
9584.000000;0.440269
9583.000000;0.437559
9582.000000;0.434951
9581.000000;0.432584
9580.000000;0.430542
9579.000000;0.428708
9578.000000;0.426872
9577.000000;0.424946
9576.000000;0.422988
9575.000000;0.421014
9574.000000;0.418916
9573.000000;0.416533
9572.000000;0.413770
9571.000000;0.410695
9570.000000;0.407592
9569.000000;0.404819
9568.000000;0.402485
9567.000000;0.400324
9566.000000;0.398027
9565.000000;0.395663
9564.000000;0.393605
9563.000000;0.392005
9562.000000;0.390511
9561.000000;0.388601
9560.000000;0.386115
9559.000000;0.383354
9558.000000;0.380703
9557.000000;0.378289
9556.000000;0.376000
9555.000000;0.373723
9554.000000;0.371447
9553.000000;0.369155
9552.000000;0.366747
9551.000000;0.364141
9550.000000;0.361423
9549.000000;0.358780
9548.000000;0.356278
9547.000000;0.353779
9546.000000;0.351130
9545.000000;0.348403
9544.000000;0.345883
9543.000000;0.343821
9542.000000;0.342185
9541.000000;0.340658
9540.000000;0.338881
9539.000000;0.336762
9538.000000;0.334508
9537.000000;0.332332
9536.000000;0.330169
9535.000000;0.327792
9534.000000;0.325193
9533.000000;0.322686
9532.000000;0.320563
9531.000000;0.318773
9530.000000;0.317047
9529.000000;0.315243
9528.000000;0.313427
9527.000000;0.311630
9526.000000;0.309713
9525.000000;0.307540
9524.000000;0.305178
9523.000000;0.302842
9522.000000;0.300666
9521.000000;0.298617
9520.000000;0.296626
9519.000000;0.294695
9518.000000;0.292853
9517.000000;0.291037
9516.000000;0.289124
9515.000000;0.287086
9514.000000;0.285030
9513.000000;0.283047
9512.000000;0.281085
9511.000000;0.279061
9510.000000;0.277029
9509.000000;0.275148
9508.000000;0.273470
9507.000000;0.271880
9506.000000;0.270266
9505.000000;0.268635
9504.000000;0.267010
9503.000000;0.265282
9502.000000;0.263292
9501.000000;0.261070
9500.000000;0.258914
9499.000000;0.257176
9498.000000;0.255931
9497.000000;0.254851
9496.000000;0.253443
9495.000000;0.251441
9494.000000;0.249034
9493.000000;0.246743
9492.000000;0.245087
9491.000000;0.244276
9490.000000;0.244090
9489.000000;0.243964
9488.000000;0.243323
9487.000000;0.241977
9486.000000;0.240222
9485.000000;0.238478
9484.000000;0.236876
9483.000000;0.235248
9482.000000;0.233497
9481.000000;0.231820
9480.000000;0.230542
9479.000000;0.229781
9478.000000;0.229326
9477.000000;0.228787
9476.000000;0.227865
9475.000000;0.226566
9474.000000;0.225199
9473.000000;0.224138
9472.000000;0.223519
9471.000000;0.223127
9470.000000;0.222550
9469.000000;0.221442
9468.000000;0.219730
9467.000000;0.217695
9466.000000;0.215862
9465.000000;0.214711
9464.000000;0.214367
9463.000000;0.214514
9462.000000;0.214616
9461.000000;0.214281
9460.000000;0.213500
9459.000000;0.212574
9458.000000;0.211808
9457.000000;0.211263
9456.000000;0.210809
9455.000000;0.210341
9454.000000;0.209863
9453.000000;0.209408
9452.000000;0.209019
9451.000000;0.208819
9450.000000;0.208933
9449.000000;0.209248
9448.000000;0.209426
9447.000000;0.209294
9446.000000;0.209095
9445.000000;0.209187
9444.000000;0.209557
9443.000000;0.209800
9442.000000;0.209535
9441.000000;0.208743
9440.000000;0.207771
9439.000000;0.207137
9438.000000;0.207216
9437.000000;0.207916
9436.000000;0.208684
9435.000000;0.209026
9434.000000;0.208989
9433.000000;0.208986
9432.000000;0.209181
9431.000000;0.209311
9430.000000;0.209124
9429.000000;0.208734
9428.000000;0.208456
9427.000000;0.208472
9426.000000;0.208757
9425.000000;0.209184
9424.000000;0.209612
9423.000000;0.210004
9422.000000;0.210522
9421.000000;0.211374
9420.000000;0.212491
9419.000000;0.213502
9418.000000;0.214133
9417.000000;0.214496
9416.000000;0.214857
9415.000000;0.215267
9414.000000;0.215587
9413.000000;0.215805
9412.000000;0.216125
9411.000000;0.216760
9410.000000;0.217732
9409.000000;0.218854
9408.000000;0.219838
9407.000000;0.220466
9406.000000;0.220803
9405.000000;0.221214
9404.000000;0.222049
9403.000000;0.223263
9402.000000;0.224460
9401.000000;0.225330
9400.000000;0.225960
9399.000000;0.226629
9398.000000;0.227386
9397.000000;0.228000
9396.000000;0.228333
9395.000000;0.228638
9394.000000;0.229359
9393.000000;0.230647
9392.000000;0.232184
9391.000000;0.233514
9390.000000;0.234474
9389.000000;0.235238
9388.000000;0.236038
9387.000000;0.236962
9386.000000;0.238018
9385.000000;0.239229
9384.000000;0.240575
9383.000000;0.241912
9382.000000;0.243050
9381.000000;0.243925
9380.000000;0.244629
9379.000000;0.245275
9378.000000;0.245917
9377.000000;0.246643
9376.000000;0.247650
9375.000000;0.249079
9374.000000;0.250748
9373.000000;0.252199
9372.000000;0.253143
9371.000000;0.253800
9370.000000;0.254681
9369.000000;0.256068
9368.000000;0.257817
9367.000000;0.259577
9366.000000;0.261059
9365.000000;0.262120
9364.000000;0.262820
9363.000000;0.263469
9362.000000;0.264413
9361.000000;0.265674
9360.000000;0.266965
9359.000000;0.268116
9358.000000;0.269299
9357.000000;0.270673
9356.000000;0.272043
9355.000000;0.273096
9354.000000;0.273857
9353.000000;0.274636
9352.000000;0.275606
9351.000000;0.276682
9350.000000;0.277795
9349.000000;0.279006
9348.000000;0.280321
9347.000000;0.281601
9346.000000;0.282762
9345.000000;0.283910
9344.000000;0.285181
9343.000000;0.286558
9342.000000;0.287915
9341.000000;0.289160
9340.000000;0.290263
9339.000000;0.291224
9338.000000;0.292070
9337.000000;0.292878
9336.000000;0.293796
9335.000000;0.295030
9334.000000;0.296702
9333.000000;0.298621
9332.000000;0.300296
9331.000000;0.301346
9330.000000;0.301887
9329.000000;0.302392
9328.000000;0.303221
9327.000000;0.304403
9326.000000;0.305793
9325.000000;0.307244
9324.000000;0.308619
9323.000000;0.309864
9322.000000;0.311093
9321.000000;0.312451
9320.000000;0.313859
9319.000000;0.315067
9318.000000;0.316017
9317.000000;0.316952
9316.000000;0.318081
9315.000000;0.319334
9314.000000;0.320528
9313.000000;0.321608
9312.000000;0.322580
9311.000000;0.323370
9310.000000;0.323949
9309.000000;0.324516
9308.000000;0.325371
9307.000000;0.326608
9306.000000;0.328063
9305.000000;0.329540
9304.000000;0.330972
9303.000000;0.332382
9302.000000;0.333803
9301.000000;0.335241
9300.000000;0.336622
9299.000000;0.337771
9298.000000;0.338561
9297.000000;0.339120
9296.000000;0.339793
9295.000000;0.340831
9294.000000;0.342158
9293.000000;0.343498
9292.000000;0.344686
9291.000000;0.345767
9290.000000;0.346814
9289.000000;0.347774
9288.000000;0.348551
9287.000000;0.349191
9286.000000;0.349877
9285.000000;0.350759
9284.000000;0.351850
9283.000000;0.353065
9282.000000;0.354288
9281.000000;0.355392
9280.000000;0.356323
9279.000000;0.357180
9278.000000;0.358132
9277.000000;0.359229
9276.000000;0.360389
9275.000000;0.361584
9274.000000;0.362901
9273.000000;0.364335
9272.000000;0.365656
9271.000000;0.366617
9270.000000;0.367218
9269.000000;0.367637
9268.000000;0.367995
9267.000000;0.368313
9266.000000;0.368650
9265.000000;0.369120
9264.000000;0.369825
9263.000000;0.370881
9262.000000;0.372440
9261.000000;0.374485
9260.000000;0.376618
9259.000000;0.378245
9258.000000;0.379072
9257.000000;0.379349
9256.000000;0.379596
9255.000000;0.380179
9254.000000;0.381117
9253.000000;0.382193
9252.000000;0.383181
9251.000000;0.384043
9250.000000;0.384934
9249.000000;0.385968
9248.000000;0.387057
9247.000000;0.388037
9246.000000;0.388914
9245.000000;0.389821
9244.000000;0.390790
9243.000000;0.391701
9242.000000;0.392474
9241.000000;0.393174
9240.000000;0.393915
9239.000000;0.394783
9238.000000;0.395833
9237.000000;0.397039
9236.000000;0.398202
9235.000000;0.399075
9234.000000;0.399626
9233.000000;0.400068
9232.000000;0.400614
9231.000000;0.401302
9230.000000;0.402076
9229.000000;0.402878
9228.000000;0.403633
9227.000000;0.404272
9226.000000;0.404862
9225.000000;0.405608
9224.000000;0.406633
9223.000000;0.407834
9222.000000;0.409005
9221.000000;0.410020
9220.000000;0.410858
9219.000000;0.411519
9218.000000;0.412033
9217.000000;0.412489
9216.000000;0.413016
9215.000000;0.413725
9214.000000;0.414672
9213.000000;0.415783
9212.000000;0.416838
9211.000000;0.417633
9210.000000;0.418191
9209.000000;0.418712
9208.000000;0.419300
9207.000000;0.419866
9206.000000;0.420316
9205.000000;0.420709
9204.000000;0.421166
9203.000000;0.421742
9202.000000;0.422473
9201.000000;0.423409
9200.000000;0.424512
9199.000000;0.425602
9198.000000;0.426508
9197.000000;0.427220
9196.000000;0.427814
9195.000000;0.428319
9194.000000;0.428767
9193.000000;0.429288
9192.000000;0.430032
9191.000000;0.430983
9190.000000;0.431952
9189.000000;0.432755
9188.000000;0.433350
9187.000000;0.433840
9186.000000;0.434375
9185.000000;0.435029
9184.000000;0.435710
9183.000000;0.436232
9182.000000;0.436537
9181.000000;0.436816
9180.000000;0.437331
9179.000000;0.438158
9178.000000;0.439149
9177.000000;0.440113
9176.000000;0.440947
9175.000000;0.441642
9174.000000;0.442246
9173.000000;0.442861
9172.000000;0.443575
9171.000000;0.444353
9170.000000;0.445045
9169.000000;0.445532
9168.000000;0.445866
9167.000000;0.446219
9166.000000;0.446703
9165.000000;0.447242
9164.000000;0.447656
9163.000000;0.447885
9162.000000;0.448081
9161.000000;0.448453
9160.000000;0.449035
9159.000000;0.449683
9158.000000;0.450288
9157.000000;0.450920
9156.000000;0.451696
9155.000000;0.452566
9154.000000;0.453333
9153.000000;0.453878
9152.000000;0.454280
9151.000000;0.454690
9150.000000;0.455156
9149.000000;0.455630
9148.000000;0.456120
9147.000000;0.456704
9146.000000;0.457370
9145.000000;0.457931
9144.000000;0.458219
9143.000000;0.458333
9142.000000;0.458574
9141.000000;0.459111
9140.000000;0.459819
9139.000000;0.460492
9138.000000;0.461097
9137.000000;0.461748
9136.000000;0.462498
9135.000000;0.463285
9134.000000;0.464029
9133.000000;0.464671
9132.000000;0.465151
9131.000000;0.465458
9130.000000;0.465713
9129.000000;0.466082
9128.000000;0.466588
9127.000000;0.467060
9126.000000;0.467339
9125.000000;0.467459
9124.000000;0.467600
9123.000000;0.467899
9122.000000;0.468344
9121.000000;0.468846
9120.000000;0.469357
9119.000000;0.469895
9118.000000;0.470441
9117.000000;0.470882
9116.000000;0.471140
9115.000000;0.471322
9114.000000;0.471654
9113.000000;0.472209
9112.000000;0.472824
9111.000000;0.473307
9110.000000;0.473645
9109.000000;0.473929
9108.000000;0.474180
9107.000000;0.474381
9106.000000;0.474611
9105.000000;0.475008
9104.000000;0.475614
9103.000000;0.476334
9102.000000;0.477034
9101.000000;0.477618
9100.000000;0.478049
9099.000000;0.478372
9098.000000;0.478677
9097.000000;0.478974
9096.000000;0.479159
9095.000000;0.479186
9094.000000;0.479208
9093.000000;0.479434
9092.000000;0.479918
9091.000000;0.480571
9090.000000;0.481306
9089.000000;0.482054
9088.000000;0.482691
9087.000000;0.483122
9086.000000;0.483379
9085.000000;0.483536
9084.000000;0.483583
9083.000000;0.483542
9082.000000;0.483614
9081.000000;0.483999
9080.000000;0.484600
9079.000000;0.485092
9078.000000;0.485305
9077.000000;0.485366
9076.000000;0.485471
9075.000000;0.485716
9074.000000;0.486133
9073.000000;0.486690
9072.000000;0.487219
9071.000000;0.487557
9070.000000;0.487794
9069.000000;0.488189
9068.000000;0.488777
9067.000000;0.489289
9066.000000;0.489547
9065.000000;0.489704
9064.000000;0.489992
9063.000000;0.490406
9062.000000;0.490816
9061.000000;0.491198
9060.000000;0.491604
9059.000000;0.492004
9058.000000;0.492306
9057.000000;0.492475
9056.000000;0.492527
9055.000000;0.492509
9054.000000;0.492552
9053.000000;0.492810
