Criado como novo conjunto de dados;"0307_DANIEL.spp","29163.6 Secs"
cm-1;Abs
10000.000000;1.201893
9999.000000;1.201121
9998.000000;1.200954
9997.000000;1.200921
9996.000000;1.200289
9995.000000;1.198976
9994.000000;1.197324
9993.000000;1.195687
9992.000000;1.193965
9991.000000;1.191978
9990.000000;1.189851
9989.000000;1.188076
9988.000000;1.187079
9987.000000;1.186825
9986.000000;1.186817
9985.000000;1.186477
9984.000000;1.185515
9983.000000;1.183995
9982.000000;1.182151
9981.000000;1.180238
9980.000000;1.178516
9979.000000;1.177250
9978.000000;1.176600
9977.000000;1.176429
9976.000000;1.176228
9975.000000;1.175320
9974.000000;1.173321
9973.000000;1.170543
9972.000000;1.167857
9971.000000;1.166035
9970.000000;1.165164
9969.000000;1.164716
9968.000000;1.164133
9967.000000;1.163256
9966.000000;1.162225
9965.000000;1.161160
9964.000000;1.160022
9963.000000;1.158709
9962.000000;1.157150
9961.000000;1.155371
9960.000000;1.153576
9959.000000;1.152135
9958.000000;1.151303
9957.000000;1.150866
9956.000000;1.150211
9955.000000;1.148907
9954.000000;1.147205
9953.000000;1.145810
9952.000000;1.145104
9951.000000;1.144677
9950.000000;1.143731
9949.000000;1.141932
9948.000000;1.139744
9947.000000;1.137928
9946.000000;1.136793
9945.000000;1.136000
9944.000000;1.134985
9943.000000;1.133495
9942.000000;1.131731
9941.000000;1.130091
9940.000000;1.128800
9939.000000;1.127717
9938.000000;1.126469
9937.000000;1.124810
9936.000000;1.122910
9935.000000;1.121237
9934.000000;1.120097
9933.000000;1.119316
9932.000000;1.118464
9931.000000;1.117352
9930.000000;1.116221
9929.000000;1.115373
9928.000000;1.114739
9927.000000;1.113911
9926.000000;1.112532
9925.000000;1.110582
9924.000000;1.108329
9923.000000;1.106147
9922.000000;1.104369
9921.000000;1.103140
9920.000000;1.102271
9919.000000;1.101317
9918.000000;1.099956
9917.000000;1.098297
9916.000000;1.096747
9915.000000;1.095537
9914.000000;1.094453
9913.000000;1.093076
9912.000000;1.091272
9911.000000;1.089387
9910.000000;1.087923
9909.000000;1.087045
9908.000000;1.086452
9907.000000;1.085739
9906.000000;1.084789
9905.000000;1.083751
9904.000000;1.082708
9903.000000;1.081541
9902.000000;1.080098
9901.000000;1.078372
9900.000000;1.076477
9899.000000;1.074598
9898.000000;1.072983
9897.000000;1.071768
9896.000000;1.070706
9895.000000;1.069287
9894.000000;1.067311
9893.000000;1.065200
9892.000000;1.063526
9891.000000;1.062335
9890.000000;1.061171
9889.000000;1.059716
9888.000000;1.058097
9887.000000;1.056527
9886.000000;1.054997
9885.000000;1.053452
9884.000000;1.052015
9883.000000;1.050796
9882.000000;1.049607
9881.000000;1.048173
9880.000000;1.046628
9879.000000;1.045551
9878.000000;1.045358
9877.000000;1.045739
9876.000000;1.045818
9875.000000;1.044891
9874.000000;1.042970
9873.000000;1.040616
9872.000000;1.038367
9871.000000;1.036403
9870.000000;1.034616
9869.000000;1.032798
9868.000000;1.030785
9867.000000;1.028608
9866.000000;1.026608
9865.000000;1.025220
9864.000000;1.024491
9863.000000;1.023942
9862.000000;1.023079
9861.000000;1.021921
9860.000000;1.020821
9859.000000;1.019905
9858.000000;1.018934
9857.000000;1.017672
9856.000000;1.016066
9855.000000;1.014071
9854.000000;1.011631
9853.000000;1.009005
9852.000000;1.006812
9851.000000;1.005506
9850.000000;1.004879
9849.000000;1.004250
9848.000000;1.003118
9847.000000;1.001533
9846.000000;0.999935
9845.000000;0.998693
9844.000000;0.997762
9843.000000;0.996728
9842.000000;0.995293
9841.000000;0.993714
9840.000000;0.992541
9839.000000;0.991844
9838.000000;0.990956
9837.000000;0.989196
9836.000000;0.986672
9835.000000;0.984119
9834.000000;0.982080
9833.000000;0.980528
9832.000000;0.979177
9831.000000;0.977830
9830.000000;0.976363
9829.000000;0.974689
9828.000000;0.972887
9827.000000;0.971237
9826.000000;0.969950
9825.000000;0.968920
9824.000000;0.967808
9823.000000;0.966336
9822.000000;0.964499
9821.000000;0.962539
9820.000000;0.960718
9819.000000;0.959070
9818.000000;0.957392
9817.000000;0.955557
9816.000000;0.953791
9815.000000;0.952507
9814.000000;0.951848
9813.000000;0.951469
9812.000000;0.950811
9811.000000;0.949540
9810.000000;0.947710
9809.000000;0.945620
9808.000000;0.943570
9807.000000;0.941658
9806.000000;0.939740
9805.000000;0.937639
9804.000000;0.935366
9803.000000;0.933096
9802.000000;0.930966
9801.000000;0.929036
9800.000000;0.927428
9799.000000;0.926286
9798.000000;0.925483
9797.000000;0.924566
9796.000000;0.923177
9795.000000;0.921469
9794.000000;0.919878
9793.000000;0.918487
9792.000000;0.916838
9791.000000;0.914512
9790.000000;0.911766
9789.000000;0.909398
9788.000000;0.907945
9787.000000;0.907161
9786.000000;0.906307
9785.000000;0.904877
9784.000000;0.902982
9783.000000;0.901094
9782.000000;0.899564
9781.000000;0.898396
9780.000000;0.897351
9779.000000;0.896149
9778.000000;0.894627
9777.000000;0.892800
9776.000000;0.890811
9775.000000;0.888812
9774.000000;0.886867
9773.000000;0.884944
9772.000000;0.882970
9771.000000;0.880897
9770.000000;0.878780
9769.000000;0.876800
9768.000000;0.875165
9767.000000;0.873906
9766.000000;0.872798
9765.000000;0.871544
9764.000000;0.870025
9763.000000;0.868340
9762.000000;0.866634
9761.000000;0.864935
9760.000000;0.863161
9759.000000;0.861228
9758.000000;0.859137
9757.000000;0.856995
9756.000000;0.854983
9755.000000;0.853263
9754.000000;0.851844
9753.000000;0.850489
9752.000000;0.848819
9751.000000;0.846627
9750.000000;0.844121
9749.000000;0.841778
9748.000000;0.839905
9747.000000;0.838398
9746.000000;0.836974
9745.000000;0.835507
9744.000000;0.834004
9743.000000;0.832387
9742.000000;0.830562
9741.000000;0.828717
9740.000000;0.827240
9739.000000;0.826218
9738.000000;0.825183
9737.000000;0.823569
9736.000000;0.821286
9735.000000;0.818735
9734.000000;0.816359
9733.000000;0.814358
9732.000000;0.812704
9731.000000;0.811187
9730.000000;0.809479
9729.000000;0.807403
9728.000000;0.805180
9727.000000;0.803231
9726.000000;0.801692
9725.000000;0.800239
9724.000000;0.798437
9723.000000;0.796161
9722.000000;0.793651
9721.000000;0.791274
9720.000000;0.789271
9719.000000;0.787612
9718.000000;0.786014
9717.000000;0.784184
9716.000000;0.782111
9715.000000;0.780106
9714.000000;0.778507
9713.000000;0.777342
9712.000000;0.776312
9711.000000;0.775043
9710.000000;0.773379
9709.000000;0.771444
9708.000000;0.769472
9707.000000;0.767548
9706.000000;0.765554
9705.000000;0.763383
9704.000000;0.761100
9703.000000;0.758847
9702.000000;0.756655
9701.000000;0.754509
9700.000000;0.752525
9699.000000;0.750863
9698.000000;0.749409
9697.000000;0.747736
9696.000000;0.745501
9695.000000;0.742831
9694.000000;0.740181
9693.000000;0.737855
9692.000000;0.735777
9691.000000;0.733699
9690.000000;0.731520
9689.000000;0.729378
9688.000000;0.727445
9687.000000;0.725713
9686.000000;0.724004
9685.000000;0.722154
9684.000000;0.720136
9683.000000;0.717974
9682.000000;0.715640
9681.000000;0.713125
9680.000000;0.710610
9679.000000;0.708417
9678.000000;0.706750
9677.000000;0.705509
9676.000000;0.704363
9675.000000;0.702944
9674.000000;0.701034
9673.000000;0.698687
9672.000000;0.696232
9671.000000;0.694012
9670.000000;0.692021
9669.000000;0.689903
9668.000000;0.687406
9667.000000;0.684785
9666.000000;0.682559
9665.000000;0.680886
9664.000000;0.679362
9663.000000;0.677496
9662.000000;0.675245
9661.000000;0.672895
9660.000000;0.670575
9659.000000;0.668184
9658.000000;0.665796
9657.000000;0.663788
9656.000000;0.662344
9655.000000;0.661010
9654.000000;0.659046
9653.000000;0.656249
9652.000000;0.653173
9651.000000;0.650513
9650.000000;0.648487
9649.000000;0.646843
9648.000000;0.645220
9647.000000;0.643362
9646.000000;0.641166
9645.000000;0.638755
9644.000000;0.636417
9643.000000;0.634356
9642.000000;0.632521
9641.000000;0.630734
9640.000000;0.628850
9639.000000;0.626707
9638.000000;0.624127
9637.000000;0.621192
9636.000000;0.618372
9635.000000;0.616131
9634.000000;0.614457
9633.000000;0.612971
9632.000000;0.611398
9631.000000;0.609684
9630.000000;0.607718
9629.000000;0.605319
9628.000000;0.602551
9627.000000;0.599752
9626.000000;0.597155
9625.000000;0.594731
9624.000000;0.592451
9623.000000;0.590408
9622.000000;0.588544
9621.000000;0.586542
9620.000000;0.584206
9619.000000;0.581699
9618.000000;0.579211
9617.000000;0.576617
9616.000000;0.573743
9615.000000;0.570756
9614.000000;0.567989
9613.000000;0.565500
9612.000000;0.563127
9611.000000;0.560893
9610.000000;0.558987
9609.000000;0.557331
9608.000000;0.555506
9607.000000;0.553254
9606.000000;0.550811
9605.000000;0.548590
9604.000000;0.546739
9603.000000;0.545083
9602.000000;0.543345
9601.000000;0.541260
9600.000000;0.538669
9599.000000;0.535685
9598.000000;0.532689
9597.000000;0.529993
9596.000000;0.527559
9595.000000;0.525172
9594.000000;0.522809
9593.000000;0.520673
9592.000000;0.518860
9591.000000;0.517154
9590.000000;0.515209
9589.000000;0.512853
9588.000000;0.510188
9587.000000;0.507501
9586.000000;0.505083
9585.000000;0.503028
9584.000000;0.501103
9583.000000;0.498863
9582.000000;0.496013
9581.000000;0.492689
9580.000000;0.489371
9579.000000;0.486522
9578.000000;0.484302
9577.000000;0.482541
9576.000000;0.480900
9575.000000;0.479035
9574.000000;0.476724
9573.000000;0.473965
9572.000000;0.471004
9571.000000;0.468236
9570.000000;0.465952
9569.000000;0.464107
9568.000000;0.462323
9567.000000;0.460201
9566.000000;0.457704
9565.000000;0.455195
9564.000000;0.453051
9563.000000;0.451277
9562.000000;0.449525
9561.000000;0.447455
9560.000000;0.445002
9559.000000;0.442353
9558.000000;0.439754
9557.000000;0.437339
9556.000000;0.435031
9555.000000;0.432601
9554.000000;0.429951
9553.000000;0.427352
9552.000000;0.425231
9551.000000;0.423639
9550.000000;0.422084
9549.000000;0.420038
9548.000000;0.417489
9547.000000;0.414814
9546.000000;0.412249
9545.000000;0.409752
9544.000000;0.407339
9543.000000;0.405181
9542.000000;0.403279
9541.000000;0.401301
9540.000000;0.398963
9539.000000;0.396412
9538.000000;0.394002
9537.000000;0.391794
9536.000000;0.389504
9535.000000;0.386952
9534.000000;0.384362
9533.000000;0.382128
9532.000000;0.380362
9531.000000;0.378765
9530.000000;0.376940
9529.000000;0.374805
9528.000000;0.372647
9527.000000;0.370757
9526.000000;0.369046
9525.000000;0.367126
9524.000000;0.364745
9523.000000;0.362054
9522.000000;0.359409
9521.000000;0.357040
9520.000000;0.354969
9519.000000;0.353080
9518.000000;0.351172
9517.000000;0.349070
9516.000000;0.346833
9515.000000;0.344787
9514.000000;0.343186
9513.000000;0.341895
9512.000000;0.340551
9511.000000;0.338973
9510.000000;0.337244
9509.000000;0.335449
9508.000000;0.333561
9507.000000;0.331610
9506.000000;0.329737
9505.000000;0.327993
9504.000000;0.326256
9503.000000;0.324443
9502.000000;0.322654
9501.000000;0.321004
9500.000000;0.319422
9499.000000;0.317766
9498.000000;0.316073
9497.000000;0.314540
9496.000000;0.313270
9495.000000;0.312127
9494.000000;0.310874
9493.000000;0.309412
9492.000000;0.307868
9491.000000;0.306420
9490.000000;0.305039
9489.000000;0.303496
9488.000000;0.301695
9487.000000;0.299916
9486.000000;0.298557
9485.000000;0.297605
9484.000000;0.296577
9483.000000;0.295054
9482.000000;0.293156
9481.000000;0.291395
9480.000000;0.290189
9479.000000;0.289594
9478.000000;0.289322
9477.000000;0.288881
9476.000000;0.287839
9475.000000;0.286166
9474.000000;0.284302
9473.000000;0.282743
9472.000000;0.281585
9471.000000;0.280582
9470.000000;0.279559
9469.000000;0.278582
9468.000000;0.277763
9467.000000;0.277106
9466.000000;0.276571
9465.000000;0.276149
9464.000000;0.275804
9463.000000;0.275446
9462.000000;0.274996
9461.000000;0.274398
9460.000000;0.273563
9459.000000;0.272442
9458.000000;0.271194
9457.000000;0.270162
9456.000000;0.269617
9455.000000;0.269541
9454.000000;0.269693
9453.000000;0.269836
9452.000000;0.269884
9451.000000;0.269871
9450.000000;0.269793
9449.000000;0.269507
9448.000000;0.268869
9447.000000;0.267998
9446.000000;0.267295
9445.000000;0.267079
9444.000000;0.267248
9443.000000;0.267431
9442.000000;0.267421
9441.000000;0.267325
9440.000000;0.267320
9439.000000;0.267454
9438.000000;0.267691
9437.000000;0.267991
9436.000000;0.268283
9435.000000;0.268496
9434.000000;0.268651
9433.000000;0.268832
9432.000000;0.269040
9431.000000;0.269190
9430.000000;0.269256
9429.000000;0.269279
9428.000000;0.269256
9427.000000;0.269186
9426.000000;0.269228
9425.000000;0.269605
9424.000000;0.270264
9423.000000;0.270830
9422.000000;0.271002
9421.000000;0.270876
9420.000000;0.270817
9419.000000;0.271130
9418.000000;0.271917
9417.000000;0.273060
9416.000000;0.274236
9415.000000;0.275108
9414.000000;0.275646
9413.000000;0.276119
9412.000000;0.276703
9411.000000;0.277267
9410.000000;0.277668
9409.000000;0.278040
9408.000000;0.278609
9407.000000;0.279392
9406.000000;0.280286
9405.000000;0.281283
9404.000000;0.282339
9403.000000;0.283194
9402.000000;0.283662
9401.000000;0.284022
9400.000000;0.284791
9399.000000;0.286065
9398.000000;0.287377
9397.000000;0.288289
9396.000000;0.288875
9395.000000;0.289506
9394.000000;0.290382
9393.000000;0.291423
9392.000000;0.292459
9391.000000;0.293377
9390.000000;0.294157
9389.000000;0.294862
9388.000000;0.295576
9387.000000;0.296309
9386.000000;0.297023
9385.000000;0.297742
9384.000000;0.298517
9383.000000;0.299308
9382.000000;0.300060
9381.000000;0.300893
9380.000000;0.302035
9379.000000;0.303502
9378.000000;0.305014
9377.000000;0.306307
9376.000000;0.307396
9375.000000;0.308427
9374.000000;0.309445
9373.000000;0.310445
9372.000000;0.311499
9371.000000;0.312665
9370.000000;0.313831
9369.000000;0.314840
9368.000000;0.315739
9367.000000;0.316761
9366.000000;0.318033
9365.000000;0.319412
9364.000000;0.320659
9363.000000;0.321706
9362.000000;0.322694
9361.000000;0.323774
9360.000000;0.324957
9359.000000;0.326180
9358.000000;0.327487
9357.000000;0.328990
9356.000000;0.330626
9355.000000;0.332074
9354.000000;0.333080
9353.000000;0.333813
9352.000000;0.334711
9351.000000;0.335981
9350.000000;0.337413
9349.000000;0.338693
9348.000000;0.339713
9347.000000;0.340564
9346.000000;0.341421
9345.000000;0.342522
9344.000000;0.344035
9343.000000;0.345799
9342.000000;0.347332
9341.000000;0.348281
9340.000000;0.348764
9339.000000;0.349172
9338.000000;0.349766
9337.000000;0.350612
9336.000000;0.351755
9335.000000;0.353227
9334.000000;0.354935
9333.000000;0.356681
9332.000000;0.358296
9331.000000;0.359649
9330.000000;0.360645
9329.000000;0.361363
9328.000000;0.362104
9327.000000;0.363135
9326.000000;0.364426
9325.000000;0.365783
9324.000000;0.367156
9323.000000;0.368600
9322.000000;0.370011
9321.000000;0.371142
9320.000000;0.371947
9319.000000;0.372707
9318.000000;0.373773
9317.000000;0.375279
9316.000000;0.377106
9315.000000;0.378954
9314.000000;0.380459
9313.000000;0.381398
9312.000000;0.381857
9311.000000;0.382154
9310.000000;0.382586
9309.000000;0.383328
9308.000000;0.384465
9307.000000;0.385909
9306.000000;0.387329
9305.000000;0.388400
9304.000000;0.389166
9303.000000;0.389977
9302.000000;0.391043
9301.000000;0.392237
9300.000000;0.393397
9299.000000;0.394580
9298.000000;0.395910
9297.000000;0.397339
9296.000000;0.398710
9295.000000;0.399939
9294.000000;0.401045
9293.000000;0.402109
9292.000000;0.403285
9291.000000;0.404709
9290.000000;0.406286
9289.000000;0.407665
9288.000000;0.408556
9287.000000;0.409007
9286.000000;0.409312
9285.000000;0.409758
9284.000000;0.410525
9283.000000;0.411681
9282.000000;0.413099
9281.000000;0.414486
9280.000000;0.415596
9279.000000;0.416395
9278.000000;0.416963
9277.000000;0.417385
9276.000000;0.417805
9275.000000;0.418438
9274.000000;0.419381
9273.000000;0.420511
9272.000000;0.421705
9271.000000;0.423011
9270.000000;0.424456
9269.000000;0.425810
9268.000000;0.426811
9267.000000;0.427530
9266.000000;0.428265
9265.000000;0.429119
9264.000000;0.429955
9263.000000;0.430769
9262.000000;0.431815
9261.000000;0.433244
9260.000000;0.434837
9259.000000;0.436246
9258.000000;0.437353
9257.000000;0.438235
9256.000000;0.438930
9255.000000;0.439410
9254.000000;0.439761
9253.000000;0.440204
9252.000000;0.440909
9251.000000;0.441876
9250.000000;0.442997
9249.000000;0.444165
9248.000000;0.445273
9247.000000;0.446196
9246.000000;0.446857
9245.000000;0.447334
9244.000000;0.447846
9243.000000;0.448563
9242.000000;0.449468
9241.000000;0.450460
9240.000000;0.451572
9239.000000;0.452960
9238.000000;0.454596
9237.000000;0.456108
9236.000000;0.457092
9235.000000;0.457558
9234.000000;0.457902
9233.000000;0.458461
9232.000000;0.459265
9231.000000;0.460220
9230.000000;0.461328
9229.000000;0.462568
9228.000000;0.463728
9227.000000;0.464560
9226.000000;0.465072
9225.000000;0.465518
9224.000000;0.466093
9223.000000;0.466767
9222.000000;0.467434
9221.000000;0.468091
9220.000000;0.468802
9219.000000;0.469572
9218.000000;0.470353
9217.000000;0.471109
9216.000000;0.471829
9215.000000;0.472486
9214.000000;0.473067
9213.000000;0.473625
9212.000000;0.474255
9211.000000;0.475027
9210.000000;0.475996
9209.000000;0.477207
9208.000000;0.478610
9207.000000;0.479948
9206.000000;0.480862
9205.000000;0.481176
9204.000000;0.481050
9203.000000;0.480847
9202.000000;0.480916
9201.000000;0.481484
9200.000000;0.482581
9199.000000;0.483951
9198.000000;0.485143
9197.000000;0.485870
9196.000000;0.486277
9195.000000;0.486749
9194.000000;0.487464
9193.000000;0.488297
9192.000000;0.489088
9191.000000;0.489834
9190.000000;0.490556
9189.000000;0.491175
9188.000000;0.491650
9187.000000;0.492125
9186.000000;0.492790
9185.000000;0.493623
9184.000000;0.494389
9183.000000;0.494878
9182.000000;0.495101
9181.000000;0.495278
9180.000000;0.495675
9179.000000;0.496413
9178.000000;0.497385
9177.000000;0.498392
9176.000000;0.499344
9175.000000;0.500266
9174.000000;0.501108
9173.000000;0.501753
9172.000000;0.502260
9171.000000;0.502910
9170.000000;0.503831
9169.000000;0.504734
9168.000000;0.505248
9167.000000;0.505424
9166.000000;0.505668
9165.000000;0.506200
9164.000000;0.506823
9163.000000;0.507303
9162.000000;0.507718
9161.000000;0.508306
9160.000000;0.509112
9159.000000;0.509933
9158.000000;0.510544
9157.000000;0.510878
9156.000000;0.511031
9155.000000;0.511157
9154.000000;0.511350
9153.000000;0.511620
9152.000000;0.511986
9151.000000;0.512557
9150.000000;0.513389
9149.000000;0.514296
9148.000000;0.514941
9147.000000;0.515214
9146.000000;0.515380
9145.000000;0.515779
9144.000000;0.516466
9143.000000;0.517238
9142.000000;0.517888
9141.000000;0.518355
9140.000000;0.518695
9139.000000;0.519029
9138.000000;0.519472
9137.000000;0.520012
9136.000000;0.520515
9135.000000;0.520946
9134.000000;0.521491
9133.000000;0.522322
9132.000000;0.523288
9131.000000;0.523997
9130.000000;0.524234
9129.000000;0.524172
9128.000000;0.524176
9127.000000;0.524482
9126.000000;0.525100
9125.000000;0.525888
9124.000000;0.526661
9123.000000;0.527285
9122.000000;0.527733
9121.000000;0.528050
9120.000000;0.528288
9119.000000;0.528518
9118.000000;0.528868
9117.000000;0.529416
9116.000000;0.530063
9115.000000;0.530605
9114.000000;0.530962
9113.000000;0.531239
9112.000000;0.531549
9111.000000;0.531875
9110.000000;0.532178
9109.000000;0.532505
9108.000000;0.532924
9107.000000;0.533426
9106.000000;0.533975
9105.000000;0.534594
9104.000000;0.535300
9103.000000;0.535997
9102.000000;0.536516
9101.000000;0.536767
9100.000000;0.536807
9099.000000;0.536791
9098.000000;0.536897
9097.000000;0.537249
9096.000000;0.537830
9095.000000;0.538477
9094.000000;0.539037
9093.000000;0.539491
9092.000000;0.539882
9091.000000;0.540172
9090.000000;0.540286
9089.000000;0.540262
9088.000000;0.540246
9087.000000;0.540341
9086.000000;0.540550
9085.000000;0.540860
9084.000000;0.541261
9083.000000;0.541670
9082.000000;0.541987
9081.000000;0.542284
9080.000000;0.542796
9079.000000;0.543616
9078.000000;0.544484
9077.000000;0.545010
9076.000000;0.545094
9075.000000;0.545014
9074.000000;0.545097
9073.000000;0.545436
9072.000000;0.545909
9071.000000;0.546362
9070.000000;0.546692
9069.000000;0.546845
9068.000000;0.546824
9067.000000;0.546731
9066.000000;0.546730
9065.000000;0.546951
9064.000000;0.547400
9063.000000;0.547960
9062.000000;0.548470
9061.000000;0.548823
9060.000000;0.549031
9059.000000;0.549202
9058.000000;0.549434
9057.000000;0.549690
9056.000000;0.549801
9055.000000;0.549658
9054.000000;0.549401
9053.000000;0.549334
