Criado como novo conjunto de dados;"0307_DANIEL.spp","53824.6 Secs"
cm-1;Abs
10000.000000;0.432550
9999.000000;0.431486
9998.000000;0.430424
9997.000000;0.429365
9996.000000;0.428309
9995.000000;0.427255
9994.000000;0.426204
9993.000000;0.425154
9992.000000;0.424110
9991.000000;0.423062
9990.000000;0.422031
9989.000000;0.420922
9988.000000;0.419618
9987.000000;0.418210
9986.000000;0.416893
9985.000000;0.415793
9984.000000;0.414851
9983.000000;0.413928
9982.000000;0.412934
9981.000000;0.411844
9980.000000;0.410654
9979.000000;0.409386
9978.000000;0.408136
9977.000000;0.407019
9976.000000;0.406058
9975.000000;0.405141
9974.000000;0.404125
9973.000000;0.402963
9972.000000;0.401708
9971.000000;0.400427
9970.000000;0.399130
9969.000000;0.397818
9968.000000;0.396575
9967.000000;0.395550
9966.000000;0.394805
9965.000000;0.394190
9964.000000;0.393432
9963.000000;0.392374
9962.000000;0.391080
9961.000000;0.389723
9960.000000;0.388416
9959.000000;0.387204
9958.000000;0.386105
9957.000000;0.385073
9956.000000;0.383994
9955.000000;0.382804
9954.000000;0.381591
9953.000000;0.380484
9952.000000;0.379449
9951.000000;0.378327
9950.000000;0.377040
9949.000000;0.375665
9948.000000;0.374302
9947.000000;0.372999
9946.000000;0.371832
9945.000000;0.370883
9944.000000;0.370070
9943.000000;0.369141
9942.000000;0.367947
9941.000000;0.366618
9940.000000;0.365325
9939.000000;0.364024
9938.000000;0.362569
9937.000000;0.361011
9936.000000;0.359574
9935.000000;0.358349
9934.000000;0.357220
9933.000000;0.356092
9932.000000;0.355027
9931.000000;0.354085
9930.000000;0.353189
9929.000000;0.352218
9928.000000;0.351146
9927.000000;0.349988
9926.000000;0.348705
9925.000000;0.347250
9924.000000;0.345696
9923.000000;0.344213
9922.000000;0.342943
9921.000000;0.341897
9920.000000;0.340944
9919.000000;0.339866
9918.000000;0.338520
9917.000000;0.336975
9916.000000;0.335470
9915.000000;0.334177
9914.000000;0.333060
9913.000000;0.331986
9912.000000;0.330892
9911.000000;0.329789
9910.000000;0.328661
9909.000000;0.327463
9908.000000;0.326183
9907.000000;0.324833
9906.000000;0.323396
9905.000000;0.321863
9904.000000;0.320313
9903.000000;0.318886
9902.000000;0.317645
9901.000000;0.316534
9900.000000;0.315448
9899.000000;0.314320
9898.000000;0.313130
9897.000000;0.311899
9896.000000;0.310681
9895.000000;0.309509
9894.000000;0.308321
9893.000000;0.306987
9892.000000;0.305441
9891.000000;0.303795
9890.000000;0.302253
9889.000000;0.300927
9888.000000;0.299732
9887.000000;0.298514
9886.000000;0.297236
9885.000000;0.296006
9884.000000;0.294901
9883.000000;0.293811
9882.000000;0.292556
9881.000000;0.291124
9880.000000;0.289707
9879.000000;0.288446
9878.000000;0.287243
9877.000000;0.285898
9876.000000;0.284372
9875.000000;0.282821
9874.000000;0.281397
9873.000000;0.280111
9872.000000;0.278893
9871.000000;0.277681
9870.000000;0.276431
9869.000000;0.275112
9868.000000;0.273741
9867.000000;0.272391
9866.000000;0.271108
9865.000000;0.269869
9864.000000;0.268615
9863.000000;0.267325
9862.000000;0.266017
9861.000000;0.264706
9860.000000;0.263388
9859.000000;0.262049
9858.000000;0.260674
9857.000000;0.259274
9856.000000;0.257875
9855.000000;0.256482
9854.000000;0.255058
9853.000000;0.253575
9852.000000;0.252090
9851.000000;0.250723
9850.000000;0.249524
9849.000000;0.248391
9848.000000;0.247145
9847.000000;0.245682
9846.000000;0.244045
9845.000000;0.242378
9844.000000;0.240817
9843.000000;0.239394
9842.000000;0.238031
9841.000000;0.236627
9840.000000;0.235177
9839.000000;0.233775
9838.000000;0.232515
9837.000000;0.231392
9836.000000;0.230308
9835.000000;0.229139
9834.000000;0.227794
9833.000000;0.226272
9832.000000;0.224665
9831.000000;0.223085
9830.000000;0.221563
9829.000000;0.220039
9828.000000;0.218479
9827.000000;0.216932
9826.000000;0.215447
9825.000000;0.213987
9824.000000;0.212489
9823.000000;0.210974
9822.000000;0.209513
9821.000000;0.208120
9820.000000;0.206745
9819.000000;0.205361
9818.000000;0.203981
9817.000000;0.202593
9816.000000;0.201157
9815.000000;0.199687
9814.000000;0.198254
9813.000000;0.196861
9812.000000;0.195391
9811.000000;0.193749
9810.000000;0.192004
9809.000000;0.190331
9808.000000;0.188825
9807.000000;0.187452
9806.000000;0.186132
9805.000000;0.184806
9804.000000;0.183427
9803.000000;0.181972
9802.000000;0.180469
9801.000000;0.178952
9800.000000;0.177382
9799.000000;0.175687
9798.000000;0.173903
9797.000000;0.172194
9796.000000;0.170678
9795.000000;0.169292
9794.000000;0.167880
9793.000000;0.166391
9792.000000;0.164889
9791.000000;0.163420
9790.000000;0.161925
9789.000000;0.160338
9788.000000;0.158669
9787.000000;0.156990
9786.000000;0.155364
9785.000000;0.153828
9784.000000;0.152395
9783.000000;0.151015
9782.000000;0.149560
9781.000000;0.147924
9780.000000;0.146137
9779.000000;0.144350
9778.000000;0.142682
9777.000000;0.141128
9776.000000;0.139608
9775.000000;0.138047
9774.000000;0.136381
9773.000000;0.134553
9772.000000;0.132601
9771.000000;0.130733
9770.000000;0.129184
9769.000000;0.127952
9768.000000;0.126729
9767.000000;0.125208
9766.000000;0.123407
9765.000000;0.121616
9764.000000;0.120039
9763.000000;0.118591
9762.000000;0.117054
9761.000000;0.115348
9760.000000;0.113567
9759.000000;0.111840
9758.000000;0.110215
9757.000000;0.108668
9756.000000;0.107141
9755.000000;0.105573
9754.000000;0.103937
9753.000000;0.102261
9752.000000;0.100606
9751.000000;0.099003
9750.000000;0.097430
9749.000000;0.095830
9748.000000;0.094149
9747.000000;0.092370
9746.000000;0.090548
9745.000000;0.088752
9744.000000;0.086982
9743.000000;0.085169
9742.000000;0.083303
9741.000000;0.081486
9740.000000;0.079831
9739.000000;0.078317
9738.000000;0.076826
9737.000000;0.075263
9736.000000;0.073592
9735.000000;0.071803
9734.000000;0.069933
9733.000000;0.068100
9732.000000;0.066393
9731.000000;0.064733
9730.000000;0.062934
9729.000000;0.060928
9728.000000;0.058853
9727.000000;0.056881
9726.000000;0.055062
9725.000000;0.053360
9724.000000;0.051749
9723.000000;0.050202
9722.000000;0.048650
9721.000000;0.047039
9720.000000;0.045380
9719.000000;0.043698
9718.000000;0.041968
9717.000000;0.040164
9716.000000;0.038319
9715.000000;0.036471
9714.000000;0.034612
9713.000000;0.032736
9712.000000;0.030896
9711.000000;0.029132
9710.000000;0.027371
9709.000000;0.025499
9708.000000;0.023532
9707.000000;0.021621
9706.000000;0.019869
9705.000000;0.018205
9704.000000;0.016480
9703.000000;0.014627
9702.000000;0.012704
9701.000000;0.010793
9700.000000;0.008911
9699.000000;0.007016
9698.000000;0.005087
9697.000000;0.003159
9696.000000;0.001291
9695.000000;-0.000500
9694.000000;-0.002225
9693.000000;-0.003876
9692.000000;-0.005458
9691.000000;-0.007091
9690.000000;-0.008979
9689.000000;-0.011201
9688.000000;-0.013572
9687.000000;-0.015807
9686.000000;-0.017785
9685.000000;-0.019603
9684.000000;-0.021408
9683.000000;-0.023266
9682.000000;-0.025196
9681.000000;-0.027185
9680.000000;-0.029167
9679.000000;-0.031041
9678.000000;-0.032791
9677.000000;-0.034529
9676.000000;-0.036385
9675.000000;-0.038397
9674.000000;-0.040525
9673.000000;-0.042709
9672.000000;-0.044891
9671.000000;-0.047022
9670.000000;-0.049093
9669.000000;-0.051136
9668.000000;-0.053146
9667.000000;-0.055061
9666.000000;-0.056855
9665.000000;-0.058616
9664.000000;-0.060473
9663.000000;-0.062477
9662.000000;-0.064593
9661.000000;-0.066793
9660.000000;-0.069086
9659.000000;-0.071445
9658.000000;-0.073749
9657.000000;-0.075854
9656.000000;-0.077718
9655.000000;-0.079455
9654.000000;-0.081257
9653.000000;-0.083246
9652.000000;-0.085400
9651.000000;-0.087612
9650.000000;-0.089803
9649.000000;-0.091948
9648.000000;-0.094021
9647.000000;-0.095968
9646.000000;-0.097790
9645.000000;-0.099603
9644.000000;-0.101574
9643.000000;-0.103787
9642.000000;-0.106173
9641.000000;-0.108569
9640.000000;-0.110832
9639.000000;-0.112916
9638.000000;-0.114871
9637.000000;-0.116791
9636.000000;-0.118755
9635.000000;-0.120818
9634.000000;-0.123004
9633.000000;-0.125270
9632.000000;-0.127493
9631.000000;-0.129559
9630.000000;-0.131490
9629.000000;-0.133432
9628.000000;-0.135498
9627.000000;-0.137666
9626.000000;-0.139852
9625.000000;-0.142023
9624.000000;-0.144185
9623.000000;-0.146320
9622.000000;-0.148408
9621.000000;-0.150488
9620.000000;-0.152622
9619.000000;-0.154817
9618.000000;-0.157026
9617.000000;-0.159237
9616.000000;-0.161463
9615.000000;-0.163666
9614.000000;-0.165775
9613.000000;-0.167810
9612.000000;-0.169908
9611.000000;-0.172166
9610.000000;-0.174505
9609.000000;-0.176766
9608.000000;-0.178914
9607.000000;-0.181069
9606.000000;-0.183334
9605.000000;-0.185658
9604.000000;-0.187918
9603.000000;-0.190092
9602.000000;-0.192287
9601.000000;-0.194604
9600.000000;-0.197006
9599.000000;-0.199356
9598.000000;-0.201564
9597.000000;-0.203656
9596.000000;-0.205727
9595.000000;-0.207846
9594.000000;-0.210026
9593.000000;-0.212252
9592.000000;-0.214486
9591.000000;-0.216697
9590.000000;-0.218902
9589.000000;-0.221181
9588.000000;-0.223578
9587.000000;-0.226013
9586.000000;-0.228336
9585.000000;-0.230494
9584.000000;-0.232587
9583.000000;-0.234740
9582.000000;-0.236991
9581.000000;-0.239311
9580.000000;-0.241665
9579.000000;-0.244003
9578.000000;-0.246248
9577.000000;-0.248384
9576.000000;-0.250521
9575.000000;-0.252770
9574.000000;-0.255090
9573.000000;-0.257330
9572.000000;-0.259455
9571.000000;-0.261604
9570.000000;-0.263902
9569.000000;-0.266310
9568.000000;-0.268721
9567.000000;-0.271115
9566.000000;-0.273517
9565.000000;-0.275883
9564.000000;-0.278135
9563.000000;-0.280320
9562.000000;-0.282589
9561.000000;-0.285009
9560.000000;-0.287470
9559.000000;-0.289829
9558.000000;-0.292064
9557.000000;-0.294223
9556.000000;-0.296294
9555.000000;-0.298219
9554.000000;-0.300028
9553.000000;-0.301902
9552.000000;-0.304050
9551.000000;-0.306522
9550.000000;-0.309143
9549.000000;-0.311632
9548.000000;-0.313813
9547.000000;-0.315729
9546.000000;-0.317577
9545.000000;-0.319527
9544.000000;-0.321623
9543.000000;-0.323840
9542.000000;-0.326145
9541.000000;-0.328480
9540.000000;-0.330729
9539.000000;-0.332803
9538.000000;-0.334761
9537.000000;-0.336792
9536.000000;-0.339019
9535.000000;-0.341369
9534.000000;-0.343633
9533.000000;-0.345653
9532.000000;-0.347442
9531.000000;-0.349155
9530.000000;-0.350957
9529.000000;-0.352903
9528.000000;-0.354928
9527.000000;-0.356939
9526.000000;-0.358922
9525.000000;-0.360931
9524.000000;-0.363010
9523.000000;-0.365140
9522.000000;-0.367278
9521.000000;-0.369378
9520.000000;-0.371394
9519.000000;-0.373313
9518.000000;-0.375187
9517.000000;-0.377080
9516.000000;-0.378944
9515.000000;-0.380628
9514.000000;-0.382071
9513.000000;-0.383447
9512.000000;-0.385030
9511.000000;-0.386940
9510.000000;-0.389079
9509.000000;-0.391276
9508.000000;-0.393387
9507.000000;-0.395275
9506.000000;-0.396841
9505.000000;-0.398150
9504.000000;-0.399447
9503.000000;-0.400945
9502.000000;-0.402629
9501.000000;-0.404319
9500.000000;-0.405907
9499.000000;-0.407469
9498.000000;-0.409149
9497.000000;-0.410981
9496.000000;-0.412838
9495.000000;-0.414538
9494.000000;-0.415996
9493.000000;-0.417294
9492.000000;-0.418585
9491.000000;-0.419940
9490.000000;-0.421300
9489.000000;-0.422570
9488.000000;-0.423717
9487.000000;-0.424757
9486.000000;-0.425708
9485.000000;-0.426628
9484.000000;-0.427664
9483.000000;-0.428966
9482.000000;-0.430511
9481.000000;-0.432059
9480.000000;-0.433313
9479.000000;-0.434147
9478.000000;-0.434694
9477.000000;-0.435236
9476.000000;-0.435989
9475.000000;-0.436974
9474.000000;-0.438062
9473.000000;-0.439141
9472.000000;-0.440191
9471.000000;-0.441220
9470.000000;-0.442191
9469.000000;-0.443068
9468.000000;-0.443887
9467.000000;-0.444707
9466.000000;-0.445501
9465.000000;-0.446167
9464.000000;-0.446666
9463.000000;-0.447104
9462.000000;-0.447631
9461.000000;-0.448280
9460.000000;-0.448924
9459.000000;-0.449405
9458.000000;-0.449703
9457.000000;-0.449989
9456.000000;-0.450461
9455.000000;-0.451138
9454.000000;-0.451803
9453.000000;-0.452204
9452.000000;-0.452277
9451.000000;-0.452178
9450.000000;-0.452131
9449.000000;-0.452256
9448.000000;-0.452508
9447.000000;-0.452714
9446.000000;-0.452710
9445.000000;-0.452497
9444.000000;-0.452263
9443.000000;-0.452216
9442.000000;-0.452407
9441.000000;-0.452727
9440.000000;-0.453027
9439.000000;-0.453181
9438.000000;-0.453117
9437.000000;-0.452862
9436.000000;-0.452560
9435.000000;-0.452324
9434.000000;-0.452089
9433.000000;-0.451701
9432.000000;-0.451151
9431.000000;-0.450629
9430.000000;-0.450312
9429.000000;-0.450175
9428.000000;-0.450058
9427.000000;-0.449852
9426.000000;-0.449564
9425.000000;-0.449234
9424.000000;-0.448863
9423.000000;-0.448419
9422.000000;-0.447865
9421.000000;-0.447199
9420.000000;-0.446455
9419.000000;-0.445677
9418.000000;-0.444906
9417.000000;-0.444199
9416.000000;-0.443625
9415.000000;-0.443203
9414.000000;-0.442844
9413.000000;-0.442421
9412.000000;-0.441889
9411.000000;-0.441286
9410.000000;-0.440615
9409.000000;-0.439838
9408.000000;-0.438980
9407.000000;-0.438137
9406.000000;-0.437337
9405.000000;-0.436480
9404.000000;-0.435480
9403.000000;-0.434394
9402.000000;-0.433337
9401.000000;-0.432338
9400.000000;-0.431350
9399.000000;-0.430381
9398.000000;-0.429507
9397.000000;-0.428753
9396.000000;-0.428053
9395.000000;-0.427318
9394.000000;-0.426510
9393.000000;-0.425613
9392.000000;-0.424600
9391.000000;-0.423464
9390.000000;-0.422262
9389.000000;-0.421091
9388.000000;-0.420018
9387.000000;-0.419040
9386.000000;-0.418086
9385.000000;-0.417061
9384.000000;-0.415916
9383.000000;-0.414685
9382.000000;-0.413462
9381.000000;-0.412318
9380.000000;-0.411239
9379.000000;-0.410152
9378.000000;-0.409007
9377.000000;-0.407828
9376.000000;-0.406659
9375.000000;-0.405501
9374.000000;-0.404320
9373.000000;-0.403126
9372.000000;-0.401973
9371.000000;-0.400882
9370.000000;-0.399787
9369.000000;-0.398623
9368.000000;-0.397407
9367.000000;-0.396194
9366.000000;-0.394990
9365.000000;-0.393759
9364.000000;-0.392497
9363.000000;-0.391221
9362.000000;-0.389916
9361.000000;-0.388576
9360.000000;-0.387283
9359.000000;-0.386133
9358.000000;-0.385078
9357.000000;-0.383929
9356.000000;-0.382578
9355.000000;-0.381122
9354.000000;-0.379721
9353.000000;-0.378421
9352.000000;-0.377174
9351.000000;-0.375965
9350.000000;-0.374815
9349.000000;-0.373726
9348.000000;-0.372680
9347.000000;-0.371668
9346.000000;-0.370625
9345.000000;-0.369408
9344.000000;-0.367940
9343.000000;-0.366357
9342.000000;-0.364894
9341.000000;-0.363620
9340.000000;-0.362397
9339.000000;-0.361105
9338.000000;-0.359798
9337.000000;-0.358580
9336.000000;-0.357445
9335.000000;-0.356309
9334.000000;-0.355127
9333.000000;-0.353907
9332.000000;-0.352639
9331.000000;-0.351323
9330.000000;-0.350029
9329.000000;-0.348859
9328.000000;-0.347830
9327.000000;-0.346827
9326.000000;-0.345716
9325.000000;-0.344456
9324.000000;-0.343116
9323.000000;-0.341800
9322.000000;-0.340568
9321.000000;-0.339407
9320.000000;-0.338259
9319.000000;-0.337073
9318.000000;-0.335827
9317.000000;-0.334518
9316.000000;-0.333160
9315.000000;-0.331810
9314.000000;-0.330557
9313.000000;-0.329458
9312.000000;-0.328487
9311.000000;-0.327547
9310.000000;-0.326530
9309.000000;-0.325342
9308.000000;-0.323944
9307.000000;-0.322404
9306.000000;-0.320888
9305.000000;-0.319529
9304.000000;-0.318315
9303.000000;-0.317134
9302.000000;-0.315934
9301.000000;-0.314773
9300.000000;-0.313708
9299.000000;-0.312700
9298.000000;-0.311641
9297.000000;-0.310467
9296.000000;-0.309193
9295.000000;-0.307905
9294.000000;-0.306699
9293.000000;-0.305615
9292.000000;-0.304594
9291.000000;-0.303529
9290.000000;-0.302386
9289.000000;-0.301228
9288.000000;-0.300104
9287.000000;-0.298981
9286.000000;-0.297813
9285.000000;-0.296636
9284.000000;-0.295517
9283.000000;-0.294454
9282.000000;-0.293398
9281.000000;-0.292359
9280.000000;-0.291375
9279.000000;-0.290410
9278.000000;-0.289356
9277.000000;-0.288189
9276.000000;-0.287024
9275.000000;-0.285957
9274.000000;-0.284917
9273.000000;-0.283755
9272.000000;-0.282430
9271.000000;-0.281061
9270.000000;-0.279790
9269.000000;-0.278671
9268.000000;-0.277682
9267.000000;-0.276776
9266.000000;-0.275902
9265.000000;-0.275016
9264.000000;-0.274085
9263.000000;-0.273083
9262.000000;-0.271966
9261.000000;-0.270714
9260.000000;-0.269394
9259.000000;-0.268159
9258.000000;-0.267141
9257.000000;-0.266354
9256.000000;-0.265700
9255.000000;-0.265045
9254.000000;-0.264286
9253.000000;-0.263362
9252.000000;-0.262262
9251.000000;-0.261025
9250.000000;-0.259756
9249.000000;-0.258599
9248.000000;-0.257660
9247.000000;-0.256934
9246.000000;-0.256294
9245.000000;-0.255582
9244.000000;-0.254726
9243.000000;-0.253771
9242.000000;-0.252801
9241.000000;-0.251850
9240.000000;-0.250889
9239.000000;-0.249893
9238.000000;-0.248887
9237.000000;-0.247921
9236.000000;-0.247011
9235.000000;-0.246125
9234.000000;-0.245224
9233.000000;-0.244320
9232.000000;-0.243458
9231.000000;-0.242643
9230.000000;-0.241802
9229.000000;-0.240861
9228.000000;-0.239838
9227.000000;-0.238839
9226.000000;-0.237947
9225.000000;-0.237132
9224.000000;-0.236294
9223.000000;-0.235382
9222.000000;-0.234455
9221.000000;-0.233612
9220.000000;-0.232875
9219.000000;-0.232164
9218.000000;-0.231387
9217.000000;-0.230549
9216.000000;-0.229730
9215.000000;-0.228960
9214.000000;-0.228169
9213.000000;-0.227274
9212.000000;-0.226296
9211.000000;-0.225336
9210.000000;-0.224454
9209.000000;-0.223623
9208.000000;-0.222796
9207.000000;-0.221983
9206.000000;-0.221215
9205.000000;-0.220483
9204.000000;-0.219731
9203.000000;-0.218927
9202.000000;-0.218095
9201.000000;-0.217283
9200.000000;-0.216509
9199.000000;-0.215750
9198.000000;-0.214964
9197.000000;-0.214122
9196.000000;-0.213235
9195.000000;-0.212346
9194.000000;-0.211508
9193.000000;-0.210766
9192.000000;-0.210137
9191.000000;-0.209587
9190.000000;-0.209036
9189.000000;-0.208410
9188.000000;-0.207697
9187.000000;-0.206942
9186.000000;-0.206181
9185.000000;-0.205409
9184.000000;-0.204628
9183.000000;-0.203872
9182.000000;-0.203155
9181.000000;-0.202429
9180.000000;-0.201636
9179.000000;-0.200795
9178.000000;-0.199989
9177.000000;-0.199271
9176.000000;-0.198620
9175.000000;-0.198002
9174.000000;-0.197405
9173.000000;-0.196804
9172.000000;-0.196133
9171.000000;-0.195347
9170.000000;-0.194498
9169.000000;-0.193706
9168.000000;-0.193041
9167.000000;-0.192467
9166.000000;-0.191897
9165.000000;-0.191286
9164.000000;-0.190657
9163.000000;-0.190045
9162.000000;-0.189458
9161.000000;-0.188874
9160.000000;-0.188274
9159.000000;-0.187651
9158.000000;-0.187007
9157.000000;-0.186361
9156.000000;-0.185754
9155.000000;-0.185230
9154.000000;-0.184776
9153.000000;-0.184302
9152.000000;-0.183704
9151.000000;-0.182970
9150.000000;-0.182193
9149.000000;-0.181494
9148.000000;-0.180918
9147.000000;-0.180410
9146.000000;-0.179874
9145.000000;-0.179249
9144.000000;-0.178548
9143.000000;-0.177837
9142.000000;-0.177183
9141.000000;-0.176599
9140.000000;-0.176048
9139.000000;-0.175509
9138.000000;-0.175000
9137.000000;-0.174533
9136.000000;-0.174068
9135.000000;-0.173543
9134.000000;-0.172953
9133.000000;-0.172358
9132.000000;-0.171807
9131.000000;-0.171293
9130.000000;-0.170781
9129.000000;-0.170247
9128.000000;-0.169674
9127.000000;-0.169045
9126.000000;-0.168387
9125.000000;-0.167793
9124.000000;-0.167337
9123.000000;-0.166975
9122.000000;-0.166578
9121.000000;-0.166089
9120.000000;-0.165591
9119.000000;-0.165192
9118.000000;-0.164879
9117.000000;-0.164527
9116.000000;-0.164031
9115.000000;-0.163406
9114.000000;-0.162747
9113.000000;-0.162145
9112.000000;-0.161638
9111.000000;-0.161191
9110.000000;-0.160732
9109.000000;-0.160208
9108.000000;-0.159651
9107.000000;-0.159142
9106.000000;-0.158713
9105.000000;-0.158303
9104.000000;-0.157820
9103.000000;-0.157229
9102.000000;-0.156573
9101.000000;-0.155935
9100.000000;-0.155387
9099.000000;-0.154946
9098.000000;-0.154550
9097.000000;-0.154110
9096.000000;-0.153604
9095.000000;-0.153126
9094.000000;-0.152774
9093.000000;-0.152525
9092.000000;-0.152257
9091.000000;-0.151898
9090.000000;-0.151493
9089.000000;-0.151118
9088.000000;-0.150779
9087.000000;-0.150438
9086.000000;-0.150080
9085.000000;-0.149703
9084.000000;-0.149270
9083.000000;-0.148726
9082.000000;-0.148096
