Criado como novo conjunto de dados;"0307_DANIEL.spp","69305.7 Secs"
cm-1;Abs
10000.000000;0.602804
9999.000000;0.601432
9998.000000;0.600064
9997.000000;0.598701
9996.000000;0.597342
9995.000000;0.595985
9994.000000;0.594638
9993.000000;0.593285
9992.000000;0.591954
9991.000000;0.590597
9990.000000;0.589302
9989.000000;0.587787
9988.000000;0.586192
9987.000000;0.585064
9986.000000;0.584439
9985.000000;0.583980
9984.000000;0.583219
9983.000000;0.582121
9982.000000;0.581083
9981.000000;0.580446
9980.000000;0.580088
9979.000000;0.579614
9978.000000;0.578805
9977.000000;0.577764
9976.000000;0.576662
9975.000000;0.575548
9974.000000;0.574393
9973.000000;0.573221
9972.000000;0.572145
9971.000000;0.571334
9970.000000;0.570899
9969.000000;0.570732
9968.000000;0.570515
9967.000000;0.569983
9966.000000;0.569132
9965.000000;0.568101
9964.000000;0.566948
9963.000000;0.565674
9962.000000;0.564376
9961.000000;0.563196
9960.000000;0.562178
9959.000000;0.561324
9958.000000;0.560715
9957.000000;0.560385
9956.000000;0.560124
9955.000000;0.559643
9954.000000;0.558914
9953.000000;0.558142
9952.000000;0.557400
9951.000000;0.556572
9950.000000;0.555668
9949.000000;0.554866
9948.000000;0.554125
9947.000000;0.553075
9946.000000;0.551518
9945.000000;0.549819
9944.000000;0.548524
9943.000000;0.547709
9942.000000;0.546987
9941.000000;0.546087
9940.000000;0.545143
9939.000000;0.544375
9938.000000;0.543709
9937.000000;0.542875
9936.000000;0.541751
9935.000000;0.540508
9934.000000;0.539404
9933.000000;0.538523
9932.000000;0.537740
9931.000000;0.536911
9930.000000;0.536060
9929.000000;0.535311
9928.000000;0.534673
9927.000000;0.533968
9926.000000;0.533020
9925.000000;0.531823
9924.000000;0.530526
9923.000000;0.529303
9922.000000;0.528280
9921.000000;0.527488
9920.000000;0.526819
9919.000000;0.526077
9918.000000;0.525136
9917.000000;0.524059
9916.000000;0.523020
9915.000000;0.522155
9914.000000;0.521448
9913.000000;0.520735
9912.000000;0.519803
9911.000000;0.518601
9910.000000;0.517349
9909.000000;0.516334
9908.000000;0.515562
9907.000000;0.514754
9906.000000;0.513730
9905.000000;0.512658
9904.000000;0.511780
9903.000000;0.511021
9902.000000;0.510063
9901.000000;0.508766
9900.000000;0.507344
9899.000000;0.506096
9898.000000;0.505106
9897.000000;0.504252
9896.000000;0.503400
9895.000000;0.502505
9894.000000;0.501583
9893.000000;0.500655
9892.000000;0.499724
9891.000000;0.498771
9890.000000;0.497776
9889.000000;0.496762
9888.000000;0.495818
9887.000000;0.495055
9886.000000;0.494519
9885.000000;0.494089
9884.000000;0.493490
9883.000000;0.492480
9882.000000;0.491059
9881.000000;0.489469
9880.000000;0.487980
9879.000000;0.486702
9878.000000;0.485590
9877.000000;0.484534
9876.000000;0.483416
9875.000000;0.482181
9874.000000;0.480922
9873.000000;0.479844
9872.000000;0.479043
9871.000000;0.478366
9870.000000;0.477560
9869.000000;0.476531
9868.000000;0.475385
9867.000000;0.474238
9866.000000;0.473110
9865.000000;0.471979
9864.000000;0.470843
9863.000000;0.469689
9862.000000;0.468528
9861.000000;0.467454
9860.000000;0.466599
9859.000000;0.465931
9858.000000;0.465208
9857.000000;0.464172
9856.000000;0.462767
9855.000000;0.461120
9854.000000;0.459417
9853.000000;0.457849
9852.000000;0.456592
9851.000000;0.455683
9850.000000;0.454939
9849.000000;0.454120
9848.000000;0.453186
9847.000000;0.452288
9846.000000;0.451473
9845.000000;0.450561
9844.000000;0.449395
9843.000000;0.448108
9842.000000;0.446993
9841.000000;0.446136
9840.000000;0.445318
9839.000000;0.444288
9838.000000;0.443056
9837.000000;0.441861
9836.000000;0.440925
9835.000000;0.440232
9834.000000;0.439529
9833.000000;0.438512
9832.000000;0.437099
9831.000000;0.435504
9830.000000;0.434012
9829.000000;0.432683
9828.000000;0.431360
9827.000000;0.429935
9826.000000;0.428481
9825.000000;0.427104
9824.000000;0.425824
9823.000000;0.424665
9822.000000;0.423688
9821.000000;0.422801
9820.000000;0.421653
9819.000000;0.419967
9818.000000;0.417962
9817.000000;0.416235
9816.000000;0.415176
9815.000000;0.414611
9814.000000;0.414068
9813.000000;0.413242
9812.000000;0.412134
9811.000000;0.410862
9810.000000;0.409544
9809.000000;0.408313
9808.000000;0.407261
9807.000000;0.406307
9806.000000;0.405231
9805.000000;0.403901
9804.000000;0.402420
9803.000000;0.400984
9802.000000;0.399657
9801.000000;0.398373
9800.000000;0.397132
9799.000000;0.396065
9798.000000;0.395235
9797.000000;0.394477
9796.000000;0.393534
9795.000000;0.392327
9794.000000;0.390989
9793.000000;0.389652
9792.000000;0.388324
9791.000000;0.386966
9790.000000;0.385558
9789.000000;0.384059
9788.000000;0.382420
9787.000000;0.380723
9786.000000;0.379179
9785.000000;0.377882
9784.000000;0.376647
9783.000000;0.375236
9782.000000;0.373673
9781.000000;0.372211
9780.000000;0.371021
9779.000000;0.370048
9778.000000;0.369136
9777.000000;0.368146
9776.000000;0.366942
9775.000000;0.365435
9774.000000;0.363710
9773.000000;0.362023
9772.000000;0.360594
9771.000000;0.359462
9770.000000;0.358519
9769.000000;0.357594
9768.000000;0.356469
9767.000000;0.354987
9766.000000;0.353228
9765.000000;0.351491
9764.000000;0.349996
9763.000000;0.348686
9762.000000;0.347390
9761.000000;0.346080
9760.000000;0.344844
9759.000000;0.343650
9758.000000;0.342309
9757.000000;0.340694
9756.000000;0.338885
9755.000000;0.337081
9754.000000;0.335425
9753.000000;0.333949
9752.000000;0.332628
9751.000000;0.331423
9750.000000;0.330302
9749.000000;0.329253
9748.000000;0.328256
9747.000000;0.327226
9746.000000;0.325995
9745.000000;0.324410
9744.000000;0.322462
9743.000000;0.320332
9742.000000;0.318315
9741.000000;0.316674
9740.000000;0.315518
9739.000000;0.314717
9738.000000;0.313936
9737.000000;0.312809
9736.000000;0.311192
9735.000000;0.309262
9734.000000;0.307351
9733.000000;0.305625
9732.000000;0.303989
9731.000000;0.302303
9730.000000;0.300630
9729.000000;0.299174
9728.000000;0.297976
9727.000000;0.296761
9726.000000;0.295212
9725.000000;0.293370
9724.000000;0.291658
9723.000000;0.290438
9722.000000;0.289570
9721.000000;0.288522
9720.000000;0.286923
9719.000000;0.284937
9718.000000;0.283025
9717.000000;0.281415
9716.000000;0.279930
9715.000000;0.278282
9714.000000;0.276403
9713.000000;0.274457
9712.000000;0.272657
9711.000000;0.271140
9710.000000;0.269898
9709.000000;0.268753
9708.000000;0.267456
9707.000000;0.265908
9706.000000;0.264238
9705.000000;0.262630
9704.000000;0.261131
9703.000000;0.259692
9702.000000;0.258291
9701.000000;0.256893
9700.000000;0.255365
9699.000000;0.253592
9698.000000;0.251655
9697.000000;0.249774
9696.000000;0.248061
9695.000000;0.246431
9694.000000;0.244745
9693.000000;0.242970
9692.000000;0.241184
9691.000000;0.239511
9690.000000;0.238026
9689.000000;0.236651
9688.000000;0.235159
9687.000000;0.233411
9686.000000;0.231559
9685.000000;0.229894
9684.000000;0.228483
9683.000000;0.227083
9682.000000;0.225429
9681.000000;0.223494
9680.000000;0.221443
9679.000000;0.219461
9678.000000;0.217685
9677.000000;0.216174
9676.000000;0.214836
9675.000000;0.213471
9674.000000;0.211951
9673.000000;0.210294
9672.000000;0.208530
9671.000000;0.206633
9670.000000;0.204638
9669.000000;0.202718
9668.000000;0.201006
9667.000000;0.199404
9666.000000;0.197684
9665.000000;0.195757
9664.000000;0.193746
9663.000000;0.191814
9662.000000;0.189997
9661.000000;0.188196
9660.000000;0.186290
9659.000000;0.184252
9658.000000;0.182199
9657.000000;0.180292
9656.000000;0.178542
9655.000000;0.176758
9654.000000;0.174747
9653.000000;0.172564
9652.000000;0.170524
9651.000000;0.168915
9650.000000;0.167707
9649.000000;0.166512
9648.000000;0.164900
9647.000000;0.162826
9646.000000;0.160749
9645.000000;0.159199
9644.000000;0.158189
9643.000000;0.157161
9642.000000;0.155561
9641.000000;0.153393
9640.000000;0.151110
9639.000000;0.149056
9638.000000;0.147183
9637.000000;0.145275
9636.000000;0.143298
9635.000000;0.141417
9634.000000;0.139736
9633.000000;0.138095
9632.000000;0.136184
9631.000000;0.133869
9630.000000;0.131365
9629.000000;0.129034
9628.000000;0.127000
9627.000000;0.125062
9626.000000;0.123014
9625.000000;0.120925
9624.000000;0.119019
9623.000000;0.117354
9622.000000;0.115738
9621.000000;0.113937
9620.000000;0.111883
9619.000000;0.109668
9618.000000;0.107453
9617.000000;0.105382
9616.000000;0.103518
9615.000000;0.101807
9614.000000;0.100144
9613.000000;0.098450
9612.000000;0.096681
9611.000000;0.094786
9610.000000;0.092731
9609.000000;0.090580
9608.000000;0.088479
9607.000000;0.086511
9606.000000;0.084586
9605.000000;0.082523
9604.000000;0.080244
9603.000000;0.077896
9602.000000;0.075727
9601.000000;0.073824
9600.000000;0.072004
9599.000000;0.070011
9598.000000;0.067804
9597.000000;0.065571
9596.000000;0.063484
9595.000000;0.061551
9594.000000;0.059700
9593.000000;0.057851
9592.000000;0.055871
9591.000000;0.053623
9590.000000;0.051197
9589.000000;0.048939
9588.000000;0.047096
9587.000000;0.045488
9586.000000;0.043708
9585.000000;0.041613
9584.000000;0.039433
9583.000000;0.037396
9582.000000;0.035440
9581.000000;0.033353
9580.000000;0.031065
9579.000000;0.028714
9578.000000;0.026500
9577.000000;0.024516
9576.000000;0.022696
9575.000000;0.020905
9574.000000;0.019093
9573.000000;0.017334
9572.000000;0.015676
9571.000000;0.014007
9570.000000;0.012170
9569.000000;0.010144
9568.000000;0.007986
9567.000000;0.005662
9566.000000;0.003105
9565.000000;0.000458
9564.000000;-0.001958
9563.000000;-0.004011
9562.000000;-0.005922
9561.000000;-0.007965
9560.000000;-0.010129
9559.000000;-0.012190
9558.000000;-0.014028
9557.000000;-0.015712
9556.000000;-0.017342
9555.000000;-0.018967
9554.000000;-0.020645
9553.000000;-0.022460
9552.000000;-0.024434
9551.000000;-0.026514
9550.000000;-0.028658
9549.000000;-0.030875
9548.000000;-0.033138
9547.000000;-0.035325
9546.000000;-0.037287
9545.000000;-0.038978
9544.000000;-0.040489
9543.000000;-0.041965
9542.000000;-0.043501
9541.000000;-0.045144
9540.000000;-0.046970
9539.000000;-0.049080
9538.000000;-0.051464
9537.000000;-0.053929
9536.000000;-0.056285
9535.000000;-0.058555
9534.000000;-0.060879
9533.000000;-0.063226
9532.000000;-0.065339
9531.000000;-0.067032
9530.000000;-0.068383
9529.000000;-0.069587
9528.000000;-0.070742
9527.000000;-0.071908
9526.000000;-0.073236
9525.000000;-0.074856
9524.000000;-0.076685
9523.000000;-0.078495
9522.000000;-0.080185
9521.000000;-0.081886
9520.000000;-0.083803
9519.000000;-0.086020
9518.000000;-0.088409
9517.000000;-0.090648
9516.000000;-0.092398
9515.000000;-0.093612
9514.000000;-0.094658
9513.000000;-0.095973
9512.000000;-0.097611
9511.000000;-0.099277
9510.000000;-0.100819
9509.000000;-0.102426
9508.000000;-0.104255
9507.000000;-0.106080
9506.000000;-0.107545
9505.000000;-0.108656
9504.000000;-0.109791
9503.000000;-0.111254
9502.000000;-0.112993
9501.000000;-0.114807
9500.000000;-0.116618
9499.000000;-0.118443
9498.000000;-0.120211
9497.000000;-0.121767
9496.000000;-0.123040
9495.000000;-0.124077
9494.000000;-0.124925
9493.000000;-0.125578
9492.000000;-0.126110
9491.000000;-0.126805
9490.000000;-0.127997
9489.000000;-0.129730
9488.000000;-0.131623
9487.000000;-0.133166
9486.000000;-0.134179
9485.000000;-0.134933
9484.000000;-0.135818
9483.000000;-0.136947
9482.000000;-0.138128
9481.000000;-0.139125
9480.000000;-0.139831
9479.000000;-0.140260
9478.000000;-0.140498
9477.000000;-0.140722
9476.000000;-0.141144
9475.000000;-0.141849
9474.000000;-0.142739
9473.000000;-0.143673
9472.000000;-0.144587
9471.000000;-0.145452
9470.000000;-0.146203
9469.000000;-0.146842
9468.000000;-0.147515
9467.000000;-0.148365
9466.000000;-0.149306
9465.000000;-0.150071
9464.000000;-0.150510
9463.000000;-0.150727
9462.000000;-0.150929
9461.000000;-0.151235
9460.000000;-0.151650
9459.000000;-0.152126
9458.000000;-0.152563
9457.000000;-0.152859
9456.000000;-0.153040
9455.000000;-0.153282
9454.000000;-0.153701
9453.000000;-0.154153
9452.000000;-0.154336
9451.000000;-0.154087
9450.000000;-0.153525
9449.000000;-0.152942
9448.000000;-0.152614
9447.000000;-0.152657
9446.000000;-0.152943
9445.000000;-0.153169
9444.000000;-0.153106
9443.000000;-0.152794
9442.000000;-0.152420
9441.000000;-0.152054
9440.000000;-0.151627
9439.000000;-0.151177
9438.000000;-0.150915
9437.000000;-0.150918
9436.000000;-0.150903
9435.000000;-0.150477
9434.000000;-0.149596
9433.000000;-0.148635
9432.000000;-0.148000
9431.000000;-0.147784
9430.000000;-0.147820
9429.000000;-0.147887
9428.000000;-0.147773
9427.000000;-0.147281
9426.000000;-0.146372
9425.000000;-0.145297
9424.000000;-0.144438
9423.000000;-0.143943
9422.000000;-0.143603
9421.000000;-0.143153
9420.000000;-0.142581
9419.000000;-0.142031
9418.000000;-0.141465
9417.000000;-0.140627
9416.000000;-0.139412
9415.000000;-0.138102
9414.000000;-0.137082
9413.000000;-0.136376
9412.000000;-0.135642
9411.000000;-0.134632
9410.000000;-0.133466
9409.000000;-0.132412
9408.000000;-0.131544
9407.000000;-0.130731
9406.000000;-0.129874
9405.000000;-0.128999
9404.000000;-0.128175
9403.000000;-0.127456
9402.000000;-0.126866
9401.000000;-0.126323
9400.000000;-0.125608
9399.000000;-0.124548
9398.000000;-0.123241
9397.000000;-0.121982
9396.000000;-0.120916
9395.000000;-0.119898
9394.000000;-0.118722
9393.000000;-0.117360
9392.000000;-0.115920
9391.000000;-0.114494
9390.000000;-0.113165
9389.000000;-0.112041
9388.000000;-0.111120
9387.000000;-0.110186
9386.000000;-0.108977
9385.000000;-0.107484
9384.000000;-0.105962
9383.000000;-0.104634
9382.000000;-0.103467
9381.000000;-0.102274
9380.000000;-0.100941
9379.000000;-0.099544
9378.000000;-0.098275
9377.000000;-0.097260
9376.000000;-0.096402
9375.000000;-0.095394
9374.000000;-0.093970
9373.000000;-0.092190
9372.000000;-0.090415
9371.000000;-0.088973
9370.000000;-0.087878
9369.000000;-0.086896
9368.000000;-0.085806
9367.000000;-0.084558
9366.000000;-0.083198
9365.000000;-0.081747
9364.000000;-0.080163
9363.000000;-0.078424
9362.000000;-0.076629
9361.000000;-0.074977
9360.000000;-0.073627
9359.000000;-0.072554
9358.000000;-0.071569
9357.000000;-0.070460
9356.000000;-0.069116
9355.000000;-0.067535
9354.000000;-0.065807
9353.000000;-0.064088
9352.000000;-0.062547
9351.000000;-0.061262
9350.000000;-0.060190
9349.000000;-0.059226
9348.000000;-0.058258
9347.000000;-0.057165
9346.000000;-0.055827
9345.000000;-0.054187
9344.000000;-0.052293
9343.000000;-0.050247
9342.000000;-0.048167
9341.000000;-0.046246
9340.000000;-0.044753
9339.000000;-0.043817
9338.000000;-0.043167
9337.000000;-0.042258
9336.000000;-0.040754
9335.000000;-0.038859
9334.000000;-0.037067
9333.000000;-0.035622
9332.000000;-0.034355
9331.000000;-0.033042
9330.000000;-0.031758
9329.000000;-0.030743
9328.000000;-0.030031
9327.000000;-0.029365
9326.000000;-0.028451
9325.000000;-0.027167
9324.000000;-0.025542
9323.000000;-0.023690
9322.000000;-0.021826
9321.000000;-0.020188
9320.000000;-0.018839
9319.000000;-0.017586
9318.000000;-0.016198
9317.000000;-0.014673
9316.000000;-0.013233
9315.000000;-0.012069
9314.000000;-0.011138
9313.000000;-0.010193
9312.000000;-0.008972
9311.000000;-0.007403
9310.000000;-0.005667
9309.000000;-0.004036
9308.000000;-0.002605
9307.000000;-0.001244
9306.000000;0.000186
9305.000000;0.001683
9304.000000;0.003199
9303.000000;0.004755
9302.000000;0.006305
9301.000000;0.007604
9300.000000;0.008417
9299.000000;0.008883
9298.000000;0.009472
9297.000000;0.010542
9296.000000;0.012034
9295.000000;0.013649
9294.000000;0.015175
9293.000000;0.016580
9292.000000;0.017878
9291.000000;0.019045
9290.000000;0.020071
9289.000000;0.021012
9288.000000;0.021967
9287.000000;0.023010
9286.000000;0.024137
9285.000000;0.025315
9284.000000;0.026586
9283.000000;0.028063
9282.000000;0.029736
9281.000000;0.031351
9280.000000;0.032627
9279.000000;0.033614
9278.000000;0.034686
9277.000000;0.036121
9276.000000;0.037810
9275.000000;0.039442
9274.000000;0.040843
9273.000000;0.042045
9272.000000;0.043112
9271.000000;0.044059
9270.000000;0.044923
9269.000000;0.045796
9268.000000;0.046773
9267.000000;0.047909
9266.000000;0.049214
9265.000000;0.050603
9264.000000;0.051906
9263.000000;0.052997
9262.000000;0.053943
9261.000000;0.054935
9260.000000;0.056084
9259.000000;0.057337
9258.000000;0.058593
9257.000000;0.059817
9256.000000;0.061002
9255.000000;0.062066
9254.000000;0.062913
9253.000000;0.063622
9252.000000;0.064514
9251.000000;0.065899
9250.000000;0.067691
9249.000000;0.069339
9248.000000;0.070297
9247.000000;0.070581
9246.000000;0.070778
9245.000000;0.071489
9244.000000;0.072846
9243.000000;0.074575
9242.000000;0.076338
9241.000000;0.077890
9240.000000;0.079070
9239.000000;0.079859
9238.000000;0.080487
9237.000000;0.081283
9236.000000;0.082351
9235.000000;0.083460
9234.000000;0.084319
9233.000000;0.084893
9232.000000;0.085456
9231.000000;0.086362
9230.000000;0.087742
9229.000000;0.089343
9228.000000;0.090660
9227.000000;0.091357
9226.000000;0.091598
9225.000000;0.091902
9224.000000;0.092629
9223.000000;0.093699
9222.000000;0.094814
9221.000000;0.095852
9220.000000;0.096937
9219.000000;0.098205
9218.000000;0.099607
9217.000000;0.100932
9216.000000;0.101991
9215.000000;0.102790
9214.000000;0.103553
9213.000000;0.104510
9212.000000;0.105638
9211.000000;0.106690
9210.000000;0.107538
9209.000000;0.108369
9208.000000;0.109419
9207.000000;0.110590
9206.000000;0.111552
9205.000000;0.112210
9204.000000;0.112875
9203.000000;0.113854
9202.000000;0.115059
9201.000000;0.116144
9200.000000;0.116952
9199.000000;0.117653
9198.000000;0.118451
9197.000000;0.119354
9196.000000;0.120265
9195.000000;0.121152
9194.000000;0.122019
9193.000000;0.122785
9192.000000;0.123343
9191.000000;0.123732
9190.000000;0.124164
9189.000000;0.124800
9188.000000;0.125594
9187.000000;0.126399
9186.000000;0.127201
9185.000000;0.128149
9184.000000;0.129331
9183.000000;0.130600
9182.000000;0.131705
9181.000000;0.132578
9180.000000;0.133409
9179.000000;0.134405
9178.000000;0.135543
9177.000000;0.136593
9176.000000;0.137356
9175.000000;0.137826
9174.000000;0.138153
9173.000000;0.138517
9172.000000;0.139022
9171.000000;0.139640
9170.000000;0.140246
9169.000000;0.140749
9168.000000;0.141221
9167.000000;0.141863
9166.000000;0.142804
9165.000000;0.143967
9164.000000;0.145142
9163.000000;0.146163
9162.000000;0.146999
9161.000000;0.147718
9160.000000;0.148428
9159.000000;0.149209
9158.000000;0.150013
9157.000000;0.150659
9156.000000;0.151016
9155.000000;0.151221
9154.000000;0.151640
9153.000000;0.152523
9152.000000;0.153733
9151.000000;0.154844
9150.000000;0.155540
9149.000000;0.155871
9148.000000;0.156162
9147.000000;0.156714
9146.000000;0.157590
9145.000000;0.158614
9144.000000;0.159549
9143.000000;0.160286
9142.000000;0.160896
9141.000000;0.161528
9140.000000;0.162250
9139.000000;0.163018
9138.000000;0.163744
9137.000000;0.164384
9136.000000;0.164944
9135.000000;0.165456
9134.000000;0.165982
9133.000000;0.166601
9132.000000;0.167360
9131.000000;0.168207
9130.000000;0.169025
9129.000000;0.169749
9128.000000;0.170438
9127.000000;0.171183
9126.000000;0.171940
9125.000000;0.172509
9124.000000;0.172724
9123.000000;0.172676
9122.000000;0.172668
9121.000000;0.172899
9120.000000;0.173271
9119.000000;0.173578
9118.000000;0.173868
9117.000000;0.174482
9116.000000;0.175669
9115.000000;0.177246
9114.000000;0.178734
9113.000000;0.179798
9112.000000;0.180455
9111.000000;0.180892
9110.000000;0.181202
9109.000000;0.181393
9108.000000;0.181556
9107.000000;0.181897
9106.000000;0.182550
9105.000000;0.183402
9104.000000;0.184160
9103.000000;0.184615
9102.000000;0.184848
9101.000000;0.185145
9100.000000;0.185693
9099.000000;0.186417
9098.000000;0.187113
9097.000000;0.187721
9096.000000;0.188376
9095.000000;0.189189
9094.000000;0.190070
9093.000000;0.190809
9092.000000;0.191290
9091.000000;0.191582
9090.000000;0.191840
9089.000000;0.192159
9088.000000;0.192530
9087.000000;0.192890
9086.000000;0.193213
9085.000000;0.193548
9084.000000;0.193976
9083.000000;0.194516
9082.000000;0.195099
9081.000000;0.195610
9080.000000;0.195941
9079.000000;0.196047
9078.000000;0.196001
9077.000000;0.195985
9076.000000;0.196185
9075.000000;0.196647
9074.000000;0.197268
9073.000000;0.197921
9072.000000;0.198545
9071.000000;0.199139
9070.000000;0.199744
9069.000000;0.200414
9068.000000;0.201143
9067.000000;0.201796
9066.000000;0.202207
9065.000000;0.202381
