Criado como novo conjunto de dados;"0307_DANIEL.spp","10622.3 Secs"
cm-1;Abs
10000.000000;0.608474
9999.000000;0.607666
9998.000000;0.606980
9997.000000;0.606321
9996.000000;0.605466
9995.000000;0.604305
9994.000000;0.602865
9993.000000;0.601219
9992.000000;0.599450
9991.000000;0.597716
9990.000000;0.596196
9989.000000;0.594979
9988.000000;0.594052
9987.000000;0.593341
9986.000000;0.592687
9985.000000;0.591858
9984.000000;0.590713
9983.000000;0.589349
9982.000000;0.587991
9981.000000;0.586773
9980.000000;0.585693
9979.000000;0.584706
9978.000000;0.583759
9977.000000;0.582779
9976.000000;0.581741
9975.000000;0.580710
9974.000000;0.579723
9973.000000;0.578675
9972.000000;0.577440
9971.000000;0.576060
9970.000000;0.574704
9969.000000;0.573444
9968.000000;0.572208
9967.000000;0.570943
9966.000000;0.569685
9965.000000;0.568448
9964.000000;0.567201
9963.000000;0.565971
9962.000000;0.564861
9961.000000;0.563905
9960.000000;0.563021
9959.000000;0.562135
9958.000000;0.561244
9957.000000;0.560290
9956.000000;0.559107
9955.000000;0.557593
9954.000000;0.555875
9953.000000;0.554182
9952.000000;0.552612
9951.000000;0.551111
9950.000000;0.549655
9949.000000;0.548333
9948.000000;0.547235
9947.000000;0.546334
9946.000000;0.545508
9945.000000;0.544628
9944.000000;0.543589
9943.000000;0.542331
9942.000000;0.540868
9941.000000;0.539337
9940.000000;0.537941
9939.000000;0.536816
9938.000000;0.535920
9937.000000;0.535059
9936.000000;0.534046
9935.000000;0.532852
9934.000000;0.531595
9933.000000;0.530401
9932.000000;0.529263
9931.000000;0.528069
9930.000000;0.526751
9929.000000;0.525378
9928.000000;0.524071
9927.000000;0.522853
9926.000000;0.521630
9925.000000;0.520332
9924.000000;0.519010
9923.000000;0.517737
9922.000000;0.516483
9921.000000;0.515146
9920.000000;0.513711
9919.000000;0.512261
9918.000000;0.510867
9917.000000;0.509535
9916.000000;0.508294
9915.000000;0.507220
9914.000000;0.506308
9913.000000;0.505398
9912.000000;0.504319
9911.000000;0.503036
9910.000000;0.501619
9909.000000;0.500123
9908.000000;0.498576
9907.000000;0.497055
9906.000000;0.495654
9905.000000;0.494392
9904.000000;0.493191
9903.000000;0.491956
9902.000000;0.490642
9901.000000;0.489276
9900.000000;0.487964
9899.000000;0.486816
9898.000000;0.485822
9897.000000;0.484829
9896.000000;0.483675
9895.000000;0.482307
9894.000000;0.480719
9893.000000;0.478910
9892.000000;0.476998
9891.000000;0.475288
9890.000000;0.474033
9889.000000;0.473134
9888.000000;0.472230
9887.000000;0.471104
9886.000000;0.469851
9885.000000;0.468628
9884.000000;0.467406
9883.000000;0.466076
9882.000000;0.464657
9881.000000;0.463270
9880.000000;0.461951
9879.000000;0.460606
9878.000000;0.459142
9877.000000;0.457560
9876.000000;0.455940
9875.000000;0.454396
9874.000000;0.453025
9873.000000;0.451829
9872.000000;0.450697
9871.000000;0.449495
9870.000000;0.448185
9869.000000;0.446805
9868.000000;0.445376
9867.000000;0.443895
9866.000000;0.442389
9865.000000;0.440908
9864.000000;0.439455
9863.000000;0.437987
9862.000000;0.436498
9861.000000;0.435058
9860.000000;0.433732
9859.000000;0.432499
9858.000000;0.431292
9857.000000;0.430079
9856.000000;0.428860
9855.000000;0.427591
9854.000000;0.426190
9853.000000;0.424638
9852.000000;0.423052
9851.000000;0.421574
9850.000000;0.420210
9849.000000;0.418833
9848.000000;0.417349
9847.000000;0.415825
9846.000000;0.414391
9845.000000;0.413079
9844.000000;0.411818
9843.000000;0.410547
9842.000000;0.409272
9841.000000;0.408001
9840.000000;0.406700
9839.000000;0.405315
9838.000000;0.403805
9837.000000;0.402148
9836.000000;0.400381
9835.000000;0.398630
9834.000000;0.397017
9833.000000;0.395522
9832.000000;0.394021
9831.000000;0.392487
9830.000000;0.391044
9829.000000;0.389769
9828.000000;0.388546
9827.000000;0.387209
9826.000000;0.385775
9825.000000;0.384376
9824.000000;0.383022
9823.000000;0.381574
9822.000000;0.379983
9821.000000;0.378394
9820.000000;0.376932
9819.000000;0.375510
9818.000000;0.373951
9817.000000;0.372247
9816.000000;0.370576
9815.000000;0.369054
9814.000000;0.367595
9813.000000;0.366033
9812.000000;0.364346
9811.000000;0.362687
9810.000000;0.361197
9809.000000;0.359831
9808.000000;0.358379
9807.000000;0.356671
9806.000000;0.354734
9805.000000;0.352743
9804.000000;0.350851
9803.000000;0.349107
9802.000000;0.347515
9801.000000;0.346103
9800.000000;0.344866
9799.000000;0.343717
9798.000000;0.342528
9797.000000;0.341236
9796.000000;0.339851
9795.000000;0.338390
9794.000000;0.336839
9793.000000;0.335184
9792.000000;0.333444
9791.000000;0.331682
9790.000000;0.329998
9789.000000;0.328467
9788.000000;0.327033
9787.000000;0.325510
9786.000000;0.323769
9785.000000;0.321912
9784.000000;0.320165
9783.000000;0.318596
9782.000000;0.317039
9781.000000;0.315357
9780.000000;0.313672
9779.000000;0.312209
9778.000000;0.310983
9777.000000;0.309759
9776.000000;0.308318
9775.000000;0.306653
9774.000000;0.304868
9773.000000;0.303021
9772.000000;0.301164
9771.000000;0.299438
9770.000000;0.297977
9769.000000;0.296686
9768.000000;0.295249
9767.000000;0.293433
9766.000000;0.291348
9765.000000;0.289324
9764.000000;0.287571
9763.000000;0.286020
9762.000000;0.284490
9761.000000;0.282903
9760.000000;0.281289
9759.000000;0.279665
9758.000000;0.278020
9757.000000;0.276387
9756.000000;0.274820
9755.000000;0.273292
9754.000000;0.271713
9753.000000;0.270053
9752.000000;0.268380
9751.000000;0.266720
9750.000000;0.264993
9749.000000;0.263154
9748.000000;0.261316
9747.000000;0.259598
9746.000000;0.257909
9745.000000;0.256029
9744.000000;0.253937
9743.000000;0.251911
9742.000000;0.250218
9741.000000;0.248801
9740.000000;0.247372
9739.000000;0.245760
9738.000000;0.244052
9737.000000;0.242415
9736.000000;0.240877
9735.000000;0.239312
9734.000000;0.237573
9733.000000;0.235589
9732.000000;0.233400
9731.000000;0.231166
9730.000000;0.229098
9729.000000;0.227323
9728.000000;0.225800
9727.000000;0.224388
9726.000000;0.222990
9725.000000;0.221581
9724.000000;0.220103
9723.000000;0.218411
9722.000000;0.216394
9721.000000;0.214136
9720.000000;0.211885
9719.000000;0.209850
9718.000000;0.208055
9717.000000;0.206376
9716.000000;0.204675
9715.000000;0.202862
9714.000000;0.200903
9713.000000;0.198849
9712.000000;0.196847
9711.000000;0.195047
9710.000000;0.193437
9709.000000;0.191820
9708.000000;0.189979
9707.000000;0.187886
9706.000000;0.185714
9705.000000;0.183665
9704.000000;0.181794
9703.000000;0.180012
9702.000000;0.178196
9701.000000;0.176297
9700.000000;0.174334
9699.000000;0.172339
9698.000000;0.170322
9697.000000;0.168318
9696.000000;0.166408
9695.000000;0.164660
9694.000000;0.163032
9693.000000;0.161378
9692.000000;0.159571
9691.000000;0.157599
9690.000000;0.155544
9689.000000;0.153486
9688.000000;0.151469
9687.000000;0.149513
9686.000000;0.147603
9685.000000;0.145675
9684.000000;0.143675
9683.000000;0.141641
9682.000000;0.139685
9681.000000;0.137846
9680.000000;0.136022
9679.000000;0.134091
9678.000000;0.132075
9677.000000;0.130108
9676.000000;0.128245
9675.000000;0.126376
9674.000000;0.124353
9673.000000;0.122164
9672.000000;0.119933
9671.000000;0.117770
9670.000000;0.115674
9669.000000;0.113595
9668.000000;0.111530
9667.000000;0.109543
9666.000000;0.107654
9665.000000;0.105760
9664.000000;0.103704
9663.000000;0.101455
9662.000000;0.099194
9661.000000;0.097155
9660.000000;0.095382
9659.000000;0.093682
9658.000000;0.091819
9657.000000;0.089715
9656.000000;0.087456
9655.000000;0.085185
9654.000000;0.083026
9653.000000;0.081051
9652.000000;0.079208
9651.000000;0.077303
9650.000000;0.075165
9649.000000;0.072842
9648.000000;0.070566
9647.000000;0.068503
9646.000000;0.066591
9645.000000;0.064649
9644.000000;0.062582
9643.000000;0.060436
9642.000000;0.058282
9641.000000;0.056127
9640.000000;0.053945
9639.000000;0.051735
9638.000000;0.049536
9637.000000;0.047374
9636.000000;0.045219
9635.000000;0.042998
9634.000000;0.040656
9633.000000;0.038211
9632.000000;0.035754
9631.000000;0.033416
9630.000000;0.031318
9629.000000;0.029495
9628.000000;0.027827
9627.000000;0.026074
9626.000000;0.024053
9625.000000;0.021773
9624.000000;0.019373
9623.000000;0.016966
9622.000000;0.014598
9621.000000;0.012329
9620.000000;0.010239
9619.000000;0.008323
9618.000000;0.006457
9617.000000;0.004499
9616.000000;0.002377
9615.000000;0.000076
9614.000000;-0.002384
9613.000000;-0.004906
9612.000000;-0.007329
9611.000000;-0.009563
9610.000000;-0.011678
9609.000000;-0.013826
9608.000000;-0.016093
9607.000000;-0.018454
9606.000000;-0.020807
9605.000000;-0.023045
9604.000000;-0.025140
9603.000000;-0.027233
9602.000000;-0.029542
9601.000000;-0.032124
9600.000000;-0.034762
9599.000000;-0.037192
9598.000000;-0.039378
9597.000000;-0.041484
9596.000000;-0.043615
9595.000000;-0.045738
9594.000000;-0.047853
9593.000000;-0.050089
9592.000000;-0.052525
9591.000000;-0.055037
9590.000000;-0.057418
9589.000000;-0.059626
9588.000000;-0.061821
9587.000000;-0.064152
9586.000000;-0.066589
9585.000000;-0.068983
9584.000000;-0.071240
9583.000000;-0.073409
9582.000000;-0.075603
9581.000000;-0.077857
9580.000000;-0.080077
9579.000000;-0.082139
9578.000000;-0.084060
9577.000000;-0.086054
9576.000000;-0.088378
9575.000000;-0.091089
9574.000000;-0.093950
9573.000000;-0.096605
9572.000000;-0.098889
9571.000000;-0.100930
9570.000000;-0.102975
9569.000000;-0.105153
9568.000000;-0.107449
9567.000000;-0.109821
9566.000000;-0.112243
9565.000000;-0.114616
9564.000000;-0.116786
9563.000000;-0.118724
9562.000000;-0.120616
9561.000000;-0.122695
9560.000000;-0.125002
9559.000000;-0.127371
9558.000000;-0.129644
9557.000000;-0.131816
9556.000000;-0.133999
9555.000000;-0.136299
9554.000000;-0.138746
9553.000000;-0.141272
9552.000000;-0.143757
9551.000000;-0.146114
9550.000000;-0.148358
9549.000000;-0.150561
9548.000000;-0.152752
9547.000000;-0.154903
9546.000000;-0.156986
9545.000000;-0.159020
9544.000000;-0.161047
9543.000000;-0.163113
9542.000000;-0.165261
9541.000000;-0.167516
9540.000000;-0.169868
9539.000000;-0.172294
9538.000000;-0.174763
9537.000000;-0.177205
9536.000000;-0.179517
9535.000000;-0.181659
9534.000000;-0.183716
9533.000000;-0.185782
9532.000000;-0.187820
9531.000000;-0.189704
9530.000000;-0.191404
9529.000000;-0.193057
9528.000000;-0.194812
9527.000000;-0.196715
9526.000000;-0.198743
9525.000000;-0.200882
9524.000000;-0.203104
9523.000000;-0.205338
9522.000000;-0.207520
9521.000000;-0.209640
9520.000000;-0.211709
9519.000000;-0.213709
9518.000000;-0.215635
9517.000000;-0.217521
9516.000000;-0.219396
9515.000000;-0.221232
9514.000000;-0.222994
9513.000000;-0.224705
9512.000000;-0.226413
9511.000000;-0.228138
9510.000000;-0.229901
9509.000000;-0.231751
9508.000000;-0.233684
9507.000000;-0.235546
9506.000000;-0.237150
9505.000000;-0.238520
9504.000000;-0.239946
9503.000000;-0.241703
9502.000000;-0.243761
9501.000000;-0.245818
9500.000000;-0.247612
9499.000000;-0.249146
9498.000000;-0.250599
9497.000000;-0.252092
9496.000000;-0.253599
9495.000000;-0.255058
9494.000000;-0.256470
9493.000000;-0.257862
9492.000000;-0.259192
9491.000000;-0.260401
9490.000000;-0.261545
9489.000000;-0.262777
9488.000000;-0.264174
9487.000000;-0.265622
9486.000000;-0.266964
9485.000000;-0.268196
9484.000000;-0.269439
9483.000000;-0.270747
9482.000000;-0.272030
9481.000000;-0.273168
9480.000000;-0.274129
9479.000000;-0.274944
9478.000000;-0.275660
9477.000000;-0.276372
9476.000000;-0.277239
9475.000000;-0.278370
9474.000000;-0.279700
9473.000000;-0.281027
9472.000000;-0.282167
9471.000000;-0.283068
9470.000000;-0.283805
9469.000000;-0.284525
9468.000000;-0.285391
9467.000000;-0.286458
9466.000000;-0.287577
9465.000000;-0.288474
9464.000000;-0.288995
9463.000000;-0.289277
9462.000000;-0.289618
9461.000000;-0.290206
9460.000000;-0.290974
9459.000000;-0.291704
9458.000000;-0.292232
9457.000000;-0.292562
9456.000000;-0.292837
9455.000000;-0.293216
9454.000000;-0.293715
9453.000000;-0.294154
9452.000000;-0.294327
9451.000000;-0.294270
9450.000000;-0.294294
9449.000000;-0.294664
9448.000000;-0.295260
9447.000000;-0.295683
9446.000000;-0.295711
9445.000000;-0.295534
9444.000000;-0.295490
9443.000000;-0.295676
9442.000000;-0.295918
9441.000000;-0.296048
9440.000000;-0.296056
9439.000000;-0.295995
9438.000000;-0.295876
9437.000000;-0.295711
9436.000000;-0.295558
9435.000000;-0.295426
9434.000000;-0.295232
9433.000000;-0.294908
9432.000000;-0.294524
9431.000000;-0.294226
9430.000000;-0.294084
9429.000000;-0.294037
9428.000000;-0.293958
9427.000000;-0.293721
9426.000000;-0.293244
9425.000000;-0.292553
9424.000000;-0.291789
9423.000000;-0.291131
9422.000000;-0.290669
9421.000000;-0.290371
9420.000000;-0.290105
9419.000000;-0.289687
9418.000000;-0.288994
9417.000000;-0.288104
9416.000000;-0.287305
9415.000000;-0.286837
9414.000000;-0.286623
9413.000000;-0.286348
9412.000000;-0.285796
9411.000000;-0.285036
9410.000000;-0.284236
9409.000000;-0.283423
9408.000000;-0.282527
9407.000000;-0.281569
9406.000000;-0.280692
9405.000000;-0.279994
9404.000000;-0.279431
9403.000000;-0.278894
9402.000000;-0.278309
9401.000000;-0.277617
9400.000000;-0.276751
9399.000000;-0.275699
9398.000000;-0.274563
9397.000000;-0.273469
9396.000000;-0.272418
9395.000000;-0.271307
9394.000000;-0.270130
9393.000000;-0.269082
9392.000000;-0.268365
9391.000000;-0.267927
9390.000000;-0.267458
9389.000000;-0.266690
9388.000000;-0.265616
9387.000000;-0.264391
9386.000000;-0.263104
9385.000000;-0.261733
9384.000000;-0.260293
9383.000000;-0.258918
9382.000000;-0.257729
9381.000000;-0.256699
9380.000000;-0.255691
9379.000000;-0.254624
9378.000000;-0.253535
9377.000000;-0.252500
9376.000000;-0.251524
9375.000000;-0.250545
9374.000000;-0.249501
9373.000000;-0.248369
9372.000000;-0.247156
9371.000000;-0.245861
9370.000000;-0.244486
9369.000000;-0.243070
9368.000000;-0.241699
9367.000000;-0.240458
9366.000000;-0.239359
9365.000000;-0.238334
9364.000000;-0.237298
9363.000000;-0.236209
9362.000000;-0.235058
9361.000000;-0.233833
9360.000000;-0.232549
9359.000000;-0.231287
9358.000000;-0.230158
9357.000000;-0.229200
9356.000000;-0.228313
9355.000000;-0.227322
9354.000000;-0.226114
9353.000000;-0.224712
9352.000000;-0.223250
9351.000000;-0.221876
9350.000000;-0.220657
9349.000000;-0.219557
9348.000000;-0.218508
9347.000000;-0.217485
9346.000000;-0.216484
9345.000000;-0.215437
9344.000000;-0.214218
9343.000000;-0.212794
9342.000000;-0.211296
9341.000000;-0.209892
9340.000000;-0.208602
9339.000000;-0.207315
9338.000000;-0.205970
9337.000000;-0.204630
9336.000000;-0.203372
9335.000000;-0.202200
9334.000000;-0.201088
9333.000000;-0.200023
9332.000000;-0.198964
9331.000000;-0.197837
9330.000000;-0.196644
9329.000000;-0.195515
9328.000000;-0.194572
9327.000000;-0.193761
9326.000000;-0.192897
9325.000000;-0.191841
9324.000000;-0.190577
9323.000000;-0.189153
9322.000000;-0.187645
9321.000000;-0.186165
9320.000000;-0.184808
9319.000000;-0.183578
9318.000000;-0.182399
9317.000000;-0.181227
9316.000000;-0.180077
9315.000000;-0.178945
9314.000000;-0.177782
9313.000000;-0.176560
9312.000000;-0.175320
9311.000000;-0.174116
9310.000000;-0.172947
9309.000000;-0.171761
9308.000000;-0.170513
9307.000000;-0.169211
9306.000000;-0.167922
9305.000000;-0.166720
9304.000000;-0.165587
9303.000000;-0.164417
9302.000000;-0.163162
9301.000000;-0.161954
9300.000000;-0.160968
9299.000000;-0.160167
9298.000000;-0.159310
9297.000000;-0.158231
9296.000000;-0.157015
9295.000000;-0.155830
9294.000000;-0.154687
9293.000000;-0.153463
9292.000000;-0.152103
9291.000000;-0.150708
9290.000000;-0.149429
9289.000000;-0.148351
9288.000000;-0.147451
9287.000000;-0.146622
9286.000000;-0.145747
9285.000000;-0.144787
9284.000000;-0.143794
9283.000000;-0.142809
9282.000000;-0.141800
9281.000000;-0.140734
9280.000000;-0.139644
9279.000000;-0.138578
9278.000000;-0.137507
9277.000000;-0.136385
9276.000000;-0.135240
9275.000000;-0.134135
9274.000000;-0.133065
9273.000000;-0.131978
9272.000000;-0.130883
9271.000000;-0.129850
9270.000000;-0.128892
9269.000000;-0.127932
9268.000000;-0.126916
9267.000000;-0.125877
9266.000000;-0.124856
9265.000000;-0.123837
9264.000000;-0.122792
9263.000000;-0.121741
9262.000000;-0.120724
9261.000000;-0.119745
9260.000000;-0.118789
9259.000000;-0.117845
9258.000000;-0.116911
9257.000000;-0.115982
9256.000000;-0.115050
9255.000000;-0.114087
9254.000000;-0.113064
9253.000000;-0.112008
9252.000000;-0.111028
9251.000000;-0.110183
9250.000000;-0.109379
9249.000000;-0.108468
9248.000000;-0.107473
9247.000000;-0.106574
9246.000000;-0.105839
9245.000000;-0.105097
9244.000000;-0.104151
9243.000000;-0.103040
9242.000000;-0.101962
9241.000000;-0.101016
9240.000000;-0.100131
9239.000000;-0.099231
9238.000000;-0.098333
9237.000000;-0.097475
9236.000000;-0.096620
9235.000000;-0.095713
9234.000000;-0.094754
9233.000000;-0.093811
9232.000000;-0.092944
9231.000000;-0.092143
9230.000000;-0.091311
9229.000000;-0.090360
9228.000000;-0.089327
9227.000000;-0.088385
9226.000000;-0.087651
9225.000000;-0.087028
9224.000000;-0.086299
9223.000000;-0.085365
9222.000000;-0.084325
9221.000000;-0.083311
9220.000000;-0.082361
9219.000000;-0.081464
9218.000000;-0.080638
9217.000000;-0.079894
9216.000000;-0.079182
9215.000000;-0.078440
9214.000000;-0.077666
9213.000000;-0.076897
9212.000000;-0.076142
9211.000000;-0.075401
9210.000000;-0.074694
9209.000000;-0.074029
9208.000000;-0.073347
9207.000000;-0.072564
9206.000000;-0.071679
9205.000000;-0.070789
9204.000000;-0.069989
9203.000000;-0.069297
9202.000000;-0.068672
9201.000000;-0.068065
9200.000000;-0.067421
9199.000000;-0.066676
9198.000000;-0.065807
9197.000000;-0.064886
9196.000000;-0.064045
9195.000000;-0.063369
9194.000000;-0.062818
9193.000000;-0.062253
9192.000000;-0.061551
9191.000000;-0.060698
9190.000000;-0.059786
9189.000000;-0.058925
9188.000000;-0.058160
9187.000000;-0.057460
9186.000000;-0.056757
9185.000000;-0.056007
9184.000000;-0.055215
9183.000000;-0.054421
9182.000000;-0.053667
9181.000000;-0.052988
9180.000000;-0.052402
9179.000000;-0.051902
9178.000000;-0.051448
9177.000000;-0.050979
9176.000000;-0.050456
9175.000000;-0.049875
9174.000000;-0.049238
9173.000000;-0.048525
9172.000000;-0.047732
9171.000000;-0.046923
9170.000000;-0.046183
9169.000000;-0.045528
9168.000000;-0.044889
9167.000000;-0.044208
9166.000000;-0.043514
9165.000000;-0.042875
9164.000000;-0.042314
9163.000000;-0.041791
9162.000000;-0.041256
9161.000000;-0.040679
9160.000000;-0.040066
9159.000000;-0.039460
9158.000000;-0.038919
9157.000000;-0.038447
9156.000000;-0.037950
9155.000000;-0.037308
9154.000000;-0.036484
9153.000000;-0.035569
9152.000000;-0.034699
9151.000000;-0.033960
9150.000000;-0.033363
9149.000000;-0.032878
9148.000000;-0.032462
9147.000000;-0.032073
9146.000000;-0.031670
9145.000000;-0.031207
9144.000000;-0.030637
9143.000000;-0.029961
9142.000000;-0.029253
9141.000000;-0.028628
9140.000000;-0.028146
9139.000000;-0.027755
9138.000000;-0.027355
9137.000000;-0.026889
9136.000000;-0.026371
9135.000000;-0.025838
9134.000000;-0.025314
9133.000000;-0.024826
9132.000000;-0.024404
9131.000000;-0.024021
9130.000000;-0.023577
9129.000000;-0.022987
9128.000000;-0.022284
9127.000000;-0.021598
9126.000000;-0.021021
9125.000000;-0.020543
9124.000000;-0.020108
9123.000000;-0.019678
9122.000000;-0.019211
9121.000000;-0.018651
9120.000000;-0.018021
9119.000000;-0.017467
9118.000000;-0.017122
9117.000000;-0.016923
9116.000000;-0.016655
9115.000000;-0.016202
9114.000000;-0.015648
9113.000000;-0.015131
9112.000000;-0.014674
9111.000000;-0.014227
9110.000000;-0.013789
9109.000000;-0.013404
9108.000000;-0.013047
9107.000000;-0.012608
9106.000000;-0.011997
9105.000000;-0.011233
9104.000000;-0.010440
9103.000000;-0.009781
9102.000000;-0.009349
9101.000000;-0.009095
9100.000000;-0.008864
9099.000000;-0.008547
9098.000000;-0.008187
9097.000000;-0.007882
9096.000000;-0.007632
9095.000000;-0.007327
9094.000000;-0.006888
9093.000000;-0.006361
9092.000000;-0.005850
9091.000000;-0.005406
9090.000000;-0.005000
9089.000000;-0.004583
9088.000000;-0.004166
9087.000000;-0.003827
9086.000000;-0.003631
9085.000000;-0.003511
9084.000000;-0.003287
9083.000000;-0.002833
9082.000000;-0.002213
9081.000000;-0.001619
9080.000000;-0.001188
9079.000000;-0.000931
9078.000000;-0.000785
