Criado como novo conjunto de dados;"0307_DANIEL.spp","31863.4 Secs"
cm-1;Abs
10000.000000;1.068920
9999.000000;1.068935
9998.000000;1.068950
9997.000000;1.068965
9996.000000;1.068980
9995.000000;1.068996
9994.000000;1.069010
9993.000000;1.069026
9992.000000;1.069040
9991.000000;1.069057
9990.000000;1.069071
9989.000000;1.069041
9988.000000;1.068609
9987.000000;1.067629
9986.000000;1.066332
9985.000000;1.064841
9984.000000;1.063230
9983.000000;1.061659
9982.000000;1.060273
9981.000000;1.058973
9980.000000;1.057565
9979.000000;1.056135
9978.000000;1.055089
9977.000000;1.054724
9976.000000;1.054833
9975.000000;1.054749
9974.000000;1.053789
9973.000000;1.051724
9972.000000;1.048976
9971.000000;1.046383
9970.000000;1.044651
9969.000000;1.043869
9968.000000;1.043496
9967.000000;1.042816
9966.000000;1.041458
9965.000000;1.039564
9964.000000;1.037545
9963.000000;1.035767
9962.000000;1.034439
9961.000000;1.033675
9960.000000;1.033460
9959.000000;1.033511
9958.000000;1.033330
9957.000000;1.032594
9956.000000;1.031456
9955.000000;1.030315
9954.000000;1.029260
9953.000000;1.027931
9952.000000;1.025976
9951.000000;1.023566
9950.000000;1.021330
9949.000000;1.019814
9948.000000;1.019031
9947.000000;1.018503
9946.000000;1.017685
9945.000000;1.016399
9944.000000;1.014886
9943.000000;1.013487
9942.000000;1.012319
9941.000000;1.011280
9940.000000;1.010233
9939.000000;1.009079
9938.000000;1.007766
9937.000000;1.006365
9936.000000;1.005068
9935.000000;1.003948
9934.000000;1.002785
9933.000000;1.001335
9932.000000;0.999717
9931.000000;0.998274
9930.000000;0.997017
9929.000000;0.995539
9928.000000;0.993611
9927.000000;0.991630
9926.000000;0.990253
9925.000000;0.989694
9924.000000;0.989493
9923.000000;0.988899
9922.000000;0.987447
9921.000000;0.985323
9920.000000;0.983257
9919.000000;0.981892
9918.000000;0.981122
9917.000000;0.980193
9916.000000;0.978568
9915.000000;0.976555
9914.000000;0.974897
9913.000000;0.973931
9912.000000;0.973337
9911.000000;0.972568
9910.000000;0.971315
9909.000000;0.969602
9908.000000;0.967663
9907.000000;0.965767
9906.000000;0.964040
9905.000000;0.962449
9904.000000;0.960999
9903.000000;0.959829
9902.000000;0.959003
9901.000000;0.958332
9900.000000;0.957530
9899.000000;0.956488
9898.000000;0.955239
9897.000000;0.953780
9896.000000;0.952114
9895.000000;0.950368
9894.000000;0.948719
9893.000000;0.947250
9892.000000;0.945981
9891.000000;0.944936
9890.000000;0.944015
9889.000000;0.942948
9888.000000;0.941583
9887.000000;0.940110
9886.000000;0.938785
9885.000000;0.937534
9884.000000;0.936089
9883.000000;0.934441
9882.000000;0.932855
9881.000000;0.931449
9880.000000;0.930062
9879.000000;0.928592
9878.000000;0.927177
9877.000000;0.925900
9876.000000;0.924572
9875.000000;0.922947
9874.000000;0.921031
9873.000000;0.919050
9872.000000;0.917205
9871.000000;0.915594
9870.000000;0.914240
9869.000000;0.913068
9868.000000;0.911891
9867.000000;0.910511
9866.000000;0.908876
9865.000000;0.907131
9864.000000;0.905561
9863.000000;0.904398
9862.000000;0.903593
9861.000000;0.902786
9860.000000;0.901632
9859.000000;0.900169
9858.000000;0.898741
9857.000000;0.897541
9856.000000;0.896396
9855.000000;0.895042
9854.000000;0.893465
9853.000000;0.891890
9852.000000;0.890544
9851.000000;0.889486
9850.000000;0.888562
9849.000000;0.887429
9848.000000;0.885768
9847.000000;0.883607
9846.000000;0.881403
9845.000000;0.879674
9844.000000;0.878512
9843.000000;0.877508
9842.000000;0.876123
9841.000000;0.874124
9840.000000;0.871713
9839.000000;0.869333
9838.000000;0.867351
9837.000000;0.865870
9836.000000;0.864744
9835.000000;0.863749
9834.000000;0.862736
9833.000000;0.861653
9832.000000;0.860436
9831.000000;0.858917
9830.000000;0.856893
9829.000000;0.854380
9828.000000;0.851787
9827.000000;0.849737
9826.000000;0.848591
9825.000000;0.848120
9824.000000;0.847646
9823.000000;0.846541
9822.000000;0.844636
9821.000000;0.842282
9820.000000;0.840071
9819.000000;0.838396
9818.000000;0.837182
9817.000000;0.836033
9816.000000;0.834687
9815.000000;0.833231
9814.000000;0.831818
9813.000000;0.830335
9812.000000;0.828525
9811.000000;0.826378
9810.000000;0.824209
9809.000000;0.822335
9808.000000;0.820841
9807.000000;0.819652
9806.000000;0.818644
9805.000000;0.817619
9804.000000;0.816363
9803.000000;0.814857
9802.000000;0.813310
9801.000000;0.811844
9800.000000;0.810243
9799.000000;0.808217
9798.000000;0.805897
9797.000000;0.803852
9796.000000;0.802476
9795.000000;0.801497
9794.000000;0.800289
9793.000000;0.798651
9792.000000;0.797076
9791.000000;0.796104
9790.000000;0.795579
9789.000000;0.794756
9788.000000;0.793144
9787.000000;0.791013
9786.000000;0.788994
9785.000000;0.787378
9784.000000;0.785946
9783.000000;0.784326
9782.000000;0.782323
9781.000000;0.779987
9780.000000;0.777564
9779.000000;0.775378
9778.000000;0.773597
9777.000000;0.772092
9776.000000;0.770635
9775.000000;0.769212
9774.000000;0.767969
9773.000000;0.766824
9772.000000;0.765345
9771.000000;0.763161
9770.000000;0.760434
9769.000000;0.757810
9768.000000;0.755865
9767.000000;0.754645
9766.000000;0.753712
9765.000000;0.752580
9764.000000;0.751083
9763.000000;0.749374
9762.000000;0.747601
9761.000000;0.745673
9760.000000;0.743402
9759.000000;0.740853
9758.000000;0.738464
9757.000000;0.736712
9756.000000;0.735641
9755.000000;0.734777
9754.000000;0.733577
9753.000000;0.731940
9752.000000;0.730156
9751.000000;0.728392
9750.000000;0.726419
9749.000000;0.724002
9748.000000;0.721416
9747.000000;0.719288
9746.000000;0.717920
9745.000000;0.716988
9744.000000;0.715933
9743.000000;0.714480
9742.000000;0.712680
9741.000000;0.710650
9740.000000;0.708498
9739.000000;0.706392
9738.000000;0.704516
9737.000000;0.702924
9736.000000;0.701496
9735.000000;0.700012
9734.000000;0.698258
9733.000000;0.696176
9732.000000;0.693945
9731.000000;0.691812
9730.000000;0.689817
9729.000000;0.687836
9728.000000;0.685932
9727.000000;0.684381
9726.000000;0.683186
9725.000000;0.681857
9724.000000;0.679949
9723.000000;0.677695
9722.000000;0.675758
9721.000000;0.674419
9720.000000;0.673298
9719.000000;0.671867
9718.000000;0.669967
9717.000000;0.667758
9716.000000;0.665434
9715.000000;0.663124
9714.000000;0.660910
9713.000000;0.658852
9712.000000;0.657035
9711.000000;0.655570
9710.000000;0.654357
9709.000000;0.652912
9708.000000;0.650711
9707.000000;0.647808
9706.000000;0.644895
9705.000000;0.642599
9704.000000;0.640899
9703.000000;0.639317
9702.000000;0.637506
9701.000000;0.635470
9700.000000;0.633346
9699.000000;0.631230
9698.000000;0.629190
9697.000000;0.627287
9696.000000;0.625531
9695.000000;0.623856
9694.000000;0.622173
9693.000000;0.620386
9692.000000;0.618437
9691.000000;0.616352
9690.000000;0.614233
9689.000000;0.612149
9688.000000;0.610074
9687.000000;0.607954
9686.000000;0.605768
9685.000000;0.603491
9684.000000;0.601089
9683.000000;0.598637
9682.000000;0.596339
9681.000000;0.594319
9680.000000;0.592450
9679.000000;0.590512
9678.000000;0.588489
9677.000000;0.586586
9676.000000;0.584920
9675.000000;0.583338
9674.000000;0.581600
9673.000000;0.579650
9672.000000;0.577608
9671.000000;0.575547
9670.000000;0.573407
9669.000000;0.571122
9668.000000;0.568755
9667.000000;0.566471
9666.000000;0.564424
9665.000000;0.562690
9664.000000;0.561220
9663.000000;0.559787
9662.000000;0.558054
9661.000000;0.555828
9660.000000;0.553236
9659.000000;0.550588
9658.000000;0.548059
9657.000000;0.545618
9656.000000;0.543213
9655.000000;0.540921
9654.000000;0.538857
9653.000000;0.537039
9652.000000;0.535384
9651.000000;0.533753
9650.000000;0.531960
9649.000000;0.529820
9648.000000;0.527297
9647.000000;0.524588
9646.000000;0.522012
9645.000000;0.519833
9644.000000;0.518118
9643.000000;0.516643
9642.000000;0.514950
9641.000000;0.512663
9640.000000;0.509876
9639.000000;0.507082
9638.000000;0.504641
9637.000000;0.502447
9636.000000;0.500218
9635.000000;0.497888
9634.000000;0.495552
9633.000000;0.493194
9632.000000;0.490758
9631.000000;0.488411
9630.000000;0.486421
9629.000000;0.484742
9628.000000;0.482971
9627.000000;0.480803
9626.000000;0.478362
9625.000000;0.475964
9624.000000;0.473723
9623.000000;0.471520
9622.000000;0.469238
9621.000000;0.466898
9620.000000;0.464630
9619.000000;0.462579
9618.000000;0.460772
9617.000000;0.459030
9616.000000;0.457061
9615.000000;0.454725
9614.000000;0.452180
9613.000000;0.449731
9612.000000;0.447555
9611.000000;0.445589
9610.000000;0.443596
9609.000000;0.441314
9608.000000;0.438648
9607.000000;0.435795
9606.000000;0.433119
9605.000000;0.430837
9604.000000;0.428852
9603.000000;0.426918
9602.000000;0.424861
9601.000000;0.422582
9600.000000;0.419968
9599.000000;0.417006
9598.000000;0.413963
9597.000000;0.411251
9596.000000;0.409018
9595.000000;0.406984
9594.000000;0.404783
9593.000000;0.402412
9592.000000;0.400191
9591.000000;0.398287
9590.000000;0.396443
9589.000000;0.394268
9588.000000;0.391722
9587.000000;0.389152
9586.000000;0.386858
9585.000000;0.384775
9584.000000;0.382632
9583.000000;0.380272
9582.000000;0.377715
9581.000000;0.375004
9580.000000;0.372197
9579.000000;0.369477
9578.000000;0.367090
9577.000000;0.365077
9576.000000;0.363181
9575.000000;0.361120
9574.000000;0.358907
9573.000000;0.356784
9572.000000;0.354857
9571.000000;0.352907
9570.000000;0.350607
9569.000000;0.347886
9568.000000;0.345013
9567.000000;0.342332
9566.000000;0.339977
9565.000000;0.337828
9564.000000;0.335656
9563.000000;0.333276
9562.000000;0.330617
9561.000000;0.327793
9560.000000;0.325096
9559.000000;0.322789
9558.000000;0.320847
9557.000000;0.318960
9556.000000;0.316858
9555.000000;0.314546
9554.000000;0.312198
9553.000000;0.309921
9552.000000;0.307726
9551.000000;0.305625
9550.000000;0.303599
9549.000000;0.301512
9548.000000;0.299218
9547.000000;0.296767
9546.000000;0.294390
9545.000000;0.292242
9544.000000;0.290267
9543.000000;0.288315
9542.000000;0.286312
9541.000000;0.284276
9540.000000;0.282222
9539.000000;0.280080
9538.000000;0.277670
9537.000000;0.274833
9536.000000;0.271691
9535.000000;0.268735
9534.000000;0.266441
9533.000000;0.264773
9532.000000;0.263199
9531.000000;0.261288
9530.000000;0.259124
9529.000000;0.257048
9528.000000;0.255189
9527.000000;0.253448
9526.000000;0.251780
9525.000000;0.250215
9524.000000;0.248594
9523.000000;0.246579
9522.000000;0.244023
9521.000000;0.241153
9520.000000;0.238303
9519.000000;0.235635
9518.000000;0.233226
9517.000000;0.231225
9516.000000;0.229671
9515.000000;0.228271
9514.000000;0.226596
9513.000000;0.224540
9512.000000;0.222351
9511.000000;0.220236
9510.000000;0.218152
9509.000000;0.216091
9508.000000;0.214307
9507.000000;0.213038
9506.000000;0.212117
9505.000000;0.211081
9504.000000;0.209617
9503.000000;0.207745
9502.000000;0.205627
9501.000000;0.203425
9500.000000;0.201334
9499.000000;0.199527
9498.000000;0.197981
9497.000000;0.196504
9496.000000;0.194996
9495.000000;0.193508
9494.000000;0.192038
9493.000000;0.190447
9492.000000;0.188737
9491.000000;0.187204
9490.000000;0.186137
9489.000000;0.185439
9488.000000;0.184717
9487.000000;0.183690
9486.000000;0.182355
9485.000000;0.180811
9484.000000;0.179105
9483.000000;0.177280
9482.000000;0.175433
9481.000000;0.173706
9480.000000;0.172268
9479.000000;0.171250
9478.000000;0.170592
9477.000000;0.169982
9476.000000;0.169079
9475.000000;0.167836
9474.000000;0.166499
9473.000000;0.165335
9472.000000;0.164449
9471.000000;0.163832
9470.000000;0.163409
9469.000000;0.162980
9468.000000;0.162289
9467.000000;0.161272
9466.000000;0.160156
9465.000000;0.159229
9464.000000;0.158553
9463.000000;0.157958
9462.000000;0.157262
9461.000000;0.156434
9460.000000;0.155584
9459.000000;0.154873
9458.000000;0.154403
9457.000000;0.154131
9456.000000;0.153867
9455.000000;0.153417
9454.000000;0.152762
9453.000000;0.152134
9452.000000;0.151844
9451.000000;0.151944
9450.000000;0.152065
9449.000000;0.151694
9448.000000;0.150710
9447.000000;0.149588
9446.000000;0.148973
9445.000000;0.149098
9444.000000;0.149692
9443.000000;0.150349
9442.000000;0.150832
9441.000000;0.151061
9440.000000;0.151028
9439.000000;0.150801
9438.000000;0.150488
9437.000000;0.150148
9436.000000;0.149824
9435.000000;0.149659
9434.000000;0.149843
9433.000000;0.150378
9432.000000;0.151019
9431.000000;0.151509
9430.000000;0.151765
9429.000000;0.151817
9428.000000;0.151717
9427.000000;0.151602
9426.000000;0.151720
9425.000000;0.152238
9424.000000;0.153056
9423.000000;0.153871
9422.000000;0.154397
9421.000000;0.154514
9420.000000;0.154354
9419.000000;0.154307
9418.000000;0.154778
9417.000000;0.155788
9416.000000;0.156882
9415.000000;0.157566
9414.000000;0.157772
9413.000000;0.157813
9412.000000;0.157990
9411.000000;0.158426
9410.000000;0.159165
9409.000000;0.160180
9408.000000;0.161256
9407.000000;0.162090
9406.000000;0.162629
9405.000000;0.163177
9404.000000;0.164067
9403.000000;0.165301
9402.000000;0.166549
9401.000000;0.167452
9400.000000;0.167886
9399.000000;0.168024
9398.000000;0.168204
9397.000000;0.168699
9396.000000;0.169538
9395.000000;0.170554
9394.000000;0.171599
9393.000000;0.172663
9392.000000;0.173766
9391.000000;0.174835
9390.000000;0.175762
9389.000000;0.176541
9388.000000;0.177277
9387.000000;0.178095
9386.000000;0.179070
9385.000000;0.180215
9384.000000;0.181466
9383.000000;0.182709
9382.000000;0.183885
9381.000000;0.185034
9380.000000;0.186189
9379.000000;0.187265
9378.000000;0.188159
9377.000000;0.188940
9376.000000;0.189853
9375.000000;0.191074
9374.000000;0.192537
9373.000000;0.194034
9372.000000;0.195412
9371.000000;0.196635
9370.000000;0.197702
9369.000000;0.198629
9368.000000;0.199500
9367.000000;0.200448
9366.000000;0.201546
9365.000000;0.202754
9364.000000;0.203985
9363.000000;0.205178
9362.000000;0.206302
9361.000000;0.207371
9360.000000;0.208485
9359.000000;0.209815
9358.000000;0.211429
9357.000000;0.213151
9356.000000;0.214652
9355.000000;0.215766
9354.000000;0.216659
9353.000000;0.217661
9352.000000;0.218910
9351.000000;0.220239
9350.000000;0.221402
9349.000000;0.222364
9348.000000;0.223280
9347.000000;0.224258
9346.000000;0.225256
9345.000000;0.226230
9344.000000;0.227271
9343.000000;0.228476
9342.000000;0.229792
9341.000000;0.231069
9340.000000;0.232245
9339.000000;0.233356
9338.000000;0.234403
9337.000000;0.235360
9336.000000;0.236306
9335.000000;0.237408
9334.000000;0.238703
9333.000000;0.240017
9332.000000;0.241160
9331.000000;0.242127
9330.000000;0.243039
9329.000000;0.243971
9328.000000;0.244931
9327.000000;0.245948
9326.000000;0.247077
9325.000000;0.248347
9324.000000;0.249745
9323.000000;0.251202
9322.000000;0.252578
9321.000000;0.253732
9320.000000;0.254690
9319.000000;0.255669
9318.000000;0.256855
9317.000000;0.258200
9316.000000;0.259531
9315.000000;0.260771
9314.000000;0.261956
9313.000000;0.263075
9312.000000;0.264039
9311.000000;0.264838
9310.000000;0.265619
9309.000000;0.266561
9308.000000;0.267722
9307.000000;0.269022
9306.000000;0.270353
9305.000000;0.271685
9304.000000;0.273057
9303.000000;0.274482
9302.000000;0.275866
9301.000000;0.277081
9300.000000;0.278115
9299.000000;0.279059
9298.000000;0.279959
9297.000000;0.280801
9296.000000;0.281668
9295.000000;0.282733
9294.000000;0.283974
9293.000000;0.285074
9292.000000;0.285804
9291.000000;0.286393
9290.000000;0.287274
9289.000000;0.288517
9288.000000;0.289773
9287.000000;0.290778
9286.000000;0.291661
9285.000000;0.292659
9284.000000;0.293786
9283.000000;0.294934
9282.000000;0.296120
9281.000000;0.297445
9280.000000;0.298872
9279.000000;0.300228
9278.000000;0.301395
9277.000000;0.302408
9276.000000;0.303353
9275.000000;0.304267
9274.000000;0.305111
9273.000000;0.305829
9272.000000;0.306450
9271.000000;0.307158
9270.000000;0.308151
9269.000000;0.309394
9268.000000;0.310592
9267.000000;0.311507
9266.000000;0.312214
9265.000000;0.312966
9264.000000;0.313908
9263.000000;0.314998
9262.000000;0.316132
9261.000000;0.317212
9260.000000;0.318160
9259.000000;0.318984
9258.000000;0.319814
9257.000000;0.320756
9256.000000;0.321737
9255.000000;0.322609
9254.000000;0.323386
9253.000000;0.324230
9252.000000;0.325215
9251.000000;0.326236
9250.000000;0.327175
9249.000000;0.328030
9248.000000;0.328837
9247.000000;0.329579
9246.000000;0.330250
9245.000000;0.330902
9244.000000;0.331562
9243.000000;0.332167
9242.000000;0.332701
9241.000000;0.333322
9240.000000;0.334254
9239.000000;0.335539
9238.000000;0.336967
9237.000000;0.338270
9236.000000;0.339339
9235.000000;0.340255
9234.000000;0.341157
9233.000000;0.342093
9232.000000;0.343021
9231.000000;0.343921
9230.000000;0.344867
9229.000000;0.345923
9228.000000;0.346969
9227.000000;0.347742
9226.000000;0.348093
9225.000000;0.348178
9224.000000;0.348327
9223.000000;0.348779
9222.000000;0.349576
9221.000000;0.350643
9220.000000;0.351871
9219.000000;0.353132
9218.000000;0.354315
9217.000000;0.355354
9216.000000;0.356224
9215.000000;0.356930
9214.000000;0.357554
9213.000000;0.358241
9212.000000;0.359054
9211.000000;0.359871
9210.000000;0.360524
9209.000000;0.361018
9208.000000;0.361515
9207.000000;0.362108
9206.000000;0.362764
9205.000000;0.363483
9204.000000;0.364364
9203.000000;0.365418
9202.000000;0.366451
9201.000000;0.367257
9200.000000;0.367859
9199.000000;0.368456
9198.000000;0.369160
9197.000000;0.369927
9196.000000;0.370702
9195.000000;0.371505
9194.000000;0.372331
9193.000000;0.373073
9192.000000;0.373620
9191.000000;0.374007
9190.000000;0.374407
9189.000000;0.374955
9188.000000;0.375587
9187.000000;0.376113
9186.000000;0.376460
9185.000000;0.376801
9184.000000;0.377384
9183.000000;0.378250
9182.000000;0.379218
9181.000000;0.380136
9180.000000;0.381009
9179.000000;0.381829
9178.000000;0.382469
9177.000000;0.382855
9176.000000;0.383154
9175.000000;0.383628
9174.000000;0.384311
9173.000000;0.384990
9172.000000;0.385485
9171.000000;0.385824
9170.000000;0.386159
9169.000000;0.386620
9168.000000;0.387268
9167.000000;0.388087
9166.000000;0.388969
9165.000000;0.389760
9164.000000;0.390368
9163.000000;0.390795
9162.000000;0.391091
9161.000000;0.391350
9160.000000;0.391732
9159.000000;0.392358
9158.000000;0.393169
9157.000000;0.393954
9156.000000;0.394570
9155.000000;0.395042
9154.000000;0.395469
9153.000000;0.395909
9152.000000;0.396398
9151.000000;0.396988
9150.000000;0.397687
9149.000000;0.398397
9148.000000;0.398962
9147.000000;0.399310
9146.000000;0.399550
9145.000000;0.399930
9144.000000;0.400628
9143.000000;0.401543
9142.000000;0.402366
9141.000000;0.402925
9140.000000;0.403389
9139.000000;0.404026
9138.000000;0.404835
9137.000000;0.405572
9136.000000;0.406094
9135.000000;0.406490
9134.000000;0.406855
9133.000000;0.407131
9132.000000;0.407259
9131.000000;0.407347
9130.000000;0.407599
9129.000000;0.408119
9128.000000;0.408832
9127.000000;0.409526
9126.000000;0.409967
9125.000000;0.410105
9124.000000;0.410175
9123.000000;0.410499
9122.000000;0.411125
9121.000000;0.411804
9120.000000;0.412321
9119.000000;0.412718
9118.000000;0.413121
9117.000000;0.413529
9116.000000;0.413884
9115.000000;0.414211
9114.000000;0.414580
9113.000000;0.415004
9112.000000;0.415480
9111.000000;0.416023
9110.000000;0.416566
9109.000000;0.416964
9108.000000;0.417209
9107.000000;0.417524
9106.000000;0.418095
9105.000000;0.418795
9104.000000;0.419328
9103.000000;0.419573
9102.000000;0.419635
9101.000000;0.419629
9100.000000;0.419607
9099.000000;0.419691
9098.000000;0.420066
9097.000000;0.420788
9096.000000;0.421688
9095.000000;0.422505
9094.000000;0.423061
9093.000000;0.423331
9092.000000;0.423443
9091.000000;0.423617
9090.000000;0.423994
9089.000000;0.424504
9088.000000;0.424946
9087.000000;0.425209
9086.000000;0.425359
9085.000000;0.425537
9084.000000;0.425841
9083.000000;0.426274
9082.000000;0.426727
9081.000000;0.427051
9080.000000;0.427199
9079.000000;0.427301
9078.000000;0.427509
9077.000000;0.427816
9076.000000;0.428101
9075.000000;0.428315
9074.000000;0.428539
9073.000000;0.428856
9072.000000;0.429279
9071.000000;0.429771
9070.000000;0.430258
9069.000000;0.430634
9068.000000;0.430838
9067.000000;0.430947
9066.000000;0.431089
9065.000000;0.431310
9064.000000;0.431597
9063.000000;0.432002
9062.000000;0.432593
9061.000000;0.433247
9060.000000;0.433652
9059.000000;0.433597
9058.000000;0.433190
9057.000000;0.432753
9056.000000;0.432584
9055.000000;0.432837
9054.000000;0.433505
9053.000000;0.434381
