Criado como novo conjunto de dados;"0307_DANIEL.spp","68585.6 Secs"
cm-1;Abs
10000.000000;0.599415
9999.000000;0.599084
9998.000000;0.598301
9997.000000;0.597214
9996.000000;0.595977
9995.000000;0.594691
9994.000000;0.593516
9993.000000;0.592636
9992.000000;0.592078
9991.000000;0.591658
9990.000000;0.591127
9989.000000;0.590320
9988.000000;0.589217
9987.000000;0.587972
9986.000000;0.586872
9985.000000;0.586142
9984.000000;0.585745
9983.000000;0.585435
9982.000000;0.585009
9981.000000;0.584426
9980.000000;0.583730
9979.000000;0.582959
9978.000000;0.582128
9977.000000;0.581233
9976.000000;0.580259
9975.000000;0.579253
9974.000000;0.578320
9973.000000;0.577488
9972.000000;0.576636
9971.000000;0.575665
9970.000000;0.574673
9969.000000;0.573810
9968.000000;0.573034
9967.000000;0.572191
9966.000000;0.571294
9965.000000;0.570523
9964.000000;0.569916
9963.000000;0.569279
9962.000000;0.568450
9961.000000;0.567493
9960.000000;0.566544
9959.000000;0.565637
9958.000000;0.564774
9957.000000;0.564017
9956.000000;0.563401
9955.000000;0.562841
9954.000000;0.562237
9953.000000;0.561556
9952.000000;0.560750
9951.000000;0.559732
9950.000000;0.558546
9949.000000;0.557469
9948.000000;0.556770
9947.000000;0.556390
9946.000000;0.555971
9945.000000;0.555178
9944.000000;0.553926
9943.000000;0.552387
9942.000000;0.550861
9941.000000;0.549615
9940.000000;0.548718
9939.000000;0.548006
9938.000000;0.547255
9937.000000;0.546349
9936.000000;0.545275
9935.000000;0.544063
9934.000000;0.542846
9933.000000;0.541872
9932.000000;0.541297
9931.000000;0.540980
9930.000000;0.540588
9929.000000;0.539917
9928.000000;0.538995
9927.000000;0.537920
9926.000000;0.536734
9925.000000;0.535488
9924.000000;0.534305
9923.000000;0.533304
9922.000000;0.532516
9921.000000;0.531894
9920.000000;0.531340
9919.000000;0.530682
9918.000000;0.529723
9917.000000;0.528369
9916.000000;0.526725
9915.000000;0.525041
9914.000000;0.523584
9913.000000;0.522529
9912.000000;0.521881
9911.000000;0.521476
9910.000000;0.521100
9909.000000;0.520615
9908.000000;0.519943
9907.000000;0.519001
9906.000000;0.517796
9905.000000;0.516575
9904.000000;0.515692
9903.000000;0.515241
9902.000000;0.514878
9901.000000;0.514107
9900.000000;0.512718
9899.000000;0.510914
9898.000000;0.509113
9897.000000;0.507699
9896.000000;0.506828
9895.000000;0.506327
9894.000000;0.505808
9893.000000;0.505011
9892.000000;0.504015
9891.000000;0.503039
9890.000000;0.502095
9889.000000;0.500991
9888.000000;0.499667
9887.000000;0.498331
9886.000000;0.497202
9885.000000;0.496263
9884.000000;0.495346
9883.000000;0.494365
9882.000000;0.493377
9881.000000;0.492482
9880.000000;0.491756
9879.000000;0.491181
9878.000000;0.490550
9877.000000;0.489542
9876.000000;0.488040
9875.000000;0.486352
9874.000000;0.484953
9873.000000;0.484009
9872.000000;0.483263
9871.000000;0.482401
9870.000000;0.481359
9869.000000;0.480237
9868.000000;0.479076
9867.000000;0.477866
9866.000000;0.476673
9865.000000;0.475608
9864.000000;0.474672
9863.000000;0.473724
9862.000000;0.472633
9861.000000;0.471390
9860.000000;0.470093
9859.000000;0.468876
9858.000000;0.467840
9857.000000;0.466979
9856.000000;0.466146
9855.000000;0.465173
9854.000000;0.464053
9853.000000;0.462955
9852.000000;0.462021
9851.000000;0.461174
9850.000000;0.460182
9849.000000;0.458893
9848.000000;0.457371
9847.000000;0.455809
9846.000000;0.454378
9845.000000;0.453172
9844.000000;0.452217
9843.000000;0.451428
9842.000000;0.450576
9841.000000;0.449391
9840.000000;0.447799
9839.000000;0.446046
9838.000000;0.444520
9837.000000;0.443435
9836.000000;0.442715
9835.000000;0.442148
9834.000000;0.441597
9833.000000;0.441029
9832.000000;0.440392
9831.000000;0.439541
9830.000000;0.438280
9829.000000;0.436522
9828.000000;0.434456
9827.000000;0.432518
9826.000000;0.431087
9825.000000;0.430145
9824.000000;0.429314
9823.000000;0.428289
9822.000000;0.427162
9821.000000;0.426207
9820.000000;0.425414
9819.000000;0.424428
9818.000000;0.422971
9817.000000;0.421200
9816.000000;0.419537
9815.000000;0.418246
9814.000000;0.417259
9813.000000;0.416360
9812.000000;0.415403
9811.000000;0.414331
9810.000000;0.413107
9809.000000;0.411736
9808.000000;0.410318
9807.000000;0.409000
9806.000000;0.407814
9805.000000;0.406610
9804.000000;0.405225
9803.000000;0.403714
9802.000000;0.402345
9801.000000;0.401309
9800.000000;0.400460
9799.000000;0.399439
9798.000000;0.398054
9797.000000;0.396504
9796.000000;0.395184
9795.000000;0.394301
9794.000000;0.393679
9793.000000;0.392908
9792.000000;0.391681
9791.000000;0.390052
9790.000000;0.388388
9789.000000;0.387049
9788.000000;0.386074
9787.000000;0.385182
9786.000000;0.384063
9785.000000;0.382645
9784.000000;0.381058
9783.000000;0.379435
9782.000000;0.377808
9781.000000;0.376174
9780.000000;0.374585
9779.000000;0.373141
9778.000000;0.371918
9777.000000;0.370877
9776.000000;0.369832
9775.000000;0.368550
9774.000000;0.366962
9773.000000;0.365291
9772.000000;0.363868
9771.000000;0.362776
9770.000000;0.361736
9769.000000;0.360412
9768.000000;0.358811
9767.000000;0.357270
9766.000000;0.356056
9765.000000;0.355055
9764.000000;0.353906
9763.000000;0.352395
9762.000000;0.350637
9761.000000;0.348907
9760.000000;0.347368
9759.000000;0.345997
9758.000000;0.344712
9757.000000;0.343478
9756.000000;0.342292
9755.000000;0.341166
9754.000000;0.340142
9753.000000;0.339254
9752.000000;0.338413
9751.000000;0.337389
9750.000000;0.336002
9749.000000;0.334329
9748.000000;0.332619
9747.000000;0.330982
9746.000000;0.329287
9745.000000;0.327397
9744.000000;0.325438
9743.000000;0.323699
9742.000000;0.322321
9741.000000;0.321194
9740.000000;0.320140
9739.000000;0.319049
9738.000000;0.317793
9737.000000;0.316172
9736.000000;0.314112
9735.000000;0.311877
9734.000000;0.309914
9733.000000;0.308420
9732.000000;0.307159
9731.000000;0.305750
9730.000000;0.304089
9729.000000;0.302422
9728.000000;0.301072
9727.000000;0.300148
9726.000000;0.299492
9725.000000;0.298805
9724.000000;0.297828
9723.000000;0.296471
9722.000000;0.294815
9721.000000;0.292974
9720.000000;0.290964
9719.000000;0.288769
9718.000000;0.286509
9717.000000;0.284459
9716.000000;0.282810
9715.000000;0.281481
9714.000000;0.280203
9713.000000;0.278776
9712.000000;0.277207
9711.000000;0.275640
9710.000000;0.274224
9709.000000;0.273006
9708.000000;0.271852
9707.000000;0.270499
9706.000000;0.268785
9705.000000;0.266870
9704.000000;0.265136
9703.000000;0.263805
9702.000000;0.262700
9701.000000;0.261434
9700.000000;0.259797
9699.000000;0.257897
9698.000000;0.255979
9697.000000;0.254204
9696.000000;0.252585
9695.000000;0.251029
9694.000000;0.249404
9693.000000;0.247607
9692.000000;0.245636
9691.000000;0.243584
9690.000000;0.241573
9689.000000;0.239708
9688.000000;0.238063
9687.000000;0.236606
9686.000000;0.235139
9685.000000;0.233439
9684.000000;0.231516
9683.000000;0.229662
9682.000000;0.228104
9681.000000;0.226672
9680.000000;0.224949
9679.000000;0.222792
9678.000000;0.220544
9677.000000;0.218627
9676.000000;0.217046
9675.000000;0.215443
9674.000000;0.213612
9673.000000;0.211759
9672.000000;0.210194
9671.000000;0.208906
9670.000000;0.207576
9669.000000;0.205963
9668.000000;0.204134
9667.000000;0.202338
9666.000000;0.200764
9665.000000;0.199428
9664.000000;0.198200
9663.000000;0.196878
9662.000000;0.195295
9661.000000;0.193425
9660.000000;0.191369
9659.000000;0.189231
9658.000000;0.187051
9657.000000;0.184885
9656.000000;0.182837
9655.000000;0.180939
9654.000000;0.179096
9653.000000;0.177230
9652.000000;0.175460
9651.000000;0.173977
9650.000000;0.172739
9649.000000;0.171424
9648.000000;0.169765
9647.000000;0.167828
9646.000000;0.165863
9645.000000;0.163967
9644.000000;0.162015
9643.000000;0.159879
9642.000000;0.157614
9641.000000;0.155383
9640.000000;0.153310
9639.000000;0.151435
9638.000000;0.149738
9637.000000;0.148116
9636.000000;0.146401
9635.000000;0.144497
9634.000000;0.142495
9633.000000;0.140601
9632.000000;0.138914
9631.000000;0.137308
9630.000000;0.135562
9629.000000;0.133576
9628.000000;0.131448
9627.000000;0.129365
9626.000000;0.127430
9625.000000;0.125578
9624.000000;0.123623
9623.000000;0.121409
9622.000000;0.118978
9621.000000;0.116591
9620.000000;0.114523
9619.000000;0.112805
9618.000000;0.111180
9617.000000;0.109385
9616.000000;0.107446
9615.000000;0.105623
9614.000000;0.104047
9613.000000;0.102492
9612.000000;0.100614
9611.000000;0.098365
9610.000000;0.096043
9609.000000;0.093930
9608.000000;0.091985
9607.000000;0.089963
9606.000000;0.087748
9605.000000;0.085443
9604.000000;0.083211
9603.000000;0.081134
9602.000000;0.079228
9601.000000;0.077466
9600.000000;0.075754
9599.000000;0.073967
9598.000000;0.072052
9597.000000;0.070036
9596.000000;0.067931
9595.000000;0.065728
9594.000000;0.063481
9593.000000;0.061301
9592.000000;0.059204
9591.000000;0.057074
9590.000000;0.054845
9589.000000;0.052639
9588.000000;0.050635
9587.000000;0.048877
9586.000000;0.047278
9585.000000;0.045697
9584.000000;0.043947
9583.000000;0.041844
9582.000000;0.039422
9581.000000;0.037027
9580.000000;0.035004
9579.000000;0.033312
9578.000000;0.031609
9577.000000;0.029704
9576.000000;0.027738
9575.000000;0.025874
9574.000000;0.024008
9573.000000;0.021899
9572.000000;0.019494
9571.000000;0.017008
9570.000000;0.014739
9569.000000;0.012836
9568.000000;0.011197
9567.000000;0.009530
9566.000000;0.007603
9565.000000;0.005439
9564.000000;0.003232
9563.000000;0.001078
9562.000000;-0.001082
9561.000000;-0.003282
9560.000000;-0.005448
9559.000000;-0.007550
9558.000000;-0.009690
9557.000000;-0.011937
9556.000000;-0.014195
9555.000000;-0.016334
9554.000000;-0.018343
9553.000000;-0.020278
9552.000000;-0.022136
9551.000000;-0.023890
9550.000000;-0.025591
9549.000000;-0.027338
9548.000000;-0.029185
9547.000000;-0.031136
9546.000000;-0.033148
9545.000000;-0.035095
9544.000000;-0.036846
9543.000000;-0.038461
9542.000000;-0.040211
9541.000000;-0.042288
9540.000000;-0.044602
9539.000000;-0.046948
9538.000000;-0.049262
9537.000000;-0.051578
9536.000000;-0.053824
9535.000000;-0.055871
9534.000000;-0.057707
9533.000000;-0.059413
9532.000000;-0.061012
9531.000000;-0.062512
9530.000000;-0.064068
9529.000000;-0.065904
9528.000000;-0.068016
9527.000000;-0.070103
9526.000000;-0.071841
9525.000000;-0.073177
9524.000000;-0.074344
9523.000000;-0.075663
9522.000000;-0.077294
9521.000000;-0.079112
9520.000000;-0.080863
9519.000000;-0.082480
9518.000000;-0.084174
9517.000000;-0.086108
9516.000000;-0.088114
9515.000000;-0.089908
9514.000000;-0.091468
9513.000000;-0.092981
9512.000000;-0.094513
9511.000000;-0.096000
9510.000000;-0.097529
9509.000000;-0.099288
9508.000000;-0.101153
9507.000000;-0.102674
9506.000000;-0.103656
9505.000000;-0.104527
9504.000000;-0.105893
9503.000000;-0.107858
9502.000000;-0.110012
9501.000000;-0.111975
9500.000000;-0.113718
9499.000000;-0.115388
9498.000000;-0.117004
9497.000000;-0.118394
9496.000000;-0.119353
9495.000000;-0.119902
9494.000000;-0.120396
9493.000000;-0.121303
9492.000000;-0.122763
9491.000000;-0.124416
9490.000000;-0.125773
9489.000000;-0.126701
9488.000000;-0.127443
9487.000000;-0.128254
9486.000000;-0.129173
9485.000000;-0.130148
9484.000000;-0.131217
9483.000000;-0.132465
9482.000000;-0.133873
9481.000000;-0.135266
9480.000000;-0.136418
9479.000000;-0.137212
9478.000000;-0.137737
9477.000000;-0.138231
9476.000000;-0.138912
9475.000000;-0.139837
9474.000000;-0.140880
9473.000000;-0.141821
9472.000000;-0.142470
9471.000000;-0.142802
9470.000000;-0.143013
9469.000000;-0.143365
9468.000000;-0.143962
9467.000000;-0.144672
9466.000000;-0.145300
9465.000000;-0.145760
9464.000000;-0.146102
9463.000000;-0.146457
9462.000000;-0.146969
9461.000000;-0.147686
9460.000000;-0.148436
9459.000000;-0.148928
9458.000000;-0.149056
9457.000000;-0.149030
9456.000000;-0.149146
9455.000000;-0.149463
9454.000000;-0.149778
9453.000000;-0.149843
9452.000000;-0.149598
9451.000000;-0.149253
9450.000000;-0.149180
9449.000000;-0.149596
9448.000000;-0.150256
9447.000000;-0.150586
9446.000000;-0.150225
9445.000000;-0.149411
9444.000000;-0.148734
9443.000000;-0.148602
9442.000000;-0.149006
9441.000000;-0.149627
9440.000000;-0.150027
9439.000000;-0.149868
9438.000000;-0.149202
9437.000000;-0.148510
9436.000000;-0.148252
9435.000000;-0.148350
9434.000000;-0.148285
9433.000000;-0.147708
9432.000000;-0.146761
9431.000000;-0.145829
9430.000000;-0.145158
9429.000000;-0.144780
9428.000000;-0.144577
9427.000000;-0.144315
9426.000000;-0.143720
9425.000000;-0.142687
9424.000000;-0.141365
9423.000000;-0.140028
9422.000000;-0.138899
9421.000000;-0.138111
9420.000000;-0.137669
9419.000000;-0.137395
9418.000000;-0.137026
9417.000000;-0.136445
9416.000000;-0.135746
9415.000000;-0.135040
9414.000000;-0.134340
9413.000000;-0.133660
9412.000000;-0.133085
9411.000000;-0.132610
9410.000000;-0.132033
9409.000000;-0.131154
9408.000000;-0.130024
9407.000000;-0.128872
9406.000000;-0.127809
9405.000000;-0.126743
9404.000000;-0.125556
9403.000000;-0.124292
9402.000000;-0.123122
9401.000000;-0.122174
9400.000000;-0.121407
9399.000000;-0.120628
9398.000000;-0.119682
9397.000000;-0.118604
9396.000000;-0.117540
9395.000000;-0.116521
9394.000000;-0.115420
9393.000000;-0.114171
9392.000000;-0.112916
9391.000000;-0.111820
9390.000000;-0.110836
9389.000000;-0.109755
9388.000000;-0.108437
9387.000000;-0.106887
9386.000000;-0.105192
9385.000000;-0.103491
9384.000000;-0.101975
9383.000000;-0.100768
9382.000000;-0.099794
9381.000000;-0.098863
9380.000000;-0.097858
9379.000000;-0.096752
9378.000000;-0.095489
9377.000000;-0.094009
9376.000000;-0.092397
9375.000000;-0.090837
9374.000000;-0.089376
9373.000000;-0.087880
9372.000000;-0.086295
9371.000000;-0.084796
9370.000000;-0.083578
9369.000000;-0.082604
9368.000000;-0.081667
9367.000000;-0.080642
9366.000000;-0.079555
9365.000000;-0.078459
9364.000000;-0.077357
9363.000000;-0.076240
9362.000000;-0.075086
9361.000000;-0.073813
9360.000000;-0.072329
9359.000000;-0.070641
9358.000000;-0.068893
9357.000000;-0.067266
9356.000000;-0.065840
9355.000000;-0.064505
9354.000000;-0.063010
9353.000000;-0.061204
9352.000000;-0.059283
9351.000000;-0.057703
9350.000000;-0.056693
9349.000000;-0.055946
9348.000000;-0.054931
9347.000000;-0.053481
9346.000000;-0.051889
9345.000000;-0.050428
9344.000000;-0.048999
9343.000000;-0.047340
9342.000000;-0.045403
9341.000000;-0.043386
9340.000000;-0.041513
9339.000000;-0.039910
9338.000000;-0.038631
9337.000000;-0.037642
9336.000000;-0.036788
9335.000000;-0.035900
9334.000000;-0.034915
9333.000000;-0.033855
9332.000000;-0.032723
9331.000000;-0.031503
9330.000000;-0.030216
9329.000000;-0.028886
9328.000000;-0.027485
9327.000000;-0.025975
9326.000000;-0.024390
9325.000000;-0.022796
9324.000000;-0.021231
9323.000000;-0.019726
9322.000000;-0.018346
9321.000000;-0.017112
9320.000000;-0.015943
9319.000000;-0.014767
9318.000000;-0.013610
9317.000000;-0.012479
9316.000000;-0.011256
9315.000000;-0.009851
9314.000000;-0.008399
9313.000000;-0.007117
9312.000000;-0.006010
9311.000000;-0.004870
9310.000000;-0.003556
9309.000000;-0.002071
9308.000000;-0.000426
9307.000000;0.001353
9306.000000;0.003058
9305.000000;0.004422
9304.000000;0.005502
9303.000000;0.006698
9302.000000;0.008233
9301.000000;0.009810
9300.000000;0.010983
9299.000000;0.011736
9298.000000;0.012523
9297.000000;0.013784
9296.000000;0.015571
9295.000000;0.017571
9294.000000;0.019360
9293.000000;0.020675
9292.000000;0.021583
9291.000000;0.022369
9290.000000;0.023254
9289.000000;0.024248
9288.000000;0.025304
9287.000000;0.026448
9286.000000;0.027687
9285.000000;0.028963
9284.000000;0.030313
9283.000000;0.031905
9282.000000;0.033724
9281.000000;0.035372
9280.000000;0.036421
9279.000000;0.036931
9278.000000;0.037415
9277.000000;0.038307
9276.000000;0.039662
9275.000000;0.041317
9274.000000;0.043085
9273.000000;0.044751
9272.000000;0.046103
9271.000000;0.047103
9270.000000;0.047950
9269.000000;0.048904
9268.000000;0.050072
9267.000000;0.051366
9266.000000;0.052564
9265.000000;0.053443
9264.000000;0.054006
9263.000000;0.054580
9262.000000;0.055582
9261.000000;0.057124
9260.000000;0.058954
9259.000000;0.060749
9258.000000;0.062347
9257.000000;0.063706
9256.000000;0.064839
9255.000000;0.065853
9254.000000;0.066877
9253.000000;0.067903
9252.000000;0.068829
9251.000000;0.069733
9250.000000;0.070880
9249.000000;0.072349
9248.000000;0.073811
9247.000000;0.074900
9246.000000;0.075683
9245.000000;0.076536
9244.000000;0.077616
9243.000000;0.078692
9242.000000;0.079505
9241.000000;0.080094
9240.000000;0.080669
9239.000000;0.081345
9238.000000;0.082118
9237.000000;0.082998
9236.000000;0.084014
9235.000000;0.085111
9234.000000;0.086168
9233.000000;0.087153
9232.000000;0.088168
9231.000000;0.089309
9230.000000;0.090538
9229.000000;0.091733
9228.000000;0.092831
9227.000000;0.093870
9226.000000;0.094913
9225.000000;0.095978
9224.000000;0.097051
9223.000000;0.098107
9222.000000;0.099089
9221.000000;0.099915
9220.000000;0.100552
9219.000000;0.101104
9218.000000;0.101763
9217.000000;0.102664
9216.000000;0.103781
9215.000000;0.104951
9214.000000;0.106003
9213.000000;0.106892
9212.000000;0.107740
9211.000000;0.108738
9210.000000;0.109955
9209.000000;0.111231
9208.000000;0.112316
9207.000000;0.113127
9206.000000;0.113838
9205.000000;0.114690
9204.000000;0.115728
9203.000000;0.116764
9202.000000;0.117582
9201.000000;0.118169
9200.000000;0.118738
9199.000000;0.119538
9198.000000;0.120636
9197.000000;0.121859
9196.000000;0.122937
9195.000000;0.123716
9194.000000;0.124274
9193.000000;0.124847
9192.000000;0.125642
9191.000000;0.126674
9190.000000;0.127780
9189.000000;0.128773
9188.000000;0.129584
9187.000000;0.130268
9186.000000;0.130945
9185.000000;0.131757
9184.000000;0.132830
9183.000000;0.134140
9182.000000;0.135424
9181.000000;0.136338
9180.000000;0.136778
9179.000000;0.136991
9178.000000;0.137321
9177.000000;0.137891
9176.000000;0.138608
9175.000000;0.139403
9174.000000;0.140312
9173.000000;0.141348
9172.000000;0.142407
9171.000000;0.143389
9170.000000;0.144319
9169.000000;0.145285
9168.000000;0.146272
9167.000000;0.147154
9166.000000;0.147841
9165.000000;0.148395
9164.000000;0.148978
9163.000000;0.149732
9162.000000;0.150685
9161.000000;0.151729
9160.000000;0.152673
9159.000000;0.153365
9158.000000;0.153814
9157.000000;0.154174
9156.000000;0.154578
9155.000000;0.155012
9154.000000;0.155376
9153.000000;0.155657
9152.000000;0.155967
9151.000000;0.156411
9150.000000;0.157005
9149.000000;0.157742
9148.000000;0.158649
9147.000000;0.159707
9146.000000;0.160770
9145.000000;0.161696
9144.000000;0.162512
9143.000000;0.163349
9142.000000;0.164208
9141.000000;0.164908
9140.000000;0.165328
9139.000000;0.165588
9138.000000;0.165949
9137.000000;0.166559
9136.000000;0.167371
9135.000000;0.168230
9134.000000;0.168997
9133.000000;0.169616
9132.000000;0.170155
9131.000000;0.170788
9130.000000;0.171661
9129.000000;0.172743
9128.000000;0.173824
9127.000000;0.174666
9126.000000;0.175179
9125.000000;0.175497
9124.000000;0.175896
9123.000000;0.176577
9122.000000;0.177467
9121.000000;0.178257
9120.000000;0.178681
9119.000000;0.178772
9118.000000;0.178837
9117.000000;0.179195
9116.000000;0.179917
9115.000000;0.180776
9114.000000;0.181429
9113.000000;0.181718
9112.000000;0.181793
9111.000000;0.181950
9110.000000;0.182347
9109.000000;0.182945
9108.000000;0.183680
9107.000000;0.184547
9106.000000;0.185464
9105.000000;0.186205
9104.000000;0.186633
9103.000000;0.186914
9102.000000;0.187364
9101.000000;0.188092
9100.000000;0.188936
9099.000000;0.189718
9098.000000;0.190428
9097.000000;0.191090
9096.000000;0.191639
9095.000000;0.192025
9094.000000;0.192346
9093.000000;0.192745
9092.000000;0.193235
9091.000000;0.193733
9090.000000;0.194259
9089.000000;0.194940
9088.000000;0.195789
9087.000000;0.196575
9086.000000;0.197028
9085.000000;0.197139
9084.000000;0.197171
9083.000000;0.197379
9082.000000;0.197776
9081.000000;0.198192
9080.000000;0.198503
9079.000000;0.198751
9078.000000;0.199069
9077.000000;0.199549
9076.000000;0.200193
9075.000000;0.200940
9074.000000;0.201711
9073.000000;0.202425
9072.000000;0.203019
9071.000000;0.203476
9070.000000;0.203825
9069.000000;0.204098
9068.000000;0.204290
9067.000000;0.204386
9066.000000;0.204446
9065.000000;0.204620
