Criado como novo conjunto de dados;"0307_DANIEL.spp","30243.6 Secs"
cm-1;Abs
10000.000000;1.205164
9999.000000;1.203853
9998.000000;1.202815
9997.000000;1.201821
9996.000000;1.200661
9995.000000;1.199264
9994.000000;1.197634
9993.000000;1.195841
9992.000000;1.194055
9991.000000;1.192420
9990.000000;1.190968
9989.000000;1.189700
9988.000000;1.188652
9987.000000;1.187769
9986.000000;1.186838
9985.000000;1.185655
9984.000000;1.184199
9983.000000;1.182586
9982.000000;1.180981
9981.000000;1.179599
9980.000000;1.178572
9979.000000;1.177715
9978.000000;1.176668
9977.000000;1.175404
9976.000000;1.174326
9975.000000;1.173616
9974.000000;1.172816
9973.000000;1.171391
9972.000000;1.169480
9971.000000;1.167702
9970.000000;1.166354
9969.000000;1.165207
9968.000000;1.164040
9967.000000;1.162919
9966.000000;1.161883
9965.000000;1.160733
9964.000000;1.159302
9963.000000;1.157691
9962.000000;1.156097
9961.000000;1.154612
9960.000000;1.153300
9959.000000;1.152275
9958.000000;1.151583
9957.000000;1.151137
9956.000000;1.150812
9955.000000;1.150441
9954.000000;1.149705
9953.000000;1.148272
9952.000000;1.146198
9951.000000;1.144032
9950.000000;1.142353
9949.000000;1.141265
9948.000000;1.140427
9947.000000;1.139456
9946.000000;1.138203
9945.000000;1.136738
9944.000000;1.135221
9943.000000;1.133795
9942.000000;1.132508
9941.000000;1.131296
9940.000000;1.130086
9939.000000;1.128919
9938.000000;1.127907
9937.000000;1.127008
9936.000000;1.125878
9935.000000;1.124095
9934.000000;1.121644
9933.000000;1.119120
9932.000000;1.117283
9931.000000;1.116404
9930.000000;1.116102
9929.000000;1.115787
9928.000000;1.115102
9927.000000;1.113944
9926.000000;1.112325
9925.000000;1.110392
9924.000000;1.108442
9923.000000;1.106704
9922.000000;1.105126
9921.000000;1.103495
9920.000000;1.101717
9919.000000;1.099902
9918.000000;1.098262
9917.000000;1.097012
9916.000000;1.096239
9915.000000;1.095744
9914.000000;1.095092
9913.000000;1.093988
9912.000000;1.092548
9911.000000;1.091078
9910.000000;1.089666
9909.000000;1.088158
9908.000000;1.086501
9907.000000;1.084940
9906.000000;1.083818
9905.000000;1.083240
9904.000000;1.082919
9903.000000;1.082333
9902.000000;1.081167
9901.000000;1.079658
9900.000000;1.078411
9899.000000;1.077714
9898.000000;1.077133
9897.000000;1.075952
9896.000000;1.073966
9895.000000;1.071667
9894.000000;1.069650
9893.000000;1.068062
9892.000000;1.066658
9891.000000;1.065220
9890.000000;1.063751
9889.000000;1.062305
9888.000000;1.060806
9887.000000;1.059186
9886.000000;1.057657
9885.000000;1.056700
9884.000000;1.056578
9883.000000;1.056900
9882.000000;1.056794
9881.000000;1.055629
9880.000000;1.053517
9879.000000;1.051104
9878.000000;1.048975
9877.000000;1.047309
9876.000000;1.045923
9875.000000;1.044486
9874.000000;1.042743
9873.000000;1.040671
9872.000000;1.038484
9871.000000;1.036475
9870.000000;1.034856
9869.000000;1.033658
9868.000000;1.032689
9867.000000;1.031652
9866.000000;1.030433
9865.000000;1.029200
9864.000000;1.028094
9863.000000;1.026935
9862.000000;1.025490
9861.000000;1.023926
9860.000000;1.022639
9859.000000;1.021628
9858.000000;1.020425
9857.000000;1.018767
9856.000000;1.016956
9855.000000;1.015351
9854.000000;1.013852
9853.000000;1.012153
9852.000000;1.010253
9851.000000;1.008431
9850.000000;1.006904
9849.000000;1.005699
9848.000000;1.004666
9847.000000;1.003446
9846.000000;1.001718
9845.000000;0.999702
9844.000000;0.998114
9843.000000;0.997299
9842.000000;0.996653
9841.000000;0.995325
9840.000000;0.993287
9839.000000;0.991278
9838.000000;0.989813
9837.000000;0.988702
9836.000000;0.987485
9835.000000;0.985919
9834.000000;0.984027
9833.000000;0.982024
9832.000000;0.980266
9831.000000;0.978978
9830.000000;0.977969
9829.000000;0.976837
9828.000000;0.975448
9827.000000;0.973980
9826.000000;0.972542
9825.000000;0.971068
9824.000000;0.969547
9823.000000;0.968049
9822.000000;0.966479
9821.000000;0.964651
9820.000000;0.962620
9819.000000;0.960621
9818.000000;0.958631
9817.000000;0.956400
9816.000000;0.954015
9815.000000;0.952037
9814.000000;0.950836
9813.000000;0.950093
9812.000000;0.949192
9811.000000;0.947875
9810.000000;0.946277
9809.000000;0.944571
9808.000000;0.942900
9807.000000;0.941511
9806.000000;0.940550
9805.000000;0.939717
9804.000000;0.938422
9803.000000;0.936393
9802.000000;0.933994
9801.000000;0.931848
9800.000000;0.930285
9799.000000;0.929173
9798.000000;0.928155
9797.000000;0.926920
9796.000000;0.925342
9795.000000;0.923508
9794.000000;0.921652
9793.000000;0.919948
9792.000000;0.918302
9791.000000;0.916453
9790.000000;0.914371
9789.000000;0.912465
9788.000000;0.911167
9787.000000;0.910304
9786.000000;0.909158
9785.000000;0.907312
9784.000000;0.905220
9783.000000;0.903676
9782.000000;0.902829
9781.000000;0.902007
9780.000000;0.900472
9779.000000;0.898077
9778.000000;0.895172
9777.000000;0.892214
9776.000000;0.889624
9775.000000;0.887730
9774.000000;0.886543
9773.000000;0.885626
9772.000000;0.884397
9771.000000;0.882633
9770.000000;0.880596
9769.000000;0.878725
9768.000000;0.877253
9767.000000;0.876086
9766.000000;0.874911
9765.000000;0.873427
9764.000000;0.871597
9763.000000;0.869697
9762.000000;0.868062
9761.000000;0.866699
9760.000000;0.865220
9759.000000;0.863228
9758.000000;0.860782
9757.000000;0.858371
9756.000000;0.856409
9755.000000;0.854832
9754.000000;0.853262
9753.000000;0.851464
9752.000000;0.849506
9751.000000;0.847520
9750.000000;0.845525
9749.000000;0.843514
9748.000000;0.841529
9747.000000;0.839547
9746.000000;0.837434
9745.000000;0.835139
9744.000000;0.832845
9743.000000;0.830826
9742.000000;0.829204
9741.000000;0.827908
9740.000000;0.826777
9739.000000;0.825644
9738.000000;0.824375
9737.000000;0.822945
9736.000000;0.821419
9735.000000;0.819820
9734.000000;0.818088
9733.000000;0.816209
9732.000000;0.814280
9731.000000;0.812378
9730.000000;0.810475
9729.000000;0.808539
9728.000000;0.806594
9727.000000;0.804632
9726.000000;0.802635
9725.000000;0.800767
9724.000000;0.799338
9723.000000;0.798390
9722.000000;0.797476
9721.000000;0.796047
9720.000000;0.793953
9719.000000;0.791422
9718.000000;0.788730
9717.000000;0.786100
9716.000000;0.783811
9715.000000;0.782065
9714.000000;0.780754
9713.000000;0.779542
9712.000000;0.778150
9711.000000;0.776450
9710.000000;0.774399
9709.000000;0.772157
9708.000000;0.770139
9707.000000;0.768628
9706.000000;0.767338
9705.000000;0.765642
9704.000000;0.763295
9703.000000;0.760682
9702.000000;0.758289
9701.000000;0.756225
9700.000000;0.754344
9699.000000;0.752568
9698.000000;0.750905
9697.000000;0.749295
9696.000000;0.747611
9695.000000;0.745745
9694.000000;0.743625
9693.000000;0.741276
9692.000000;0.738894
9691.000000;0.736724
9690.000000;0.734788
9689.000000;0.732837
9688.000000;0.730650
9687.000000;0.728270
9686.000000;0.725885
9685.000000;0.723614
9684.000000;0.721513
9683.000000;0.719660
9682.000000;0.718073
9681.000000;0.716605
9680.000000;0.715034
9679.000000;0.713250
9678.000000;0.711301
9677.000000;0.709277
9676.000000;0.707199
9675.000000;0.705003
9674.000000;0.702627
9673.000000;0.700123
9672.000000;0.697675
9671.000000;0.695428
9670.000000;0.693326
9669.000000;0.691200
9668.000000;0.689001
9667.000000;0.686803
9666.000000;0.684582
9665.000000;0.682185
9664.000000;0.679555
9663.000000;0.676862
9662.000000;0.674333
9661.000000;0.672092
9660.000000;0.670237
9659.000000;0.668853
9658.000000;0.667749
9657.000000;0.666357
9656.000000;0.664196
9655.000000;0.661425
9654.000000;0.658714
9653.000000;0.656524
9652.000000;0.654722
9651.000000;0.652934
9650.000000;0.651005
9649.000000;0.649005
9648.000000;0.646970
9647.000000;0.644896
9646.000000;0.642867
9645.000000;0.640963
9644.000000;0.639031
9643.000000;0.636754
9642.000000;0.634027
9641.000000;0.631138
9640.000000;0.628521
9639.000000;0.626434
9638.000000;0.624876
9637.000000;0.623622
9636.000000;0.622265
9635.000000;0.620415
9634.000000;0.618008
9633.000000;0.615352
9632.000000;0.612770
9631.000000;0.610297
9630.000000;0.607811
9629.000000;0.605304
9628.000000;0.602844
9627.000000;0.600423
9626.000000;0.598079
9625.000000;0.596031
9624.000000;0.594394
9623.000000;0.592812
9622.000000;0.590745
9621.000000;0.588159
9620.000000;0.585571
9619.000000;0.583296
9618.000000;0.581047
9617.000000;0.578482
9616.000000;0.575831
9615.000000;0.573590
9614.000000;0.571787
9613.000000;0.569919
9612.000000;0.567595
9611.000000;0.564914
9610.000000;0.562164
9609.000000;0.559458
9608.000000;0.556780
9607.000000;0.554229
9606.000000;0.552002
9605.000000;0.550154
9604.000000;0.548459
9603.000000;0.546559
9602.000000;0.544286
9601.000000;0.541822
9600.000000;0.539486
9599.000000;0.537331
9598.000000;0.535100
9597.000000;0.532630
9596.000000;0.530165
9595.000000;0.528090
9594.000000;0.526419
9593.000000;0.524735
9592.000000;0.522610
9591.000000;0.519980
9590.000000;0.517111
9589.000000;0.514363
9588.000000;0.511985
9587.000000;0.509986
9586.000000;0.508111
9585.000000;0.506013
9584.000000;0.503530
9583.000000;0.500772
9582.000000;0.497961
9581.000000;0.495259
9580.000000;0.492784
9579.000000;0.490644
9578.000000;0.488829
9577.000000;0.487060
9576.000000;0.484887
9575.000000;0.482058
9574.000000;0.478814
9573.000000;0.475716
9572.000000;0.473123
9571.000000;0.470869
9570.000000;0.468530
9569.000000;0.465966
9568.000000;0.463470
9567.000000;0.461368
9566.000000;0.459635
9565.000000;0.457969
9564.000000;0.456120
9563.000000;0.454024
9562.000000;0.451705
9561.000000;0.449209
9560.000000;0.446650
9559.000000;0.444192
9558.000000;0.441926
9557.000000;0.439767
9556.000000;0.437524
9555.000000;0.435076
9554.000000;0.432479
9553.000000;0.429889
9552.000000;0.427365
9551.000000;0.424817
9550.000000;0.422190
9549.000000;0.419607
9548.000000;0.417197
9547.000000;0.414855
9546.000000;0.412363
9545.000000;0.409754
9544.000000;0.407371
9543.000000;0.405447
9542.000000;0.403783
9541.000000;0.401940
9540.000000;0.399671
9539.000000;0.397108
9538.000000;0.394608
9537.000000;0.392482
9536.000000;0.390770
9535.000000;0.389212
9534.000000;0.387506
9533.000000;0.385609
9532.000000;0.383697
9531.000000;0.381834
9530.000000;0.379847
9529.000000;0.377610
9528.000000;0.375286
9527.000000;0.373155
9526.000000;0.371310
9525.000000;0.369593
9524.000000;0.367736
9523.000000;0.365505
9522.000000;0.362873
9521.000000;0.360132
9520.000000;0.357670
9519.000000;0.355555
9518.000000;0.353506
9517.000000;0.351367
9516.000000;0.349368
9515.000000;0.347754
9514.000000;0.346380
9513.000000;0.344915
9512.000000;0.343266
9511.000000;0.341540
9510.000000;0.339729
9509.000000;0.337736
9508.000000;0.335663
9507.000000;0.333744
9506.000000;0.331962
9505.000000;0.329983
9504.000000;0.327593
9503.000000;0.324999
9502.000000;0.322659
9501.000000;0.320920
9500.000000;0.319816
9499.000000;0.319024
9498.000000;0.318010
9497.000000;0.316377
9496.000000;0.314194
9495.000000;0.311941
9494.000000;0.310101
9493.000000;0.308842
9492.000000;0.307977
9491.000000;0.307094
9490.000000;0.305778
9489.000000;0.303948
9488.000000;0.302028
9487.000000;0.300603
9486.000000;0.299823
9485.000000;0.299222
9484.000000;0.298213
9483.000000;0.296686
9482.000000;0.295081
9481.000000;0.293949
9480.000000;0.293469
9479.000000;0.293304
9478.000000;0.292859
9477.000000;0.291733
9476.000000;0.289995
9475.000000;0.288062
9474.000000;0.286365
9473.000000;0.285120
9472.000000;0.284281
9471.000000;0.283601
9470.000000;0.282794
9469.000000;0.281751
9468.000000;0.280618
9467.000000;0.279609
9466.000000;0.278789
9465.000000;0.278091
9464.000000;0.277473
9463.000000;0.276945
9462.000000;0.276514
9461.000000;0.276211
9460.000000;0.276078
9459.000000;0.276022
9458.000000;0.275739
9457.000000;0.274990
9456.000000;0.273935
9455.000000;0.273019
9454.000000;0.272494
9453.000000;0.272215
9452.000000;0.271891
9451.000000;0.271403
9450.000000;0.270818
9449.000000;0.270228
9448.000000;0.269665
9447.000000;0.269135
9446.000000;0.268712
9445.000000;0.268573
9444.000000;0.268848
9443.000000;0.269345
9442.000000;0.269579
9441.000000;0.269251
9440.000000;0.268645
9439.000000;0.268310
9438.000000;0.268410
9437.000000;0.268627
9436.000000;0.268693
9435.000000;0.268720
9434.000000;0.268941
9433.000000;0.269399
9432.000000;0.270014
9431.000000;0.270723
9430.000000;0.271373
9429.000000;0.271693
9428.000000;0.271588
9427.000000;0.271327
9426.000000;0.271279
9425.000000;0.271567
9424.000000;0.272127
9423.000000;0.272906
9422.000000;0.273757
9421.000000;0.274287
9420.000000;0.274192
9419.000000;0.273734
9418.000000;0.273578
9417.000000;0.274057
9416.000000;0.274835
9415.000000;0.275410
9414.000000;0.275750
9413.000000;0.276238
9412.000000;0.277120
9411.000000;0.278196
9410.000000;0.279050
9409.000000;0.279458
9408.000000;0.279558
9407.000000;0.279704
9406.000000;0.280165
9405.000000;0.280908
9404.000000;0.281689
9403.000000;0.282373
9402.000000;0.283128
9401.000000;0.284225
9400.000000;0.285671
9399.000000;0.287129
9398.000000;0.288252
9397.000000;0.289037
9396.000000;0.289806
9395.000000;0.290869
9394.000000;0.292243
9393.000000;0.293649
9392.000000;0.294735
9391.000000;0.295322
9390.000000;0.295548
9389.000000;0.295798
9388.000000;0.296449
9387.000000;0.297553
9386.000000;0.298769
9385.000000;0.299668
9384.000000;0.300160
9383.000000;0.300594
9382.000000;0.301405
9381.000000;0.302688
9380.000000;0.304166
9379.000000;0.305546
9378.000000;0.306819
9377.000000;0.308158
9376.000000;0.309597
9375.000000;0.310962
9374.000000;0.312116
9373.000000;0.313142
9372.000000;0.314187
9371.000000;0.315231
9370.000000;0.316160
9369.000000;0.317028
9368.000000;0.318089
9367.000000;0.319480
9366.000000;0.321003
9365.000000;0.322324
9364.000000;0.323349
9363.000000;0.324325
9362.000000;0.325540
9361.000000;0.327009
9360.000000;0.328452
9359.000000;0.329573
9358.000000;0.330323
9357.000000;0.330920
9356.000000;0.331633
9355.000000;0.332580
9354.000000;0.333720
9353.000000;0.334971
9352.000000;0.336280
9351.000000;0.337611
9350.000000;0.338955
9349.000000;0.340332
9348.000000;0.341726
9347.000000;0.343061
9346.000000;0.344325
9345.000000;0.345673
9344.000000;0.347256
9343.000000;0.348924
9342.000000;0.350283
9341.000000;0.351147
9340.000000;0.351794
9339.000000;0.352654
9338.000000;0.353818
9337.000000;0.354986
9336.000000;0.355868
9335.000000;0.356533
9334.000000;0.357360
9333.000000;0.358690
9332.000000;0.360491
9331.000000;0.362309
9330.000000;0.363627
9329.000000;0.364353
9328.000000;0.364909
9327.000000;0.365758
9326.000000;0.366960
9325.000000;0.368261
9324.000000;0.369490
9323.000000;0.370680
9322.000000;0.371861
9321.000000;0.372971
9320.000000;0.374014
9319.000000;0.375123
9318.000000;0.376378
9317.000000;0.377664
9316.000000;0.378786
9315.000000;0.379674
9314.000000;0.380412
9313.000000;0.381160
9312.000000;0.382070
9311.000000;0.383214
9310.000000;0.384496
9309.000000;0.385716
9308.000000;0.386766
9307.000000;0.387762
9306.000000;0.388907
9305.000000;0.390262
9304.000000;0.391697
9303.000000;0.393061
9302.000000;0.394347
9301.000000;0.395655
9300.000000;0.396998
9299.000000;0.398202
9298.000000;0.399046
9297.000000;0.399522
9296.000000;0.399909
9295.000000;0.400541
9294.000000;0.401517
9293.000000;0.402654
9292.000000;0.403714
9291.000000;0.404648
9290.000000;0.405618
9289.000000;0.406783
9288.000000;0.408102
9287.000000;0.409359
9286.000000;0.410441
9285.000000;0.411556
9284.000000;0.413030
9283.000000;0.414880
9282.000000;0.416685
9281.000000;0.418004
9280.000000;0.418856
9279.000000;0.419658
9278.000000;0.420742
9277.000000;0.422015
9276.000000;0.423092
9275.000000;0.423678
9274.000000;0.423827
9273.000000;0.423907
9272.000000;0.424350
9271.000000;0.425360
9270.000000;0.426819
9269.000000;0.428409
9268.000000;0.429808
9267.000000;0.430829
9266.000000;0.431500
9265.000000;0.432061
9264.000000;0.432769
9263.000000;0.433644
9262.000000;0.434502
9261.000000;0.435254
9260.000000;0.436033
9259.000000;0.436953
9258.000000;0.437916
9257.000000;0.438828
9256.000000;0.439812
9255.000000;0.440994
9254.000000;0.442191
9253.000000;0.443104
9252.000000;0.443771
9251.000000;0.444558
9250.000000;0.445660
9249.000000;0.446861
9248.000000;0.447855
9247.000000;0.448594
9246.000000;0.449237
9245.000000;0.449945
9244.000000;0.450821
9243.000000;0.451881
9242.000000;0.452984
9241.000000;0.453910
9240.000000;0.454602
9239.000000;0.455224
9238.000000;0.455901
9237.000000;0.456585
9236.000000;0.457249
9235.000000;0.458051
9234.000000;0.459144
9233.000000;0.460411
9232.000000;0.461564
9231.000000;0.462426
9230.000000;0.463026
9229.000000;0.463475
9228.000000;0.463898
9227.000000;0.464427
9226.000000;0.465144
9225.000000;0.466053
9224.000000;0.467161
9223.000000;0.468517
9222.000000;0.470068
9221.000000;0.471562
9220.000000;0.472737
9219.000000;0.473528
9218.000000;0.474022
9217.000000;0.474308
9216.000000;0.474528
9215.000000;0.474953
9214.000000;0.475776
9213.000000;0.476841
9212.000000;0.477764
9211.000000;0.478340
9210.000000;0.478670
9209.000000;0.478902
9208.000000;0.479082
9207.000000;0.479304
9206.000000;0.479780
9205.000000;0.480605
9204.000000;0.481605
9203.000000;0.482546
9202.000000;0.483408
9201.000000;0.484292
9200.000000;0.485184
9199.000000;0.485971
9198.000000;0.486669
9197.000000;0.487443
9196.000000;0.488372
9195.000000;0.489335
9194.000000;0.490175
9193.000000;0.490870
9192.000000;0.491468
9191.000000;0.491953
9190.000000;0.492276
9189.000000;0.492509
9188.000000;0.492848
9187.000000;0.493423
9186.000000;0.494136
9185.000000;0.494758
9184.000000;0.495205
9183.000000;0.495677
9182.000000;0.496472
9181.000000;0.497662
9180.000000;0.499000
9179.000000;0.500158
9178.000000;0.501003
9177.000000;0.501608
9176.000000;0.502063
9175.000000;0.502379
9174.000000;0.502574
9173.000000;0.502749
9172.000000;0.503022
9171.000000;0.503415
9170.000000;0.503849
9169.000000;0.504244
9168.000000;0.504630
9167.000000;0.505135
9166.000000;0.505855
9165.000000;0.506727
9164.000000;0.507555
9163.000000;0.508204
9162.000000;0.508736
9161.000000;0.509319
9160.000000;0.510034
9159.000000;0.510831
9158.000000;0.511607
9157.000000;0.512249
9156.000000;0.512621
9155.000000;0.512660
9154.000000;0.512507
9153.000000;0.512461
9152.000000;0.512738
9151.000000;0.513360
9150.000000;0.514246
9149.000000;0.515288
9148.000000;0.516315
9147.000000;0.517152
9146.000000;0.517824
9145.000000;0.518566
9144.000000;0.519500
9143.000000;0.520419
9142.000000;0.521047
9141.000000;0.521382
9140.000000;0.521608
9139.000000;0.521779
9138.000000;0.521834
9137.000000;0.521897
9136.000000;0.522255
9135.000000;0.522974
9134.000000;0.523738
9133.000000;0.524204
9132.000000;0.524375
9131.000000;0.524538
9130.000000;0.524965
9129.000000;0.525746
9128.000000;0.526780
9127.000000;0.527801
9126.000000;0.528522
9125.000000;0.528876
9124.000000;0.529074
9123.000000;0.529324
9122.000000;0.529601
9121.000000;0.529768
9120.000000;0.529847
9119.000000;0.530015
9118.000000;0.530390
9117.000000;0.530920
9116.000000;0.531456
9115.000000;0.531846
9114.000000;0.532023
9113.000000;0.532125
9112.000000;0.532484
9111.000000;0.533331
9110.000000;0.534507
9109.000000;0.535560
9108.000000;0.536166
9107.000000;0.536366
9106.000000;0.536391
9105.000000;0.536414
9104.000000;0.536503
9103.000000;0.536721
9102.000000;0.537119
9101.000000;0.537659
9100.000000;0.538215
9099.000000;0.538683
9098.000000;0.539060
9097.000000;0.539421
9096.000000;0.539847
9095.000000;0.540392
9094.000000;0.541075
9093.000000;0.541861
9092.000000;0.542633
9091.000000;0.543216
9090.000000;0.543455
9089.000000;0.543312
9088.000000;0.542890
9087.000000;0.542428
9086.000000;0.542238
9085.000000;0.542546
9084.000000;0.543289
9083.000000;0.544093
9082.000000;0.544560
9081.000000;0.544616
9080.000000;0.544532
9079.000000;0.544629
9078.000000;0.545020
9077.000000;0.545625
9076.000000;0.546305
9075.000000;0.546954
9074.000000;0.547511
9073.000000;0.547950
9072.000000;0.548224
9071.000000;0.548248
9070.000000;0.548046
9069.000000;0.547891
9068.000000;0.548130
9067.000000;0.548788
9066.000000;0.549460
9065.000000;0.549713
9064.000000;0.549533
9063.000000;0.549293
9062.000000;0.549357
9061.000000;0.549823
9060.000000;0.550568
9059.000000;0.551392
9058.000000;0.552084
9057.000000;0.552503
9056.000000;0.552683
9055.000000;0.552825
9054.000000;0.553134
9053.000000;0.553636
