Criado como novo conjunto de dados;"0307_DANIEL.spp","12422.6 Secs"
cm-1;Abs
10000.000000;0.810001
9999.000000;0.807931
9998.000000;0.806236
9997.000000;0.805346
9996.000000;0.804943
9995.000000;0.804275
9994.000000;0.802999
9993.000000;0.801449
9992.000000;0.800141
9991.000000;0.799206
9990.000000;0.798435
9989.000000;0.797613
9988.000000;0.796679
9987.000000;0.795656
9986.000000;0.794588
9985.000000;0.793521
9984.000000;0.792463
9983.000000;0.791382
9982.000000;0.790274
9981.000000;0.789142
9980.000000;0.787924
9979.000000;0.786544
9978.000000;0.785079
9977.000000;0.783719
9976.000000;0.782512
9975.000000;0.781293
9974.000000;0.779948
9973.000000;0.778616
9972.000000;0.777492
9971.000000;0.776568
9970.000000;0.775707
9969.000000;0.774880
9968.000000;0.774138
9967.000000;0.773420
9966.000000;0.772556
9965.000000;0.771469
9964.000000;0.770236
9963.000000;0.768949
9962.000000;0.767631
9961.000000;0.766310
9960.000000;0.765044
9959.000000;0.763825
9958.000000;0.762551
9957.000000;0.761122
9956.000000;0.759522
9955.000000;0.757792
9954.000000;0.756015
9953.000000;0.754374
9952.000000;0.753136
9951.000000;0.752451
9950.000000;0.752163
9949.000000;0.751856
9948.000000;0.751158
9947.000000;0.750008
9946.000000;0.748637
9945.000000;0.747308
9944.000000;0.746106
9943.000000;0.744929
9942.000000;0.743616
9941.000000;0.742038
9940.000000;0.740189
9939.000000;0.738272
9938.000000;0.736644
9937.000000;0.735482
9936.000000;0.734527
9935.000000;0.733324
9934.000000;0.731764
9933.000000;0.730219
9932.000000;0.729038
9931.000000;0.728107
9930.000000;0.727049
9929.000000;0.725737
9928.000000;0.724380
9927.000000;0.723170
9926.000000;0.722082
9925.000000;0.721039
9924.000000;0.720052
9923.000000;0.719109
9922.000000;0.718092
9921.000000;0.716942
9920.000000;0.715764
9919.000000;0.714648
9918.000000;0.713487
9917.000000;0.712098
9916.000000;0.710475
9915.000000;0.708761
9914.000000;0.707029
9913.000000;0.705240
9912.000000;0.703444
9911.000000;0.701866
9910.000000;0.700680
9909.000000;0.699791
9908.000000;0.698910
9907.000000;0.697820
9906.000000;0.696496
9905.000000;0.695025
9904.000000;0.693510
9903.000000;0.692034
9902.000000;0.690628
9901.000000;0.689256
9900.000000;0.687876
9899.000000;0.686545
9898.000000;0.685373
9897.000000;0.684383
9896.000000;0.683475
9895.000000;0.682532
9894.000000;0.681480
9893.000000;0.680208
9892.000000;0.678586
9891.000000;0.676661
9890.000000;0.674745
9889.000000;0.673151
9888.000000;0.671884
9887.000000;0.670708
9886.000000;0.669487
9885.000000;0.668303
9884.000000;0.667245
9883.000000;0.666243
9882.000000;0.665189
9881.000000;0.664064
9880.000000;0.662867
9879.000000;0.661530
9878.000000;0.660038
9877.000000;0.658540
9876.000000;0.657192
9875.000000;0.655944
9874.000000;0.654620
9873.000000;0.653190
9872.000000;0.651792
9871.000000;0.650488
9870.000000;0.649140
9869.000000;0.647608
9868.000000;0.645944
9867.000000;0.644283
9866.000000;0.642636
9865.000000;0.640938
9864.000000;0.639273
9863.000000;0.637873
9862.000000;0.636830
9861.000000;0.635911
9860.000000;0.634770
9859.000000;0.633309
9858.000000;0.631751
9857.000000;0.630350
9856.000000;0.629107
9855.000000;0.627792
9854.000000;0.626202
9853.000000;0.624360
9852.000000;0.622488
9851.000000;0.620804
9850.000000;0.619340
9849.000000;0.617963
9848.000000;0.616557
9847.000000;0.615143
9846.000000;0.613792
9845.000000;0.612452
9844.000000;0.610958
9843.000000;0.609250
9842.000000;0.607509
9841.000000;0.605996
9840.000000;0.604786
9839.000000;0.603711
9838.000000;0.602544
9837.000000;0.601202
9836.000000;0.599762
9835.000000;0.598340
9834.000000;0.596973
9833.000000;0.595620
9832.000000;0.594246
9831.000000;0.592864
9830.000000;0.591462
9829.000000;0.589964
9828.000000;0.588320
9827.000000;0.586644
9826.000000;0.585124
9825.000000;0.583763
9824.000000;0.582330
9823.000000;0.580665
9822.000000;0.578942
9821.000000;0.577488
9820.000000;0.576379
9819.000000;0.575342
9818.000000;0.574044
9817.000000;0.572388
9816.000000;0.570519
9815.000000;0.568677
9814.000000;0.567062
9813.000000;0.565709
9812.000000;0.564437
9811.000000;0.562978
9810.000000;0.561232
9809.000000;0.559371
9808.000000;0.557626
9807.000000;0.556046
9806.000000;0.554503
9805.000000;0.552894
9804.000000;0.551245
9803.000000;0.549628
9802.000000;0.548046
9801.000000;0.546436
9800.000000;0.544763
9799.000000;0.543064
9798.000000;0.541420
9797.000000;0.539890
9796.000000;0.538503
9795.000000;0.537255
9794.000000;0.536088
9793.000000;0.534854
9792.000000;0.533397
9791.000000;0.531725
9790.000000;0.530039
9789.000000;0.528529
9788.000000;0.527137
9787.000000;0.525610
9786.000000;0.523786
9785.000000;0.521781
9784.000000;0.519859
9783.000000;0.518153
9782.000000;0.516542
9781.000000;0.514797
9780.000000;0.512861
9779.000000;0.510951
9778.000000;0.509328
9777.000000;0.507963
9776.000000;0.506525
9775.000000;0.504766
9774.000000;0.502831
9773.000000;0.501079
9772.000000;0.499645
9771.000000;0.498337
9770.000000;0.496927
9769.000000;0.495390
9768.000000;0.493803
9767.000000;0.492168
9766.000000;0.490450
9765.000000;0.488697
9764.000000;0.486986
9763.000000;0.485320
9762.000000;0.483665
9761.000000;0.482076
9760.000000;0.480633
9759.000000;0.479241
9758.000000;0.477630
9757.000000;0.475646
9756.000000;0.473499
9755.000000;0.471590
9754.000000;0.470084
9753.000000;0.468737
9752.000000;0.467193
9751.000000;0.465374
9750.000000;0.463497
9749.000000;0.461741
9748.000000;0.460033
9747.000000;0.458177
9746.000000;0.456109
9745.000000;0.453966
9744.000000;0.451954
9743.000000;0.450224
9742.000000;0.448794
9741.000000;0.447534
9740.000000;0.446259
9739.000000;0.444885
9738.000000;0.443443
9737.000000;0.441919
9736.000000;0.440193
9735.000000;0.438213
9734.000000;0.436122
9733.000000;0.434106
9732.000000;0.432180
9731.000000;0.430248
9730.000000;0.428313
9729.000000;0.426476
9728.000000;0.424746
9727.000000;0.423002
9726.000000;0.421169
9725.000000;0.419279
9724.000000;0.417364
9723.000000;0.415413
9722.000000;0.413457
9721.000000;0.411555
9720.000000;0.409666
9719.000000;0.407686
9718.000000;0.405654
9717.000000;0.403746
9716.000000;0.402019
9715.000000;0.400289
9714.000000;0.398383
9713.000000;0.396401
9712.000000;0.394614
9711.000000;0.393140
9710.000000;0.391808
9709.000000;0.390291
9708.000000;0.388351
9707.000000;0.386047
9706.000000;0.383746
9705.000000;0.381820
9704.000000;0.380271
9703.000000;0.378717
9702.000000;0.376829
9701.000000;0.374661
9700.000000;0.372475
9699.000000;0.370398
9698.000000;0.368378
9697.000000;0.366393
9696.000000;0.364499
9695.000000;0.362709
9694.000000;0.360939
9693.000000;0.359095
9692.000000;0.357119
9691.000000;0.354995
9690.000000;0.352817
9689.000000;0.350793
9688.000000;0.349054
9687.000000;0.347481
9686.000000;0.345812
9685.000000;0.343931
9684.000000;0.341941
9683.000000;0.339979
9682.000000;0.338065
9681.000000;0.336148
9680.000000;0.334202
9679.000000;0.332231
9678.000000;0.330274
9677.000000;0.328416
9676.000000;0.326713
9675.000000;0.325082
9674.000000;0.323324
9673.000000;0.321300
9672.000000;0.319034
9671.000000;0.316658
9670.000000;0.314300
9669.000000;0.312045
9668.000000;0.309921
9667.000000;0.307876
9666.000000;0.305799
9665.000000;0.303597
9664.000000;0.301268
9663.000000;0.298911
9662.000000;0.296705
9661.000000;0.294802
9660.000000;0.293158
9659.000000;0.291488
9658.000000;0.289483
9657.000000;0.287107
9656.000000;0.284609
9655.000000;0.282240
9654.000000;0.280030
9653.000000;0.277877
9652.000000;0.275743
9651.000000;0.273694
9650.000000;0.271771
9649.000000;0.269899
9648.000000;0.267955
9647.000000;0.265900
9646.000000;0.263840
9645.000000;0.261927
9644.000000;0.260156
9643.000000;0.258304
9642.000000;0.256118
9641.000000;0.253588
9640.000000;0.250971
9639.000000;0.248554
9638.000000;0.246426
9637.000000;0.244468
9636.000000;0.242496
9635.000000;0.240400
9634.000000;0.238206
9633.000000;0.236033
9632.000000;0.233943
9631.000000;0.231833
9630.000000;0.229520
9629.000000;0.226974
9628.000000;0.224389
9627.000000;0.221986
9626.000000;0.219787
9625.000000;0.217648
9624.000000;0.215458
9623.000000;0.213251
9622.000000;0.211126
9621.000000;0.209133
9620.000000;0.207238
9619.000000;0.205343
9618.000000;0.203321
9617.000000;0.201077
9616.000000;0.198641
9615.000000;0.196183
9614.000000;0.193891
9613.000000;0.191792
9612.000000;0.189708
9611.000000;0.187440
9610.000000;0.185002
9609.000000;0.182621
9608.000000;0.180478
9607.000000;0.178491
9606.000000;0.176418
9605.000000;0.174142
9604.000000;0.171769
9603.000000;0.169430
9602.000000;0.167117
9601.000000;0.164747
9600.000000;0.162337
9599.000000;0.160028
9598.000000;0.157940
9597.000000;0.156051
9596.000000;0.154187
9595.000000;0.152119
9594.000000;0.149701
9593.000000;0.146976
9592.000000;0.144159
9591.000000;0.141469
9590.000000;0.138983
9589.000000;0.136678
9588.000000;0.134531
9587.000000;0.132494
9586.000000;0.130402
9585.000000;0.128032
9584.000000;0.125339
9583.000000;0.122554
9582.000000;0.119972
9581.000000;0.117693
9580.000000;0.115604
9579.000000;0.113556
9578.000000;0.111473
9577.000000;0.109302
9576.000000;0.107001
9575.000000;0.104617
9574.000000;0.102287
9573.000000;0.100096
9572.000000;0.097958
9571.000000;0.095705
9570.000000;0.093266
9569.000000;0.090691
9568.000000;0.088051
9567.000000;0.085421
9566.000000;0.082949
9565.000000;0.080816
9564.000000;0.079040
9563.000000;0.077367
9562.000000;0.075447
9561.000000;0.073136
9560.000000;0.070603
9559.000000;0.068142
9558.000000;0.065910
9557.000000;0.063824
9556.000000;0.061674
9555.000000;0.059309
9554.000000;0.056759
9553.000000;0.054197
9552.000000;0.051792
9551.000000;0.049572
9550.000000;0.047440
9549.000000;0.045299
9548.000000;0.043137
9547.000000;0.040995
9546.000000;0.038889
9545.000000;0.036808
9544.000000;0.034761
9543.000000;0.032796
9542.000000;0.030916
9541.000000;0.029043
9540.000000;0.027067
9539.000000;0.024943
9538.000000;0.022680
9537.000000;0.020279
9536.000000;0.017749
9535.000000;0.015200
9534.000000;0.012844
9533.000000;0.010811
9532.000000;0.009001
9531.000000;0.007148
9530.000000;0.005058
9529.000000;0.002736
9528.000000;0.000335
9527.000000;-0.001977
9526.000000;-0.004095
9525.000000;-0.006025
9524.000000;-0.007908
9523.000000;-0.009932
9522.000000;-0.012141
9521.000000;-0.014366
9520.000000;-0.016382
9519.000000;-0.018160
9518.000000;-0.019901
9517.000000;-0.021818
9516.000000;-0.023899
9515.000000;-0.025914
9514.000000;-0.027653
9513.000000;-0.029124
9512.000000;-0.030520
9511.000000;-0.032025
9510.000000;-0.033675
9509.000000;-0.035413
9508.000000;-0.037184
9507.000000;-0.038965
9506.000000;-0.040730
9505.000000;-0.042481
9504.000000;-0.044269
9503.000000;-0.046141
9502.000000;-0.048033
9501.000000;-0.049819
9500.000000;-0.051494
9499.000000;-0.053235
9498.000000;-0.055214
9497.000000;-0.057354
9496.000000;-0.059352
9495.000000;-0.060949
9494.000000;-0.062156
9493.000000;-0.063206
9492.000000;-0.064319
9491.000000;-0.065544
9490.000000;-0.066813
9489.000000;-0.068058
9488.000000;-0.069258
9487.000000;-0.070392
9486.000000;-0.071453
9485.000000;-0.072522
9484.000000;-0.073777
9483.000000;-0.075335
9482.000000;-0.077087
9481.000000;-0.078717
9480.000000;-0.079912
9479.000000;-0.080581
9478.000000;-0.080925
9477.000000;-0.081350
9476.000000;-0.082235
9475.000000;-0.083665
9474.000000;-0.085347
9473.000000;-0.086827
9472.000000;-0.087843
9471.000000;-0.088472
9470.000000;-0.088980
9469.000000;-0.089595
9468.000000;-0.090419
9467.000000;-0.091462
9466.000000;-0.092637
9465.000000;-0.093764
9464.000000;-0.094646
9463.000000;-0.095217
9462.000000;-0.095590
9461.000000;-0.095947
9460.000000;-0.096366
9459.000000;-0.096777
9458.000000;-0.097098
9457.000000;-0.097375
9456.000000;-0.097762
9455.000000;-0.098332
9454.000000;-0.098974
9453.000000;-0.099504
9452.000000;-0.099843
9451.000000;-0.100043
9450.000000;-0.100197
9449.000000;-0.100364
9448.000000;-0.100558
9447.000000;-0.100724
9446.000000;-0.100758
9445.000000;-0.100617
9444.000000;-0.100432
9443.000000;-0.100407
9442.000000;-0.100587
9441.000000;-0.100797
9440.000000;-0.100854
9439.000000;-0.100784
9438.000000;-0.100753
9437.000000;-0.100835
9436.000000;-0.100915
9435.000000;-0.100813
9434.000000;-0.100451
9433.000000;-0.099901
9432.000000;-0.099311
9431.000000;-0.098827
9430.000000;-0.098565
9429.000000;-0.098570
9428.000000;-0.098748
9427.000000;-0.098860
9426.000000;-0.098662
9425.000000;-0.098093
9424.000000;-0.097318
9423.000000;-0.096550
9422.000000;-0.095891
9421.000000;-0.095339
9420.000000;-0.094886
9419.000000;-0.094527
9418.000000;-0.094216
9417.000000;-0.093893
9416.000000;-0.093524
9415.000000;-0.093064
9414.000000;-0.092426
9413.000000;-0.091575
9412.000000;-0.090646
9411.000000;-0.089846
9410.000000;-0.089226
9409.000000;-0.088641
9408.000000;-0.087966
9407.000000;-0.087240
9406.000000;-0.086570
9405.000000;-0.085960
9404.000000;-0.085314
9403.000000;-0.084550
9402.000000;-0.083657
9401.000000;-0.082677
9400.000000;-0.081702
9399.000000;-0.080862
9398.000000;-0.080247
9397.000000;-0.079801
9396.000000;-0.079326
9395.000000;-0.078591
9394.000000;-0.077487
9393.000000;-0.076131
9392.000000;-0.074790
9391.000000;-0.073671
9390.000000;-0.072750
9389.000000;-0.071844
9388.000000;-0.070832
9387.000000;-0.069760
9386.000000;-0.068703
9385.000000;-0.067619
9384.000000;-0.066395
9383.000000;-0.065014
9382.000000;-0.063625
9381.000000;-0.062435
9380.000000;-0.061514
9379.000000;-0.060708
9378.000000;-0.059762
9377.000000;-0.058572
9376.000000;-0.057314
9375.000000;-0.056247
9374.000000;-0.055408
9373.000000;-0.054578
9372.000000;-0.053542
9371.000000;-0.052302
9370.000000;-0.051014
9369.000000;-0.049814
9368.000000;-0.048757
9367.000000;-0.047846
9366.000000;-0.047010
9365.000000;-0.046092
9364.000000;-0.044958
9363.000000;-0.043599
9362.000000;-0.042109
9361.000000;-0.040591
9360.000000;-0.039142
9359.000000;-0.037868
9358.000000;-0.036808
9357.000000;-0.035845
9356.000000;-0.034775
9355.000000;-0.033483
9354.000000;-0.032030
9353.000000;-0.030562
9352.000000;-0.029197
9351.000000;-0.027996
9350.000000;-0.026955
9349.000000;-0.025984
9348.000000;-0.024952
9347.000000;-0.023790
9346.000000;-0.022538
9345.000000;-0.021249
9344.000000;-0.019886
9343.000000;-0.018390
9342.000000;-0.016832
9341.000000;-0.015431
9340.000000;-0.014349
9339.000000;-0.013508
9338.000000;-0.012666
9337.000000;-0.011662
9336.000000;-0.010533
9335.000000;-0.009357
9334.000000;-0.008085
9333.000000;-0.006599
9332.000000;-0.004946
9331.000000;-0.003370
9330.000000;-0.002094
9329.000000;-0.001122
9328.000000;-0.000305
9327.000000;0.000474
9326.000000;0.001270
9325.000000;0.002175
9324.000000;0.003322
9323.000000;0.004728
9322.000000;0.006224
9321.000000;0.007592
9320.000000;0.008760
9319.000000;0.009827
9318.000000;0.010925
9317.000000;0.012124
9316.000000;0.013423
9315.000000;0.014769
9314.000000;0.016051
9313.000000;0.017160
9312.000000;0.018102
9311.000000;0.019028
9310.000000;0.020095
9309.000000;0.021308
9308.000000;0.022527
9307.000000;0.023642
9306.000000;0.024680
9305.000000;0.025757
9304.000000;0.026961
9303.000000;0.028301
9302.000000;0.029703
9301.000000;0.031023
9300.000000;0.032126
9299.000000;0.033030
9298.000000;0.033932
9297.000000;0.035019
9296.000000;0.036255
9295.000000;0.037414
9294.000000;0.038361
9293.000000;0.039226
9292.000000;0.040274
9291.000000;0.041602
9290.000000;0.043035
9289.000000;0.044306
9288.000000;0.045331
9287.000000;0.046292
9286.000000;0.047427
9285.000000;0.048768
9284.000000;0.050109
9283.000000;0.051246
9282.000000;0.052186
9281.000000;0.053077
9280.000000;0.053996
9279.000000;0.054904
9278.000000;0.055796
9277.000000;0.056760
9276.000000;0.057834
9275.000000;0.058917
9274.000000;0.059891
9273.000000;0.060769
9272.000000;0.061646
9271.000000;0.062556
9270.000000;0.063484
9269.000000;0.064468
9268.000000;0.065576
9267.000000;0.066769
9266.000000;0.067914
9265.000000;0.068946
9264.000000;0.069957
9263.000000;0.071049
9262.000000;0.072171
9261.000000;0.073187
9260.000000;0.074050
9259.000000;0.074849
9258.000000;0.075687
9257.000000;0.076595
9256.000000;0.077535
9255.000000;0.078450
9254.000000;0.079292
9253.000000;0.080073
9252.000000;0.080911
9251.000000;0.081955
9250.000000;0.083228
9249.000000;0.084562
9248.000000;0.085729
9247.000000;0.086639
9246.000000;0.087408
9245.000000;0.088237
9244.000000;0.089229
9243.000000;0.090302
9242.000000;0.091267
9241.000000;0.092026
9240.000000;0.092687
9239.000000;0.093473
9238.000000;0.094489
9237.000000;0.095613
9236.000000;0.096640
9235.000000;0.097506
9234.000000;0.098316
9233.000000;0.099184
9232.000000;0.100112
9231.000000;0.101034
9230.000000;0.101919
9229.000000;0.102778
9228.000000;0.103607
9227.000000;0.104361
9226.000000;0.105012
9225.000000;0.105625
9224.000000;0.106371
9223.000000;0.107403
9222.000000;0.108656
9221.000000;0.109829
9220.000000;0.110638
9219.000000;0.111099
9218.000000;0.111482
9217.000000;0.111997
9216.000000;0.112633
9215.000000;0.113329
9214.000000;0.114149
9213.000000;0.115168
9212.000000;0.116262
9211.000000;0.117201
9210.000000;0.117925
9209.000000;0.118610
9208.000000;0.119399
9207.000000;0.120223
9206.000000;0.120938
9205.000000;0.121553
9204.000000;0.122206
9203.000000;0.122980
9202.000000;0.123830
9201.000000;0.124684
9200.000000;0.125520
9199.000000;0.126325
9198.000000;0.127062
9197.000000;0.127705
9196.000000;0.128287
9195.000000;0.128860
9194.000000;0.129448
9193.000000;0.130035
9192.000000;0.130615
9191.000000;0.131223
9190.000000;0.131910
9189.000000;0.132684
9188.000000;0.133489
9187.000000;0.134253
9186.000000;0.134964
9185.000000;0.135672
9184.000000;0.136388
9183.000000;0.137012
9182.000000;0.137428
9181.000000;0.137701
9180.000000;0.138100
9179.000000;0.138857
9178.000000;0.139905
9177.000000;0.140909
9176.000000;0.141591
9175.000000;0.141990
9174.000000;0.142385
9173.000000;0.143013
9172.000000;0.143891
9171.000000;0.144875
9170.000000;0.145811
9169.000000;0.146636
9168.000000;0.147371
9167.000000;0.148064
9166.000000;0.148715
9165.000000;0.149282
9164.000000;0.149770
9163.000000;0.150301
9162.000000;0.151013
9161.000000;0.151871
9160.000000;0.152637
9159.000000;0.153095
9158.000000;0.153272
9157.000000;0.153400
9156.000000;0.153698
9155.000000;0.154219
9154.000000;0.154883
9153.000000;0.155576
9152.000000;0.156215
9151.000000;0.156776
9150.000000;0.157291
9149.000000;0.157806
9148.000000;0.158324
9147.000000;0.158830
9146.000000;0.159336
9145.000000;0.159882
9144.000000;0.160468
9143.000000;0.161038
9142.000000;0.161575
9141.000000;0.162149
9140.000000;0.162842
9139.000000;0.163629
9138.000000;0.164374
9137.000000;0.164974
9136.000000;0.165452
9135.000000;0.165898
9134.000000;0.166346
9133.000000;0.166735
9132.000000;0.167009
9131.000000;0.167208
9130.000000;0.167441
9129.000000;0.167790
9128.000000;0.168259
9127.000000;0.168804
9126.000000;0.169371
9125.000000;0.169931
9124.000000;0.170489
9123.000000;0.171080
9122.000000;0.171714
9121.000000;0.172320
9120.000000;0.172807
9119.000000;0.173179
9118.000000;0.173549
9117.000000;0.174010
9116.000000;0.174530
9115.000000;0.175027
9114.000000;0.175489
9113.000000;0.175968
9112.000000;0.176471
9111.000000;0.176924
9110.000000;0.177259
9109.000000;0.177495
9108.000000;0.177729
9107.000000;0.178067
9106.000000;0.178552
9105.000000;0.179139
9104.000000;0.179728
9103.000000;0.180249
9102.000000;0.180711
9101.000000;0.181154
9100.000000;0.181578
9099.000000;0.181971
9098.000000;0.182379
9097.000000;0.182881
9096.000000;0.183479
9095.000000;0.184065
9094.000000;0.184534
9093.000000;0.184884
9092.000000;0.185184
9091.000000;0.185472
9090.000000;0.185725
9089.000000;0.185917
9088.000000;0.186076
9087.000000;0.186275
9086.000000;0.186582
9085.000000;0.187007
9084.000000;0.187480
9083.000000;0.187913
9082.000000;0.188273
9081.000000;0.188589
9080.000000;0.188908
9079.000000;0.189246
9078.000000;0.189602
9077.000000;0.189962
9076.000000;0.190305
9075.000000;0.190631
9074.000000;0.190984
9073.000000;0.191415
9072.000000;0.191903
9071.000000;0.192358
9070.000000;0.192722
9069.000000;0.193034
9068.000000;0.193365
9067.000000;0.193726
9066.000000;0.194084
9065.000000;0.194446
9064.000000;0.194860
9063.000000;0.195328
9062.000000;0.195758
