Criado como novo conjunto de dados;"0307_DANIEL.spp","70385.5 Secs"
cm-1;Abs
10000.000000;0.597651
9999.000000;0.596816
9998.000000;0.595761
9997.000000;0.594686
9996.000000;0.593909
9995.000000;0.593497
9994.000000;0.593198
9993.000000;0.592767
9992.000000;0.592217
9991.000000;0.591670
9990.000000;0.591085
9989.000000;0.590262
9988.000000;0.589082
9987.000000;0.587662
9986.000000;0.586275
9985.000000;0.585213
9984.000000;0.584667
9983.000000;0.584581
9982.000000;0.584610
9981.000000;0.584304
9980.000000;0.583422
9979.000000;0.582084
9978.000000;0.580666
9977.000000;0.579600
9976.000000;0.579143
9975.000000;0.579145
9974.000000;0.579064
9973.000000;0.578413
9972.000000;0.577258
9971.000000;0.576105
9970.000000;0.575264
9969.000000;0.574532
9968.000000;0.573603
9967.000000;0.572541
9966.000000;0.571590
9965.000000;0.570719
9964.000000;0.569673
9963.000000;0.568476
9962.000000;0.567512
9961.000000;0.566974
9960.000000;0.566485
9959.000000;0.565483
9958.000000;0.563890
9957.000000;0.562241
9956.000000;0.561145
9955.000000;0.560719
9954.000000;0.560536
9953.000000;0.560047
9952.000000;0.559052
9951.000000;0.557800
9950.000000;0.556682
9949.000000;0.555887
9948.000000;0.555365
9947.000000;0.554991
9946.000000;0.554611
9945.000000;0.553976
9944.000000;0.552872
9943.000000;0.551380
9942.000000;0.549844
9941.000000;0.548488
9940.000000;0.547222
9939.000000;0.545913
9938.000000;0.544679
9937.000000;0.543744
9936.000000;0.543123
9935.000000;0.542664
9934.000000;0.542303
9933.000000;0.542058
9932.000000;0.541788
9931.000000;0.541209
9930.000000;0.540241
9929.000000;0.539140
9928.000000;0.538178
9927.000000;0.537360
9926.000000;0.536523
9925.000000;0.535600
9924.000000;0.534635
9923.000000;0.533631
9922.000000;0.532562
9921.000000;0.531497
9920.000000;0.530566
9919.000000;0.529780
9918.000000;0.528998
9917.000000;0.528130
9916.000000;0.527259
9915.000000;0.526490
9914.000000;0.525731
9913.000000;0.524754
9912.000000;0.523482
9911.000000;0.522140
9910.000000;0.521024
9909.000000;0.520188
9908.000000;0.519429
9907.000000;0.518568
9906.000000;0.517628
9905.000000;0.516681
9904.000000;0.515661
9903.000000;0.514436
9902.000000;0.513031
9901.000000;0.511650
9900.000000;0.510473
9899.000000;0.509513
9898.000000;0.508675
9897.000000;0.507879
9896.000000;0.507105
9895.000000;0.506360
9894.000000;0.505627
9893.000000;0.504805
9892.000000;0.503749
9891.000000;0.502419
9890.000000;0.500997
9889.000000;0.499774
9888.000000;0.498889
9887.000000;0.498246
9886.000000;0.497649
9885.000000;0.496944
9884.000000;0.496057
9883.000000;0.495019
9882.000000;0.494002
9881.000000;0.493199
9880.000000;0.492588
9879.000000;0.491912
9878.000000;0.490965
9877.000000;0.489833
9876.000000;0.488739
9875.000000;0.487740
9874.000000;0.486698
9873.000000;0.485515
9872.000000;0.484246
9871.000000;0.482953
9870.000000;0.481581
9869.000000;0.480096
9868.000000;0.478663
9867.000000;0.477550
9866.000000;0.476806
9865.000000;0.476145
9864.000000;0.475214
9863.000000;0.473950
9862.000000;0.472590
9861.000000;0.471359
9860.000000;0.470261
9859.000000;0.469177
9858.000000;0.468048
9857.000000;0.466863
9856.000000;0.465618
9855.000000;0.464382
9854.000000;0.463309
9853.000000;0.462434
9852.000000;0.461549
9851.000000;0.460449
9850.000000;0.459265
9849.000000;0.458309
9848.000000;0.457611
9847.000000;0.456830
9846.000000;0.455717
9845.000000;0.454436
9844.000000;0.453312
9843.000000;0.452445
9842.000000;0.451689
9841.000000;0.450872
9840.000000;0.449887
9839.000000;0.448713
9838.000000;0.447468
9837.000000;0.446333
9836.000000;0.445264
9835.000000;0.443955
9834.000000;0.442265
9833.000000;0.440533
9832.000000;0.439244
9831.000000;0.438438
9830.000000;0.437709
9829.000000;0.436718
9828.000000;0.435485
9827.000000;0.434160
9826.000000;0.432796
9825.000000;0.431429
9824.000000;0.430192
9823.000000;0.429185
9822.000000;0.428340
9821.000000;0.427487
9820.000000;0.426480
9819.000000;0.425228
9818.000000;0.423719
9817.000000;0.422078
9816.000000;0.420510
9815.000000;0.419097
9814.000000;0.417728
9813.000000;0.416283
9812.000000;0.414812
9811.000000;0.413497
9810.000000;0.412472
9809.000000;0.411703
9808.000000;0.410987
9807.000000;0.410043
9806.000000;0.408714
9805.000000;0.407127
9804.000000;0.405603
9803.000000;0.404346
9802.000000;0.403273
9801.000000;0.402143
9800.000000;0.400809
9799.000000;0.399334
9798.000000;0.397913
9797.000000;0.396710
9796.000000;0.395717
9795.000000;0.394802
9794.000000;0.393890
9793.000000;0.393043
9792.000000;0.392271
9791.000000;0.391360
9790.000000;0.390078
9789.000000;0.388489
9788.000000;0.386875
9787.000000;0.385309
9786.000000;0.383574
9785.000000;0.381595
9784.000000;0.379730
9783.000000;0.378401
9782.000000;0.377581
9781.000000;0.376845
9780.000000;0.375884
9779.000000;0.374757
9778.000000;0.373637
9777.000000;0.372506
9776.000000;0.371212
9775.000000;0.369726
9774.000000;0.368222
9773.000000;0.366906
9772.000000;0.365787
9771.000000;0.364663
9770.000000;0.363333
9769.000000;0.361811
9768.000000;0.360302
9767.000000;0.358960
9766.000000;0.357726
9765.000000;0.356415
9764.000000;0.354932
9763.000000;0.353355
9762.000000;0.351846
9761.000000;0.350503
9760.000000;0.349272
9759.000000;0.348004
9758.000000;0.346633
9757.000000;0.345259
9756.000000;0.344020
9755.000000;0.342865
9754.000000;0.341583
9753.000000;0.340057
9752.000000;0.338410
9751.000000;0.336829
9750.000000;0.335345
9749.000000;0.333831
9748.000000;0.332169
9747.000000;0.330355
9746.000000;0.328526
9745.000000;0.326926
9744.000000;0.325757
9743.000000;0.324956
9742.000000;0.324175
9741.000000;0.323097
9740.000000;0.321710
9739.000000;0.320234
9738.000000;0.318823
9737.000000;0.317445
9736.000000;0.315985
9735.000000;0.314347
9734.000000;0.312515
9733.000000;0.310623
9732.000000;0.308934
9731.000000;0.307614
9730.000000;0.306493
9729.000000;0.305199
9728.000000;0.303553
9727.000000;0.301743
9726.000000;0.300081
9725.000000;0.298685
9724.000000;0.297447
9723.000000;0.296186
9722.000000;0.294770
9721.000000;0.293175
9720.000000;0.291528
9719.000000;0.290040
9718.000000;0.288788
9717.000000;0.287595
9716.000000;0.286194
9715.000000;0.284528
9714.000000;0.282787
9713.000000;0.281150
9712.000000;0.279614
9711.000000;0.278109
9710.000000;0.276657
9709.000000;0.275286
9708.000000;0.273843
9707.000000;0.272088
9706.000000;0.269983
9705.000000;0.267745
9704.000000;0.265559
9703.000000;0.263415
9702.000000;0.261310
9701.000000;0.259448
9700.000000;0.258018
9699.000000;0.256851
9698.000000;0.255527
9697.000000;0.253850
9696.000000;0.252042
9695.000000;0.250414
9694.000000;0.249030
9693.000000;0.247755
9692.000000;0.246457
9691.000000;0.245049
9690.000000;0.243458
9689.000000;0.241712
9688.000000;0.239970
9687.000000;0.238348
9686.000000;0.236787
9685.000000;0.235170
9684.000000;0.233507
9683.000000;0.231862
9682.000000;0.230204
9681.000000;0.228470
9680.000000;0.226730
9679.000000;0.225127
9678.000000;0.223647
9677.000000;0.222102
9676.000000;0.220360
9675.000000;0.218494
9674.000000;0.216661
9673.000000;0.214953
9672.000000;0.213367
9671.000000;0.211809
9670.000000;0.210109
9669.000000;0.208136
9668.000000;0.205997
9667.000000;0.204022
9666.000000;0.202447
9665.000000;0.201114
9664.000000;0.199561
9663.000000;0.197450
9662.000000;0.194891
9661.000000;0.192354
9660.000000;0.190252
9659.000000;0.188629
9658.000000;0.187237
9657.000000;0.185838
9656.000000;0.184364
9655.000000;0.182817
9654.000000;0.181154
9653.000000;0.179376
9652.000000;0.177626
9651.000000;0.176076
9650.000000;0.174707
9649.000000;0.173286
9648.000000;0.171558
9647.000000;0.169402
9646.000000;0.166885
9645.000000;0.164294
9644.000000;0.162081
9643.000000;0.160569
9642.000000;0.159587
9641.000000;0.158512
9640.000000;0.156801
9639.000000;0.154472
9638.000000;0.152023
9637.000000;0.149920
9636.000000;0.148245
9635.000000;0.146759
9634.000000;0.145169
9633.000000;0.143323
9632.000000;0.141258
9631.000000;0.139139
9630.000000;0.137156
9629.000000;0.135413
9628.000000;0.133859
9627.000000;0.132349
9626.000000;0.130752
9625.000000;0.129019
9624.000000;0.127146
9623.000000;0.125123
9622.000000;0.122962
9621.000000;0.120756
9620.000000;0.118642
9619.000000;0.116683
9618.000000;0.114840
9617.000000;0.113052
9616.000000;0.111280
9615.000000;0.109448
9614.000000;0.107427
9613.000000;0.105146
9612.000000;0.102682
9611.000000;0.100180
9610.000000;0.097747
9609.000000;0.095468
9608.000000;0.093454
9607.000000;0.091730
9606.000000;0.090150
9605.000000;0.088547
9604.000000;0.086936
9603.000000;0.085401
9602.000000;0.083786
9601.000000;0.081746
9600.000000;0.079218
9599.000000;0.076661
9598.000000;0.074597
9597.000000;0.073010
9596.000000;0.071400
9595.000000;0.069404
9594.000000;0.067171
9593.000000;0.065062
9592.000000;0.063166
9591.000000;0.061277
9590.000000;0.059235
9589.000000;0.057106
9588.000000;0.055017
9587.000000;0.052969
9586.000000;0.050850
9585.000000;0.048577
9584.000000;0.046160
9583.000000;0.043687
9582.000000;0.041303
9581.000000;0.039154
9580.000000;0.037279
9579.000000;0.035545
9578.000000;0.033736
9577.000000;0.031710
9576.000000;0.029473
9575.000000;0.027156
9574.000000;0.024941
9573.000000;0.022958
9572.000000;0.021177
9571.000000;0.019404
9570.000000;0.017480
9569.000000;0.015486
9568.000000;0.013665
9567.000000;0.012117
9566.000000;0.010639
9565.000000;0.008918
9564.000000;0.006822
9563.000000;0.004448
9562.000000;0.001948
9561.000000;-0.000612
9560.000000;-0.003231
9559.000000;-0.005853
9558.000000;-0.008299
9557.000000;-0.010353
9556.000000;-0.011988
9555.000000;-0.013489
9554.000000;-0.015227
9553.000000;-0.017258
9552.000000;-0.019245
9551.000000;-0.020888
9550.000000;-0.022332
9549.000000;-0.024036
9548.000000;-0.026246
9547.000000;-0.028743
9546.000000;-0.031130
9545.000000;-0.033219
9544.000000;-0.035087
9543.000000;-0.036870
9542.000000;-0.038621
9541.000000;-0.040330
9540.000000;-0.042004
9539.000000;-0.043697
9538.000000;-0.045503
9537.000000;-0.047490
9536.000000;-0.049614
9535.000000;-0.051686
9534.000000;-0.053490
9533.000000;-0.054964
9532.000000;-0.056263
9531.000000;-0.057640
9530.000000;-0.059280
9529.000000;-0.061227
9528.000000;-0.063415
9527.000000;-0.065691
9526.000000;-0.067852
9525.000000;-0.069747
9524.000000;-0.071405
9523.000000;-0.073016
9522.000000;-0.074726
9521.000000;-0.076502
9520.000000;-0.078252
9519.000000;-0.080008
9518.000000;-0.081871
9517.000000;-0.083784
9516.000000;-0.085525
9515.000000;-0.086988
9514.000000;-0.088351
9513.000000;-0.089842
9512.000000;-0.091448
9511.000000;-0.092996
9510.000000;-0.094466
9509.000000;-0.096074
9508.000000;-0.097971
9507.000000;-0.099985
9506.000000;-0.101767
9505.000000;-0.103166
9504.000000;-0.104407
9503.000000;-0.105827
9502.000000;-0.107487
9501.000000;-0.109100
9500.000000;-0.110380
9499.000000;-0.111423
9498.000000;-0.112606
9497.000000;-0.114128
9496.000000;-0.115771
9495.000000;-0.117168
9494.000000;-0.118199
9493.000000;-0.119051
9492.000000;-0.119965
9491.000000;-0.121066
9490.000000;-0.122348
9489.000000;-0.123707
9488.000000;-0.124986
9487.000000;-0.126085
9486.000000;-0.127030
9485.000000;-0.127878
9484.000000;-0.128608
9483.000000;-0.129240
9482.000000;-0.129975
9481.000000;-0.131032
9480.000000;-0.132306
9479.000000;-0.133388
9478.000000;-0.133987
9477.000000;-0.134236
9476.000000;-0.134523
9475.000000;-0.135142
9474.000000;-0.136151
9473.000000;-0.137398
9472.000000;-0.138573
9471.000000;-0.139369
9470.000000;-0.139768
9469.000000;-0.140112
9468.000000;-0.140760
9467.000000;-0.141722
9466.000000;-0.142715
9465.000000;-0.143515
9464.000000;-0.144076
9463.000000;-0.144383
9462.000000;-0.144401
9461.000000;-0.144208
9460.000000;-0.144044
9459.000000;-0.144130
9458.000000;-0.144506
9457.000000;-0.145069
9456.000000;-0.145694
9455.000000;-0.146263
9454.000000;-0.146647
9453.000000;-0.146765
9452.000000;-0.146630
9451.000000;-0.146350
9450.000000;-0.146081
9449.000000;-0.145932
9448.000000;-0.145852
9447.000000;-0.145632
9446.000000;-0.145137
9445.000000;-0.144539
9444.000000;-0.144210
9443.000000;-0.144363
9442.000000;-0.144869
9441.000000;-0.145436
9440.000000;-0.145820
9439.000000;-0.145841
9438.000000;-0.145413
9437.000000;-0.144689
9436.000000;-0.144050
9435.000000;-0.143763
9434.000000;-0.143674
9433.000000;-0.143391
9432.000000;-0.142735
9431.000000;-0.141918
9430.000000;-0.141279
9429.000000;-0.140981
9428.000000;-0.140950
9427.000000;-0.140975
9426.000000;-0.140804
9425.000000;-0.140248
9424.000000;-0.139287
9423.000000;-0.138097
9422.000000;-0.136963
9421.000000;-0.136106
9420.000000;-0.135509
9419.000000;-0.134894
9418.000000;-0.133959
9417.000000;-0.132726
9416.000000;-0.131574
9415.000000;-0.130823
9414.000000;-0.130360
9413.000000;-0.129790
9412.000000;-0.128914
9411.000000;-0.127900
9410.000000;-0.127019
9409.000000;-0.126403
9408.000000;-0.126030
9407.000000;-0.125715
9406.000000;-0.125095
9405.000000;-0.123841
9404.000000;-0.122045
9403.000000;-0.120223
9402.000000;-0.118809
9401.000000;-0.117740
9400.000000;-0.116678
9399.000000;-0.115489
9398.000000;-0.114338
9397.000000;-0.113374
9396.000000;-0.112525
9395.000000;-0.111620
9394.000000;-0.110558
9393.000000;-0.109322
9392.000000;-0.107946
9391.000000;-0.106507
9390.000000;-0.105118
9389.000000;-0.103879
9388.000000;-0.102829
9387.000000;-0.101901
9386.000000;-0.100955
9385.000000;-0.099922
9384.000000;-0.098916
9383.000000;-0.098079
9382.000000;-0.097290
9381.000000;-0.096188
9380.000000;-0.094594
9379.000000;-0.092790
9378.000000;-0.091200
9377.000000;-0.089887
9376.000000;-0.088573
9375.000000;-0.087084
9374.000000;-0.085557
9373.000000;-0.084169
9372.000000;-0.082887
9371.000000;-0.081588
9370.000000;-0.080261
9369.000000;-0.078991
9368.000000;-0.077806
9367.000000;-0.076639
9366.000000;-0.075390
9365.000000;-0.073987
9364.000000;-0.072415
9363.000000;-0.070756
9362.000000;-0.069148
9361.000000;-0.067685
9360.000000;-0.066384
9359.000000;-0.065213
9358.000000;-0.064127
9357.000000;-0.063051
9356.000000;-0.061914
9355.000000;-0.060673
9354.000000;-0.059253
9353.000000;-0.057532
9352.000000;-0.055509
9351.000000;-0.053490
9350.000000;-0.051937
9349.000000;-0.051053
9348.000000;-0.050583
9347.000000;-0.050042
9346.000000;-0.049070
9345.000000;-0.047581
9344.000000;-0.045735
9343.000000;-0.043826
9342.000000;-0.042077
9341.000000;-0.040480
9340.000000;-0.038899
9339.000000;-0.037325
9338.000000;-0.035905
9337.000000;-0.034683
9336.000000;-0.033487
9335.000000;-0.032156
9334.000000;-0.030748
9333.000000;-0.029400
9332.000000;-0.028099
9331.000000;-0.026736
9330.000000;-0.025298
9329.000000;-0.023871
9328.000000;-0.022501
9327.000000;-0.021172
9326.000000;-0.019868
9325.000000;-0.018534
9324.000000;-0.017030
9323.000000;-0.015276
9322.000000;-0.013437
9321.000000;-0.011820
9320.000000;-0.010563
9319.000000;-0.009499
9318.000000;-0.008361
9317.000000;-0.007039
9316.000000;-0.005620
9315.000000;-0.004257
9314.000000;-0.003039
9313.000000;-0.001960
9312.000000;-0.000956
9311.000000;0.000061
9310.000000;0.001228
9309.000000;0.002693
9308.000000;0.004463
9307.000000;0.006301
9306.000000;0.007918
9305.000000;0.009319
9304.000000;0.010808
9303.000000;0.012572
9302.000000;0.014392
9301.000000;0.015894
9300.000000;0.016999
9299.000000;0.017964
9298.000000;0.019061
9297.000000;0.020359
9296.000000;0.021781
9295.000000;0.023201
9294.000000;0.024490
9293.000000;0.025627
9292.000000;0.026792
9291.000000;0.028213
9290.000000;0.029888
9289.000000;0.031544
9288.000000;0.032887
9287.000000;0.033835
9286.000000;0.034537
9285.000000;0.035258
9284.000000;0.036226
9283.000000;0.037467
9282.000000;0.038762
9281.000000;0.039855
9280.000000;0.040729
9279.000000;0.041595
9278.000000;0.042617
9277.000000;0.043791
9276.000000;0.045065
9275.000000;0.046441
9274.000000;0.047890
9273.000000;0.049300
9272.000000;0.050589
9271.000000;0.051800
9270.000000;0.052988
9269.000000;0.054109
9268.000000;0.055103
9267.000000;0.056031
9266.000000;0.057011
9265.000000;0.058062
9264.000000;0.059101
9263.000000;0.060137
9262.000000;0.061344
9261.000000;0.062871
9260.000000;0.064593
9259.000000;0.066140
9258.000000;0.067227
9257.000000;0.067905
9256.000000;0.068463
9255.000000;0.069125
9254.000000;0.069951
9253.000000;0.070980
9252.000000;0.072310
9251.000000;0.073956
9250.000000;0.075738
9249.000000;0.077403
9248.000000;0.078770
9247.000000;0.079720
9246.000000;0.080201
9245.000000;0.080396
9244.000000;0.080759
9243.000000;0.081692
9242.000000;0.083179
9241.000000;0.084852
9240.000000;0.086371
9239.000000;0.087603
9238.000000;0.088509
9237.000000;0.089115
9236.000000;0.089623
9235.000000;0.090324
9234.000000;0.091322
9233.000000;0.092472
9232.000000;0.093647
9231.000000;0.094904
9230.000000;0.096303
9229.000000;0.097703
9228.000000;0.098902
9227.000000;0.099877
9226.000000;0.100780
9225.000000;0.101735
9224.000000;0.102748
9223.000000;0.103774
9222.000000;0.104781
9221.000000;0.105775
9220.000000;0.106792
9219.000000;0.107834
9218.000000;0.108778
9217.000000;0.109435
9216.000000;0.109794
9215.000000;0.110154
9214.000000;0.110903
9213.000000;0.112154
9212.000000;0.113636
9211.000000;0.114935
9210.000000;0.115814
9209.000000;0.116329
9208.000000;0.116710
9207.000000;0.117169
9206.000000;0.117813
9205.000000;0.118679
9204.000000;0.119767
9203.000000;0.121007
9202.000000;0.122262
9201.000000;0.123455
9200.000000;0.124652
9199.000000;0.125940
9198.000000;0.127211
9197.000000;0.128205
9196.000000;0.128792
9195.000000;0.129138
9194.000000;0.129557
9193.000000;0.130255
9192.000000;0.131229
9191.000000;0.132300
9190.000000;0.133225
9189.000000;0.133893
9188.000000;0.134466
9187.000000;0.135248
9186.000000;0.136347
9185.000000;0.137533
9184.000000;0.138497
9183.000000;0.139180
9182.000000;0.139781
9181.000000;0.140524
9180.000000;0.141483
9179.000000;0.142564
9178.000000;0.143560
9177.000000;0.144258
9176.000000;0.144607
9175.000000;0.144787
9174.000000;0.145063
9173.000000;0.145582
9172.000000;0.146318
9171.000000;0.147173
9170.000000;0.148058
9169.000000;0.148909
9168.000000;0.149704
9167.000000;0.150473
9166.000000;0.151265
9165.000000;0.152095
9164.000000;0.152922
9163.000000;0.153692
9162.000000;0.154388
9161.000000;0.155078
9160.000000;0.155870
9159.000000;0.156785
9158.000000;0.157689
9157.000000;0.158423
9156.000000;0.159024
9155.000000;0.159694
9154.000000;0.160520
9153.000000;0.161352
9152.000000;0.162034
9151.000000;0.162685
9150.000000;0.163569
9149.000000;0.164727
9148.000000;0.165880
9147.000000;0.166748
9146.000000;0.167368
9145.000000;0.168000
9144.000000;0.168753
9143.000000;0.169396
9142.000000;0.169611
9141.000000;0.169412
9140.000000;0.169257
9139.000000;0.169670
9138.000000;0.170768
9137.000000;0.172182
9136.000000;0.173405
9135.000000;0.174170
9134.000000;0.174537
9133.000000;0.174749
9132.000000;0.175073
9131.000000;0.175675
9130.000000;0.176527
9129.000000;0.177462
9128.000000;0.178326
9127.000000;0.179072
9126.000000;0.179691
9125.000000;0.180174
9124.000000;0.180595
9123.000000;0.181117
9122.000000;0.181781
9121.000000;0.182377
9120.000000;0.182663
9119.000000;0.182711
9118.000000;0.182887
9117.000000;0.183482
9116.000000;0.184443
9115.000000;0.185485
9114.000000;0.186340
9113.000000;0.186887
9112.000000;0.187177
9111.000000;0.187438
9110.000000;0.187947
9109.000000;0.188792
9108.000000;0.189767
9107.000000;0.190595
9106.000000;0.191225
9105.000000;0.191844
9104.000000;0.192593
9103.000000;0.193365
9102.000000;0.193903
9101.000000;0.194063
9100.000000;0.193970
9099.000000;0.193936
9098.000000;0.194240
9097.000000;0.194929
9096.000000;0.195784
9095.000000;0.196504
9094.000000;0.196979
9093.000000;0.197355
9092.000000;0.197846
9091.000000;0.198491
9090.000000;0.199148
9089.000000;0.199700
9088.000000;0.200173
9087.000000;0.200659
9086.000000;0.201186
9085.000000;0.201716
9084.000000;0.202226
9083.000000;0.202709
9082.000000;0.203119
9081.000000;0.203403
9080.000000;0.203598
9079.000000;0.203870
9078.000000;0.204379
9077.000000;0.205112
9076.000000;0.205902
9075.000000;0.206611
9074.000000;0.207284
9073.000000;0.208051
9072.000000;0.208883
9071.000000;0.209539
9070.000000;0.209826
9069.000000;0.209887
9068.000000;0.210092
9067.000000;0.210621
9066.000000;0.211247
9065.000000;0.211621
