Criado como novo conjunto de dados;"0307_DANIEL.spp","19982.7 Secs"
cm-1;Abs
10000.000000;0.968312
9999.000000;0.966451
9998.000000;0.964774
9997.000000;0.963499
9996.000000;0.962532
9995.000000;0.961620
9994.000000;0.960665
9993.000000;0.959709
9992.000000;0.958743
9991.000000;0.957670
9990.000000;0.956441
9989.000000;0.955109
9988.000000;0.953779
9987.000000;0.952580
9986.000000;0.951586
9985.000000;0.950650
9984.000000;0.949383
9983.000000;0.947519
9982.000000;0.945327
9981.000000;0.943472
9980.000000;0.942359
9979.000000;0.941725
9978.000000;0.940987
9977.000000;0.939930
9976.000000;0.938871
9975.000000;0.938131
9974.000000;0.937559
9973.000000;0.936720
9972.000000;0.935445
9971.000000;0.933967
9970.000000;0.932537
9969.000000;0.931162
9968.000000;0.929778
9967.000000;0.928467
9966.000000;0.927327
9965.000000;0.926301
9964.000000;0.925334
9963.000000;0.924554
9962.000000;0.924062
9961.000000;0.923577
9960.000000;0.922583
9959.000000;0.920894
9958.000000;0.918883
9957.000000;0.917092
9956.000000;0.915778
9955.000000;0.914881
9954.000000;0.914185
9953.000000;0.913369
9952.000000;0.912079
9951.000000;0.910203
9950.000000;0.908085
9949.000000;0.906314
9948.000000;0.905216
9947.000000;0.904560
9946.000000;0.903766
9945.000000;0.902402
9944.000000;0.900520
9943.000000;0.898564
9942.000000;0.896966
9941.000000;0.895852
9940.000000;0.895064
9939.000000;0.894349
9938.000000;0.893445
9937.000000;0.892127
9936.000000;0.890365
9935.000000;0.888478
9934.000000;0.886948
9933.000000;0.886018
9932.000000;0.885481
9931.000000;0.884900
9930.000000;0.883966
9929.000000;0.882683
9928.000000;0.881295
9927.000000;0.880059
9926.000000;0.879018
9925.000000;0.877960
9924.000000;0.876649
9923.000000;0.875089
9922.000000;0.873472
9921.000000;0.871938
9920.000000;0.870500
9919.000000;0.869182
9918.000000;0.868021
9917.000000;0.866900
9916.000000;0.865603
9915.000000;0.864130
9914.000000;0.862777
9913.000000;0.861788
9912.000000;0.861009
9911.000000;0.860027
9910.000000;0.858572
9909.000000;0.856714
9908.000000;0.854753
9907.000000;0.853033
9906.000000;0.851754
9905.000000;0.850818
9904.000000;0.849895
9903.000000;0.848742
9902.000000;0.847419
9901.000000;0.846093
9900.000000;0.844744
9899.000000;0.843221
9898.000000;0.841541
9897.000000;0.839922
9896.000000;0.838476
9895.000000;0.837037
9894.000000;0.835398
9893.000000;0.833630
9892.000000;0.832050
9891.000000;0.830867
9890.000000;0.829920
9889.000000;0.828775
9888.000000;0.827128
9887.000000;0.825121
9886.000000;0.823256
9885.000000;0.821965
9884.000000;0.821238
9883.000000;0.820632
9882.000000;0.819669
9881.000000;0.818219
9880.000000;0.816547
9879.000000;0.814979
9878.000000;0.813562
9877.000000;0.812086
9876.000000;0.810434
9875.000000;0.808822
9874.000000;0.807566
9873.000000;0.806676
9872.000000;0.805802
9871.000000;0.804614
9870.000000;0.803093
9869.000000;0.801448
9868.000000;0.799853
9867.000000;0.798373
9866.000000;0.797020
9865.000000;0.795769
9864.000000;0.794573
9863.000000;0.793440
9862.000000;0.792441
9861.000000;0.791532
9860.000000;0.790441
9859.000000;0.788871
9858.000000;0.786829
9857.000000;0.784645
9856.000000;0.782677
9855.000000;0.781073
9854.000000;0.779804
9853.000000;0.778751
9852.000000;0.777708
9851.000000;0.776468
9850.000000;0.775045
9849.000000;0.773746
9848.000000;0.772824
9847.000000;0.772047
9846.000000;0.770802
9845.000000;0.768750
9844.000000;0.766281
9843.000000;0.764130
9842.000000;0.762603
9841.000000;0.761336
9840.000000;0.759861
9839.000000;0.758178
9838.000000;0.756650
9837.000000;0.755500
9836.000000;0.754590
9835.000000;0.753631
9834.000000;0.752398
9833.000000;0.750796
9832.000000;0.748939
9831.000000;0.747179
9830.000000;0.745836
9829.000000;0.744796
9828.000000;0.743552
9827.000000;0.741751
9826.000000;0.739575
9825.000000;0.737464
9824.000000;0.735627
9823.000000;0.733974
9822.000000;0.732374
9821.000000;0.730802
9820.000000;0.729280
9819.000000;0.727850
9818.000000;0.726590
9817.000000;0.725502
9816.000000;0.724388
9815.000000;0.722992
9814.000000;0.721265
9813.000000;0.719377
9812.000000;0.717468
9811.000000;0.715545
9810.000000;0.713644
9809.000000;0.711913
9808.000000;0.710430
9807.000000;0.709028
9806.000000;0.707449
9805.000000;0.705642
9804.000000;0.703817
9803.000000;0.702204
9802.000000;0.700818
9801.000000;0.699467
9800.000000;0.697941
9799.000000;0.696189
9798.000000;0.694356
9797.000000;0.692693
9796.000000;0.691387
9795.000000;0.690402
9794.000000;0.689467
9793.000000;0.688289
9792.000000;0.686816
9791.000000;0.685243
9790.000000;0.683689
9789.000000;0.681959
9788.000000;0.679803
9787.000000;0.677402
9786.000000;0.675351
9785.000000;0.674001
9784.000000;0.672984
9783.000000;0.671607
9782.000000;0.669664
9781.000000;0.667603
9780.000000;0.665892
9779.000000;0.664498
9778.000000;0.663128
9777.000000;0.661693
9776.000000;0.660285
9775.000000;0.658810
9774.000000;0.657013
9773.000000;0.654915
9772.000000;0.652911
9771.000000;0.651291
9770.000000;0.649853
9769.000000;0.648215
9768.000000;0.646358
9767.000000;0.644602
9766.000000;0.643092
9765.000000;0.641618
9764.000000;0.639999
9763.000000;0.638377
9762.000000;0.636938
9761.000000;0.635529
9760.000000;0.633805
9759.000000;0.631715
9758.000000;0.629581
9757.000000;0.627703
9756.000000;0.626061
9755.000000;0.624477
9754.000000;0.622888
9753.000000;0.621346
9752.000000;0.619830
9751.000000;0.618184
9750.000000;0.616252
9749.000000;0.614024
9748.000000;0.611699
9747.000000;0.609589
9746.000000;0.607894
9745.000000;0.606523
9744.000000;0.605178
9743.000000;0.603614
9742.000000;0.601767
9741.000000;0.599684
9740.000000;0.597458
9739.000000;0.595293
9738.000000;0.593438
9737.000000;0.591938
9736.000000;0.590538
9735.000000;0.588991
9734.000000;0.587355
9733.000000;0.585831
9732.000000;0.584378
9731.000000;0.582720
9730.000000;0.580739
9729.000000;0.578658
9728.000000;0.576768
9727.000000;0.575103
9726.000000;0.573506
9725.000000;0.571853
9724.000000;0.570103
9723.000000;0.568215
9722.000000;0.566171
9721.000000;0.564080
9720.000000;0.562119
9719.000000;0.560364
9718.000000;0.558722
9717.000000;0.557033
9716.000000;0.555186
9715.000000;0.553175
9714.000000;0.551105
9713.000000;0.549123
9712.000000;0.547254
9711.000000;0.545312
9710.000000;0.543099
9709.000000;0.540699
9708.000000;0.538472
9707.000000;0.536645
9706.000000;0.535019
9705.000000;0.533180
9704.000000;0.530978
9703.000000;0.528663
9702.000000;0.526546
9701.000000;0.524650
9700.000000;0.522756
9699.000000;0.520734
9698.000000;0.518694
9697.000000;0.516841
9696.000000;0.515221
9695.000000;0.513672
9694.000000;0.511987
9693.000000;0.510107
9692.000000;0.508119
9691.000000;0.506117
9690.000000;0.504123
9689.000000;0.502166
9688.000000;0.500336
9687.000000;0.498672
9686.000000;0.497036
9685.000000;0.495204
9684.000000;0.493088
9683.000000;0.490787
9682.000000;0.488428
9681.000000;0.486075
9680.000000;0.483797
9679.000000;0.481700
9678.000000;0.479798
9677.000000;0.477972
9676.000000;0.476126
9675.000000;0.474296
9674.000000;0.472514
9673.000000;0.470674
9672.000000;0.468659
9671.000000;0.466528
9670.000000;0.464430
9669.000000;0.462381
9668.000000;0.460282
9667.000000;0.458137
9666.000000;0.456073
9665.000000;0.454118
9664.000000;0.452127
9663.000000;0.449999
9662.000000;0.447846
9661.000000;0.445840
9660.000000;0.443978
9659.000000;0.442093
9658.000000;0.440048
9657.000000;0.437817
9656.000000;0.435435
9655.000000;0.432959
9654.000000;0.430524
9653.000000;0.428343
9652.000000;0.426557
9651.000000;0.425051
9650.000000;0.423452
9649.000000;0.421413
9648.000000;0.418921
9647.000000;0.416285
9646.000000;0.413788
9645.000000;0.411436
9644.000000;0.409106
9643.000000;0.406801
9642.000000;0.404623
9641.000000;0.402573
9640.000000;0.400557
9639.000000;0.398569
9638.000000;0.396651
9637.000000;0.394652
9636.000000;0.392304
9635.000000;0.389645
9634.000000;0.387157
9633.000000;0.385231
9632.000000;0.383650
9631.000000;0.381840
9630.000000;0.379576
9629.000000;0.377178
9628.000000;0.374995
9627.000000;0.372974
9626.000000;0.370856
9625.000000;0.368607
9624.000000;0.366409
9623.000000;0.364317
9622.000000;0.362134
9621.000000;0.359694
9620.000000;0.357114
9619.000000;0.354652
9618.000000;0.352392
9617.000000;0.350172
9616.000000;0.347817
9615.000000;0.345347
9614.000000;0.342932
9613.000000;0.340702
9612.000000;0.338648
9611.000000;0.336634
9610.000000;0.334481
9609.000000;0.332082
9608.000000;0.329513
9607.000000;0.326976
9606.000000;0.324575
9605.000000;0.322201
9604.000000;0.319713
9603.000000;0.317187
9602.000000;0.314876
9601.000000;0.312922
9600.000000;0.311200
9599.000000;0.309448
9598.000000;0.307456
9597.000000;0.305130
9596.000000;0.302498
9595.000000;0.299720
9594.000000;0.297019
9593.000000;0.294555
9592.000000;0.292360
9591.000000;0.290369
9590.000000;0.288454
9589.000000;0.286455
9588.000000;0.284309
9587.000000;0.282157
9586.000000;0.280165
9585.000000;0.278242
9584.000000;0.276070
9583.000000;0.273489
9582.000000;0.270690
9581.000000;0.267950
9580.000000;0.265325
9579.000000;0.262729
9578.000000;0.260169
9577.000000;0.257724
9576.000000;0.255373
9575.000000;0.253001
9574.000000;0.250548
9573.000000;0.248026
9572.000000;0.245450
9571.000000;0.242894
9570.000000;0.240548
9569.000000;0.238539
9568.000000;0.236712
9567.000000;0.234768
9566.000000;0.232627
9565.000000;0.230473
9564.000000;0.228433
9563.000000;0.226386
9562.000000;0.224175
9561.000000;0.221818
9560.000000;0.219403
9559.000000;0.216913
9558.000000;0.214310
9557.000000;0.211698
9556.000000;0.209250
9555.000000;0.206999
9554.000000;0.204831
9553.000000;0.202659
9552.000000;0.200476
9551.000000;0.198219
9550.000000;0.195738
9549.000000;0.193005
9548.000000;0.190274
9547.000000;0.187899
9546.000000;0.185991
9545.000000;0.184323
9544.000000;0.182557
9543.000000;0.180514
9542.000000;0.178221
9541.000000;0.175810
9540.000000;0.173448
9539.000000;0.171276
9538.000000;0.169299
9537.000000;0.167345
9536.000000;0.165227
9535.000000;0.162951
9534.000000;0.160692
9533.000000;0.158557
9532.000000;0.156454
9531.000000;0.154221
9530.000000;0.151817
9529.000000;0.149346
9528.000000;0.146972
9527.000000;0.144828
9526.000000;0.142928
9525.000000;0.141126
9524.000000;0.139238
9523.000000;0.137242
9522.000000;0.135279
9521.000000;0.133428
9520.000000;0.131612
9519.000000;0.129782
9518.000000;0.128047
9517.000000;0.126475
9516.000000;0.124873
9515.000000;0.122967
9514.000000;0.120752
9513.000000;0.118518
9512.000000;0.116497
9511.000000;0.114638
9510.000000;0.112750
9509.000000;0.110738
9508.000000;0.108674
9507.000000;0.106721
9506.000000;0.105005
9505.000000;0.103480
9504.000000;0.101918
9503.000000;0.100142
9502.000000;0.098267
9501.000000;0.096597
9500.000000;0.095243
9499.000000;0.093965
9498.000000;0.092460
9497.000000;0.090689
9496.000000;0.088850
9495.000000;0.087112
9494.000000;0.085460
9493.000000;0.083797
9492.000000;0.082107
9491.000000;0.080515
9490.000000;0.079193
9489.000000;0.078185
9488.000000;0.077317
9487.000000;0.076323
9486.000000;0.075074
9485.000000;0.073646
9484.000000;0.072171
9483.000000;0.070676
9482.000000;0.069120
9481.000000;0.067519
9480.000000;0.066016
9479.000000;0.064797
9478.000000;0.063930
9477.000000;0.063269
9476.000000;0.062543
9475.000000;0.061607
9474.000000;0.060579
9473.000000;0.059666
9472.000000;0.058893
9471.000000;0.058078
9470.000000;0.057091
9469.000000;0.056008
9468.000000;0.055016
9467.000000;0.054252
9466.000000;0.053768
9465.000000;0.053515
9464.000000;0.053293
9463.000000;0.052820
9462.000000;0.051963
9461.000000;0.050894
9460.000000;0.049933
9459.000000;0.049258
9458.000000;0.048801
9457.000000;0.048391
9456.000000;0.047917
9455.000000;0.047366
9454.000000;0.046777
9453.000000;0.046188
9452.000000;0.045626
9451.000000;0.045116
9450.000000;0.044686
9449.000000;0.044380
9448.000000;0.044245
9447.000000;0.044315
9446.000000;0.044575
9445.000000;0.044901
9444.000000;0.045095
9443.000000;0.045029
9442.000000;0.044773
9441.000000;0.044522
9440.000000;0.044396
9439.000000;0.044374
9438.000000;0.044414
9437.000000;0.044542
9436.000000;0.044787
9435.000000;0.045087
9434.000000;0.045318
9433.000000;0.045405
9432.000000;0.045346
9431.000000;0.045181
9430.000000;0.044996
9429.000000;0.044926
9428.000000;0.045101
9427.000000;0.045546
9426.000000;0.046149
9425.000000;0.046753
9424.000000;0.047271
9423.000000;0.047722
9422.000000;0.048163
9421.000000;0.048615
9420.000000;0.049097
9419.000000;0.049667
9418.000000;0.050378
9417.000000;0.051148
9416.000000;0.051758
9415.000000;0.052072
9414.000000;0.052209
9413.000000;0.052448
9412.000000;0.052964
9411.000000;0.053726
9410.000000;0.054620
9409.000000;0.055587
9408.000000;0.056601
9407.000000;0.057600
9406.000000;0.058468
9405.000000;0.059105
9404.000000;0.059517
9403.000000;0.059854
9402.000000;0.060327
9401.000000;0.061035
9400.000000;0.061882
9399.000000;0.062709
9398.000000;0.063480
9397.000000;0.064298
9396.000000;0.065273
9395.000000;0.066434
9394.000000;0.067716
9393.000000;0.068965
9392.000000;0.069986
9391.000000;0.070702
9390.000000;0.071276
9389.000000;0.071983
9388.000000;0.072934
9387.000000;0.074007
9386.000000;0.075055
9385.000000;0.076063
9384.000000;0.077090
9383.000000;0.078169
9382.000000;0.079324
9381.000000;0.080582
9380.000000;0.081893
9379.000000;0.083110
9378.000000;0.084129
9377.000000;0.085017
9376.000000;0.085958
9375.000000;0.087097
9374.000000;0.088485
9373.000000;0.090079
9372.000000;0.091744
9371.000000;0.093271
9370.000000;0.094475
9369.000000;0.095304
9368.000000;0.095845
9367.000000;0.096290
9366.000000;0.096894
9365.000000;0.097875
9364.000000;0.099248
9363.000000;0.100780
9362.000000;0.102158
9361.000000;0.103231
9360.000000;0.104078
9359.000000;0.104895
9358.000000;0.105847
9357.000000;0.106981
9356.000000;0.108243
9355.000000;0.109555
9354.000000;0.110873
9353.000000;0.112135
9352.000000;0.113211
9351.000000;0.114038
9350.000000;0.114819
9349.000000;0.115931
9348.000000;0.117519
9347.000000;0.119278
9346.000000;0.120777
9345.000000;0.121929
9344.000000;0.123000
9343.000000;0.124202
9342.000000;0.125473
9341.000000;0.126655
9340.000000;0.127729
9339.000000;0.128792
9338.000000;0.129916
9337.000000;0.131137
9336.000000;0.132487
9335.000000;0.133939
9334.000000;0.135371
9333.000000;0.136647
9332.000000;0.137721
9331.000000;0.138638
9330.000000;0.139480
9329.000000;0.140366
9328.000000;0.141420
9327.000000;0.142668
9326.000000;0.144004
9325.000000;0.145314
9324.000000;0.146593
9323.000000;0.147865
9322.000000;0.149017
9321.000000;0.149859
9320.000000;0.150370
9319.000000;0.150831
9318.000000;0.151641
9317.000000;0.153017
9316.000000;0.154829
9315.000000;0.156673
9314.000000;0.158137
9313.000000;0.159103
9312.000000;0.159846
9311.000000;0.160781
9310.000000;0.162073
9309.000000;0.163507
9308.000000;0.164782
9307.000000;0.165841
9306.000000;0.166859
9305.000000;0.167988
9304.000000;0.169214
9303.000000;0.170464
9302.000000;0.171719
9301.000000;0.172970
9300.000000;0.174154
9299.000000;0.175224
9298.000000;0.176246
9297.000000;0.177355
9296.000000;0.178600
9295.000000;0.179888
9294.000000;0.181087
9293.000000;0.182133
9292.000000;0.183042
9291.000000;0.183863
9290.000000;0.184689
9289.000000;0.185646
9288.000000;0.186810
9287.000000;0.188101
9286.000000;0.189336
9285.000000;0.190410
9284.000000;0.191409
9283.000000;0.192497
9282.000000;0.193729
9281.000000;0.195005
9280.000000;0.196198
9279.000000;0.197250
9278.000000;0.198153
9277.000000;0.198891
9276.000000;0.199467
9275.000000;0.199970
9274.000000;0.200568
9273.000000;0.201416
9272.000000;0.202565
9271.000000;0.203914
9270.000000;0.205263
9269.000000;0.206437
9268.000000;0.207426
9267.000000;0.208370
9266.000000;0.209392
9265.000000;0.210466
9264.000000;0.211486
9263.000000;0.212434
9262.000000;0.213393
9261.000000;0.214407
9260.000000;0.215387
9259.000000;0.216226
9258.000000;0.216975
9257.000000;0.217833
9256.000000;0.218943
9255.000000;0.220228
9254.000000;0.221445
9253.000000;0.222410
9252.000000;0.223147
9251.000000;0.223811
9250.000000;0.224514
9249.000000;0.225245
9248.000000;0.225956
9247.000000;0.226657
9246.000000;0.227397
9245.000000;0.228198
9244.000000;0.229042
9243.000000;0.229908
9242.000000;0.230795
9241.000000;0.231704
9240.000000;0.232617
9239.000000;0.233485
9238.000000;0.234239
9237.000000;0.234873
9236.000000;0.235521
9235.000000;0.236377
9234.000000;0.237484
9233.000000;0.238667
9232.000000;0.239725
9231.000000;0.240640
9230.000000;0.241518
9229.000000;0.242403
9228.000000;0.243253
9227.000000;0.244078
9226.000000;0.244942
9225.000000;0.245812
9224.000000;0.246560
9223.000000;0.247161
9222.000000;0.247789
9221.000000;0.248634
9220.000000;0.249687
9219.000000;0.250772
9218.000000;0.251715
9217.000000;0.252444
9216.000000;0.253007
9215.000000;0.253563
9214.000000;0.254291
9213.000000;0.255234
9212.000000;0.256248
9211.000000;0.257157
9210.000000;0.257917
9209.000000;0.258581
9208.000000;0.259209
9207.000000;0.259869
9206.000000;0.260657
9205.000000;0.261609
9204.000000;0.262608
9203.000000;0.263491
9202.000000;0.264214
9201.000000;0.264837
9200.000000;0.265374
9199.000000;0.265792
9198.000000;0.266128
9197.000000;0.266472
9196.000000;0.266845
9195.000000;0.267216
9194.000000;0.267684
9193.000000;0.268480
9192.000000;0.269689
9191.000000;0.271063
9190.000000;0.272214
9189.000000;0.272952
9188.000000;0.273386
9187.000000;0.273738
9186.000000;0.274190
9185.000000;0.274852
9184.000000;0.275756
9183.000000;0.276813
9182.000000;0.277843
9181.000000;0.278703
9180.000000;0.279353
9179.000000;0.279829
9178.000000;0.280179
9177.000000;0.280464
9176.000000;0.280778
9175.000000;0.281204
9174.000000;0.281788
9173.000000;0.282535
9172.000000;0.283429
9171.000000;0.284403
9170.000000;0.285332
9169.000000;0.286098
9168.000000;0.286680
9167.000000;0.287146
9166.000000;0.287547
9165.000000;0.287877
9164.000000;0.288145
9163.000000;0.288450
9162.000000;0.288912
9161.000000;0.289519
9160.000000;0.290099
9159.000000;0.290501
9158.000000;0.290768
9157.000000;0.291121
9156.000000;0.291741
9155.000000;0.292597
9154.000000;0.293490
9153.000000;0.294263
9152.000000;0.294942
9151.000000;0.295664
9150.000000;0.296467
9149.000000;0.297217
9148.000000;0.297759
9147.000000;0.298117
9146.000000;0.298479
9145.000000;0.299002
9144.000000;0.299675
9143.000000;0.300370
9142.000000;0.300980
9141.000000;0.301493
9140.000000;0.301978
9139.000000;0.302525
9138.000000;0.303139
9137.000000;0.303698
9136.000000;0.304059
9135.000000;0.304231
9134.000000;0.304396
9133.000000;0.304704
9132.000000;0.305116
9131.000000;0.305496
9130.000000;0.305826
9129.000000;0.306247
9128.000000;0.306905
9127.000000;0.307788
9126.000000;0.308698
9125.000000;0.309377
9124.000000;0.309690
9123.000000;0.309760
9122.000000;0.309883
9121.000000;0.310249
9120.000000;0.310774
9119.000000;0.311243
9118.000000;0.311566
9117.000000;0.311817
9116.000000;0.312089
9115.000000;0.312436
9114.000000;0.312933
9113.000000;0.313639
9112.000000;0.314443
9111.000000;0.315091
9110.000000;0.315443
9109.000000;0.315624
9108.000000;0.315851
9107.000000;0.316175
9106.000000;0.316511
9105.000000;0.316837
9104.000000;0.317256
9103.000000;0.317835
9102.000000;0.318494
9101.000000;0.319082
9100.000000;0.319524
9099.000000;0.319873
9098.000000;0.320239
9097.000000;0.320700
9096.000000;0.321243
9095.000000;0.321779
9094.000000;0.322202
9093.000000;0.322476
9092.000000;0.322644
9091.000000;0.322810
9090.000000;0.323084
9089.000000;0.323516
9088.000000;0.324040
9087.000000;0.324514
9086.000000;0.324850
9085.000000;0.325088
9084.000000;0.325316
9083.000000;0.325563
9082.000000;0.325810
9081.000000;0.326065
9080.000000;0.326343
9079.000000;0.326581
9078.000000;0.326688
9077.000000;0.326708
9076.000000;0.326846
9075.000000;0.327260
9074.000000;0.327875
9073.000000;0.328467
9072.000000;0.328890
9071.000000;0.329161
9070.000000;0.329354
9069.000000;0.329513
9068.000000;0.329685
9067.000000;0.329936
9066.000000;0.330263
9065.000000;0.330573
9064.000000;0.330801
9063.000000;0.331028
9062.000000;0.331401
9061.000000;0.331939
9060.000000;0.332493
9059.000000;0.332898
9058.000000;0.333120
9057.000000;0.333238
9056.000000;0.333351
9055.000000;0.333532
9054.000000;0.333825
9053.000000;0.334216
