Criado como novo conjunto de dados;"0307_DANIEL.spp","7022.1 Secs"
cm-1;Abs
10000.000000;0.274947
9999.000000;0.273846
9998.000000;0.272804
9997.000000;0.271710
9996.000000;0.270485
9995.000000;0.269268
9994.000000;0.268235
9993.000000;0.267376
9992.000000;0.266483
9991.000000;0.265391
9990.000000;0.264112
9989.000000;0.262783
9988.000000;0.261531
9987.000000;0.260388
9986.000000;0.259286
9985.000000;0.258155
9984.000000;0.257033
9983.000000;0.256018
9982.000000;0.255060
9981.000000;0.253932
9980.000000;0.252501
9979.000000;0.250955
9978.000000;0.249618
9977.000000;0.248607
9976.000000;0.247767
9975.000000;0.246904
9974.000000;0.245933
9973.000000;0.244840
9972.000000;0.243661
9971.000000;0.242519
9970.000000;0.241553
9969.000000;0.240740
9968.000000;0.239899
9967.000000;0.238886
9966.000000;0.237720
9965.000000;0.236500
9964.000000;0.235309
9963.000000;0.234194
9962.000000;0.233160
9961.000000;0.232111
9960.000000;0.230900
9959.000000;0.229502
9958.000000;0.228085
9957.000000;0.226859
9956.000000;0.225884
9955.000000;0.225049
9954.000000;0.224193
9953.000000;0.223195
9952.000000;0.222026
9951.000000;0.220737
9950.000000;0.219418
9949.000000;0.218124
9948.000000;0.216870
9947.000000;0.215667
9946.000000;0.214526
9945.000000;0.213405
9944.000000;0.212215
9943.000000;0.210920
9942.000000;0.209604
9941.000000;0.208410
9940.000000;0.207398
9939.000000;0.206501
9938.000000;0.205578
9937.000000;0.204516
9936.000000;0.203285
9935.000000;0.201931
9934.000000;0.200547
9933.000000;0.199230
9932.000000;0.198035
9931.000000;0.196922
9930.000000;0.195784
9929.000000;0.194559
9928.000000;0.193316
9927.000000;0.192162
9926.000000;0.191076
9925.000000;0.189903
9924.000000;0.188533
9923.000000;0.187002
9922.000000;0.185410
9921.000000;0.183833
9920.000000;0.182373
9919.000000;0.181173
9918.000000;0.180276
9917.000000;0.179513
9916.000000;0.178651
9915.000000;0.177606
9914.000000;0.176429
9913.000000;0.175130
9912.000000;0.173674
9911.000000;0.172117
9910.000000;0.170634
9909.000000;0.169361
9908.000000;0.168297
9907.000000;0.167360
9906.000000;0.166446
9905.000000;0.165412
9904.000000;0.164135
9903.000000;0.162643
9902.000000;0.161143
9901.000000;0.159832
9900.000000;0.158729
9899.000000;0.157709
9898.000000;0.156652
9897.000000;0.155503
9896.000000;0.154228
9895.000000;0.152792
9894.000000;0.151207
9893.000000;0.149574
9892.000000;0.148067
9891.000000;0.146822
9890.000000;0.145803
9889.000000;0.144798
9888.000000;0.143591
9887.000000;0.142173
9886.000000;0.140746
9885.000000;0.139490
9884.000000;0.138369
9883.000000;0.137192
9882.000000;0.135841
9881.000000;0.134399
9880.000000;0.133030
9879.000000;0.131766
9878.000000;0.130489
9877.000000;0.129102
9876.000000;0.127687
9875.000000;0.126410
9874.000000;0.125317
9873.000000;0.124273
9872.000000;0.123125
9871.000000;0.121845
9870.000000;0.120485
9869.000000;0.119068
9868.000000;0.117593
9867.000000;0.116095
9866.000000;0.114635
9865.000000;0.113244
9864.000000;0.111922
9863.000000;0.110681
9862.000000;0.109517
9861.000000;0.108362
9860.000000;0.107104
9859.000000;0.105679
9858.000000;0.104124
9857.000000;0.102554
9856.000000;0.101105
9855.000000;0.099840
9854.000000;0.098701
9853.000000;0.097548
9852.000000;0.096282
9851.000000;0.094900
9850.000000;0.093454
9849.000000;0.091989
9848.000000;0.090540
9847.000000;0.089131
9846.000000;0.087736
9845.000000;0.086302
9844.000000;0.084838
9843.000000;0.083419
9842.000000;0.082072
9841.000000;0.080716
9840.000000;0.079287
9839.000000;0.077837
9838.000000;0.076457
9837.000000;0.075139
9836.000000;0.073813
9835.000000;0.072465
9834.000000;0.071141
9833.000000;0.069853
9832.000000;0.068569
9831.000000;0.067258
9830.000000;0.065878
9829.000000;0.064367
9828.000000;0.062714
9827.000000;0.061023
9826.000000;0.059415
9825.000000;0.057897
9824.000000;0.056413
9823.000000;0.054968
9822.000000;0.053616
9821.000000;0.052324
9820.000000;0.050992
9819.000000;0.049597
9818.000000;0.048201
9817.000000;0.046789
9816.000000;0.045244
9815.000000;0.043532
9814.000000;0.041825
9813.000000;0.040315
9812.000000;0.038979
9811.000000;0.037610
9810.000000;0.036078
9809.000000;0.034478
9808.000000;0.033008
9807.000000;0.031733
9806.000000;0.030495
9805.000000;0.029067
9804.000000;0.027376
9803.000000;0.025584
9802.000000;0.023920
9801.000000;0.022480
9800.000000;0.021171
9799.000000;0.019834
9798.000000;0.018374
9797.000000;0.016804
9796.000000;0.015212
9795.000000;0.013706
9794.000000;0.012328
9793.000000;0.011014
9792.000000;0.009645
9791.000000;0.008150
9790.000000;0.006543
9789.000000;0.004893
9788.000000;0.003265
9787.000000;0.001678
9786.000000;0.000095
9785.000000;-0.001525
9784.000000;-0.003162
9783.000000;-0.004745
9782.000000;-0.006264
9781.000000;-0.007811
9780.000000;-0.009455
9779.000000;-0.011137
9778.000000;-0.012744
9777.000000;-0.014254
9776.000000;-0.015744
9775.000000;-0.017271
9774.000000;-0.018825
9773.000000;-0.020382
9772.000000;-0.021926
9771.000000;-0.023434
9770.000000;-0.024913
9769.000000;-0.026432
9768.000000;-0.028072
9767.000000;-0.029811
9766.000000;-0.031539
9765.000000;-0.033176
9764.000000;-0.034726
9763.000000;-0.036213
9762.000000;-0.037658
9761.000000;-0.039134
9760.000000;-0.040749
9759.000000;-0.042529
9758.000000;-0.044358
9757.000000;-0.046085
9756.000000;-0.047667
9755.000000;-0.049173
9754.000000;-0.050683
9753.000000;-0.052243
9752.000000;-0.053876
9751.000000;-0.055593
9750.000000;-0.057366
9749.000000;-0.059139
9748.000000;-0.060868
9747.000000;-0.062561
9746.000000;-0.064264
9745.000000;-0.066012
9744.000000;-0.067784
9743.000000;-0.069520
9742.000000;-0.071196
9741.000000;-0.072861
9740.000000;-0.074597
9739.000000;-0.076425
9738.000000;-0.078270
9737.000000;-0.080023
9736.000000;-0.081631
9735.000000;-0.083143
9734.000000;-0.084674
9733.000000;-0.086317
9732.000000;-0.088067
9731.000000;-0.089854
9730.000000;-0.091626
9729.000000;-0.093387
9728.000000;-0.095168
9727.000000;-0.096975
9726.000000;-0.098797
9725.000000;-0.100614
9724.000000;-0.102384
9723.000000;-0.104062
9722.000000;-0.105655
9721.000000;-0.107242
9720.000000;-0.108897
9719.000000;-0.110635
9718.000000;-0.112427
9717.000000;-0.114253
9716.000000;-0.116099
9715.000000;-0.117953
9714.000000;-0.119810
9713.000000;-0.121685
9712.000000;-0.123574
9711.000000;-0.125435
9710.000000;-0.127246
9709.000000;-0.129044
9708.000000;-0.130876
9707.000000;-0.132737
9706.000000;-0.134586
9705.000000;-0.136398
9704.000000;-0.138178
9703.000000;-0.139941
9702.000000;-0.141709
9701.000000;-0.143501
9700.000000;-0.145312
9699.000000;-0.147111
9698.000000;-0.148895
9697.000000;-0.150698
9696.000000;-0.152525
9695.000000;-0.154329
9694.000000;-0.156091
9693.000000;-0.157871
9692.000000;-0.159740
9691.000000;-0.161685
9690.000000;-0.163644
9689.000000;-0.165597
9688.000000;-0.167568
9687.000000;-0.169553
9686.000000;-0.171510
9685.000000;-0.173415
9684.000000;-0.175283
9683.000000;-0.177143
9682.000000;-0.179022
9681.000000;-0.180950
9680.000000;-0.182933
9679.000000;-0.184935
9678.000000;-0.186915
9677.000000;-0.188868
9676.000000;-0.190820
9675.000000;-0.192788
9674.000000;-0.194772
9673.000000;-0.196764
9672.000000;-0.198754
9671.000000;-0.200745
9670.000000;-0.202768
9669.000000;-0.204834
9668.000000;-0.206870
9667.000000;-0.208778
9666.000000;-0.210589
9665.000000;-0.212489
9664.000000;-0.214609
9663.000000;-0.216867
9662.000000;-0.219064
9661.000000;-0.221124
9660.000000;-0.223134
9659.000000;-0.225187
9658.000000;-0.227261
9657.000000;-0.229269
9656.000000;-0.231167
9655.000000;-0.233006
9654.000000;-0.234892
9653.000000;-0.236883
9652.000000;-0.238909
9651.000000;-0.240845
9650.000000;-0.242679
9649.000000;-0.244563
9648.000000;-0.246631
9647.000000;-0.248834
9646.000000;-0.251007
9645.000000;-0.253066
9644.000000;-0.255050
9643.000000;-0.257026
9642.000000;-0.259036
9641.000000;-0.261122
9640.000000;-0.263292
9639.000000;-0.265484
9638.000000;-0.267609
9637.000000;-0.269664
9636.000000;-0.271714
9635.000000;-0.273796
9634.000000;-0.275906
9633.000000;-0.278059
9632.000000;-0.280277
9631.000000;-0.282506
9630.000000;-0.284626
9629.000000;-0.286590
9628.000000;-0.288515
9627.000000;-0.290578
9626.000000;-0.292863
9625.000000;-0.295279
9624.000000;-0.297627
9623.000000;-0.299752
9622.000000;-0.301685
9621.000000;-0.303607
9620.000000;-0.305647
9619.000000;-0.307764
9618.000000;-0.309861
9617.000000;-0.311984
9616.000000;-0.314261
9615.000000;-0.316698
9614.000000;-0.319125
9613.000000;-0.321386
9612.000000;-0.323498
9611.000000;-0.325582
9610.000000;-0.327729
9609.000000;-0.329946
9608.000000;-0.332179
9607.000000;-0.334349
9606.000000;-0.336426
9605.000000;-0.338488
9604.000000;-0.340655
9603.000000;-0.342951
9602.000000;-0.345281
9601.000000;-0.347555
9600.000000;-0.349776
9599.000000;-0.351969
9598.000000;-0.354110
9597.000000;-0.356191
9596.000000;-0.358283
9595.000000;-0.360483
9594.000000;-0.362792
9593.000000;-0.365125
9592.000000;-0.367419
9591.000000;-0.369687
9590.000000;-0.371965
9589.000000;-0.374243
9588.000000;-0.376480
9587.000000;-0.378661
9586.000000;-0.380826
9585.000000;-0.383032
9584.000000;-0.385293
9583.000000;-0.387586
9582.000000;-0.389893
9581.000000;-0.392211
9580.000000;-0.394507
9579.000000;-0.396721
9578.000000;-0.398859
9577.000000;-0.401042
9576.000000;-0.403377
9575.000000;-0.405804
9574.000000;-0.408129
9573.000000;-0.410250
9572.000000;-0.412281
9571.000000;-0.414426
9570.000000;-0.416765
9569.000000;-0.419205
9568.000000;-0.421606
9567.000000;-0.423898
9566.000000;-0.426086
9565.000000;-0.428200
9564.000000;-0.430274
9563.000000;-0.432379
9562.000000;-0.434610
9561.000000;-0.437006
9560.000000;-0.439483
9559.000000;-0.441869
9558.000000;-0.444051
9557.000000;-0.446072
9556.000000;-0.448071
9555.000000;-0.450145
9554.000000;-0.452302
9553.000000;-0.454515
9552.000000;-0.456777
9551.000000;-0.459087
9550.000000;-0.461422
9549.000000;-0.463740
9548.000000;-0.466001
9547.000000;-0.468182
9546.000000;-0.470276
9545.000000;-0.472288
9544.000000;-0.474229
9543.000000;-0.476117
9542.000000;-0.477999
9541.000000;-0.479954
9540.000000;-0.482041
9539.000000;-0.484261
9538.000000;-0.486559
9537.000000;-0.488860
9536.000000;-0.491101
9535.000000;-0.493256
9534.000000;-0.495361
9533.000000;-0.497476
9532.000000;-0.499621
9531.000000;-0.501749
9530.000000;-0.503792
9529.000000;-0.505719
9528.000000;-0.507521
9527.000000;-0.509209
9526.000000;-0.510857
9525.000000;-0.512608
9524.000000;-0.514586
9523.000000;-0.516783
9522.000000;-0.519069
9521.000000;-0.521298
9520.000000;-0.523386
9519.000000;-0.525332
9518.000000;-0.527194
9517.000000;-0.529030
9516.000000;-0.530823
9515.000000;-0.532510
9514.000000;-0.534095
9513.000000;-0.535713
9512.000000;-0.537491
9511.000000;-0.539405
9510.000000;-0.541324
9509.000000;-0.543169
9508.000000;-0.544943
9507.000000;-0.546627
9506.000000;-0.548171
9505.000000;-0.549606
9504.000000;-0.551084
9503.000000;-0.552745
9502.000000;-0.554577
9501.000000;-0.556450
9500.000000;-0.558254
9499.000000;-0.559965
9498.000000;-0.561610
9497.000000;-0.563194
9496.000000;-0.564678
9495.000000;-0.566024
9494.000000;-0.567265
9493.000000;-0.568485
9492.000000;-0.569740
9491.000000;-0.571005
9490.000000;-0.572239
9489.000000;-0.573450
9488.000000;-0.574647
9487.000000;-0.575780
9486.000000;-0.576805
9485.000000;-0.577802
9484.000000;-0.578928
9483.000000;-0.580233
9482.000000;-0.581596
9481.000000;-0.582844
9480.000000;-0.583895
9479.000000;-0.584776
9478.000000;-0.585582
9477.000000;-0.586451
9476.000000;-0.587495
9475.000000;-0.588685
9474.000000;-0.589854
9473.000000;-0.590853
9472.000000;-0.591677
9471.000000;-0.592420
9470.000000;-0.593162
9469.000000;-0.593962
9468.000000;-0.594890
9467.000000;-0.595962
9466.000000;-0.597025
9465.000000;-0.597817
9464.000000;-0.598201
9463.000000;-0.598324
9462.000000;-0.598508
9461.000000;-0.598960
9460.000000;-0.599613
9459.000000;-0.600260
9458.000000;-0.600797
9457.000000;-0.601304
9456.000000;-0.601886
9455.000000;-0.602511
9454.000000;-0.603028
9453.000000;-0.603326
9452.000000;-0.603429
9451.000000;-0.603459
9450.000000;-0.603555
9449.000000;-0.603780
9448.000000;-0.604070
9447.000000;-0.604268
9446.000000;-0.604257
9445.000000;-0.604068
9444.000000;-0.603827
9443.000000;-0.603643
9442.000000;-0.603581
9441.000000;-0.603659
9440.000000;-0.603812
9439.000000;-0.603891
9438.000000;-0.603804
9437.000000;-0.603645
9436.000000;-0.603563
9435.000000;-0.603532
9434.000000;-0.603351
9433.000000;-0.602917
9432.000000;-0.602379
9431.000000;-0.601959
9430.000000;-0.601707
9429.000000;-0.601497
9428.000000;-0.601194
9427.000000;-0.600745
9426.000000;-0.600170
9425.000000;-0.599538
9424.000000;-0.598946
9423.000000;-0.598456
9422.000000;-0.598045
9421.000000;-0.597632
9420.000000;-0.597147
9419.000000;-0.596565
9418.000000;-0.595910
9417.000000;-0.595262
9416.000000;-0.594703
9415.000000;-0.594225
9414.000000;-0.593722
9413.000000;-0.593104
9412.000000;-0.592391
9411.000000;-0.591649
9410.000000;-0.590895
9409.000000;-0.590109
9408.000000;-0.589309
9407.000000;-0.588547
9406.000000;-0.587826
9405.000000;-0.587074
9404.000000;-0.586216
9403.000000;-0.585236
9402.000000;-0.584174
9401.000000;-0.583080
9400.000000;-0.581984
9399.000000;-0.580905
9398.000000;-0.579873
9397.000000;-0.578937
9396.000000;-0.578117
9395.000000;-0.577367
9394.000000;-0.576599
9393.000000;-0.575755
9392.000000;-0.574804
9391.000000;-0.573716
9390.000000;-0.572501
9389.000000;-0.571270
9388.000000;-0.570175
9387.000000;-0.569236
9386.000000;-0.568286
9385.000000;-0.567156
9384.000000;-0.565871
9383.000000;-0.564587
9382.000000;-0.563388
9381.000000;-0.562233
9380.000000;-0.561085
9379.000000;-0.560000
9378.000000;-0.559026
9377.000000;-0.558087
9376.000000;-0.557037
9375.000000;-0.555828
9374.000000;-0.554556
9373.000000;-0.553323
9372.000000;-0.552111
9371.000000;-0.550829
9370.000000;-0.549466
9369.000000;-0.548138
9368.000000;-0.546957
9367.000000;-0.545906
9366.000000;-0.544859
9365.000000;-0.543727
9364.000000;-0.542539
9363.000000;-0.541367
9362.000000;-0.540206
9361.000000;-0.538961
9360.000000;-0.537550
9359.000000;-0.536023
9358.000000;-0.534543
9357.000000;-0.533252
9356.000000;-0.532137
9355.000000;-0.531059
9354.000000;-0.529896
9353.000000;-0.528630
9352.000000;-0.527308
9351.000000;-0.525980
9350.000000;-0.524692
9349.000000;-0.523483
9348.000000;-0.522344
9347.000000;-0.521199
9346.000000;-0.519984
9345.000000;-0.518694
9344.000000;-0.517362
9343.000000;-0.516007
9342.000000;-0.514664
9341.000000;-0.513397
9340.000000;-0.512218
9339.000000;-0.511042
9338.000000;-0.509786
9337.000000;-0.508491
9336.000000;-0.507268
9335.000000;-0.506131
9334.000000;-0.504964
9333.000000;-0.503675
9332.000000;-0.502304
9331.000000;-0.500964
9330.000000;-0.499725
9329.000000;-0.498580
9328.000000;-0.497462
9327.000000;-0.496290
9326.000000;-0.495010
9325.000000;-0.493643
9324.000000;-0.492253
9323.000000;-0.490896
9322.000000;-0.489605
9321.000000;-0.488404
9320.000000;-0.487293
9319.000000;-0.486206
9318.000000;-0.485043
9317.000000;-0.483769
9316.000000;-0.482427
9315.000000;-0.481080
9314.000000;-0.479770
9313.000000;-0.478533
9312.000000;-0.477404
9311.000000;-0.476366
9310.000000;-0.475332
9309.000000;-0.474193
9308.000000;-0.472892
9307.000000;-0.471458
9306.000000;-0.470011
9305.000000;-0.468696
9304.000000;-0.467571
9303.000000;-0.466550
9302.000000;-0.465499
9301.000000;-0.464374
9300.000000;-0.463216
9299.000000;-0.462049
9298.000000;-0.460843
9297.000000;-0.459592
9296.000000;-0.458342
9295.000000;-0.457124
9294.000000;-0.455912
9293.000000;-0.454682
9292.000000;-0.453467
9291.000000;-0.452310
9290.000000;-0.451198
9289.000000;-0.450069
9288.000000;-0.448879
9287.000000;-0.447644
9286.000000;-0.446444
9285.000000;-0.445352
9284.000000;-0.444351
9283.000000;-0.443321
9282.000000;-0.442165
9281.000000;-0.440931
9280.000000;-0.439769
9279.000000;-0.438764
9278.000000;-0.437855
9277.000000;-0.436928
9276.000000;-0.435912
9275.000000;-0.434802
9274.000000;-0.433634
9273.000000;-0.432471
9272.000000;-0.431356
9271.000000;-0.430253
9270.000000;-0.429084
9269.000000;-0.427858
9268.000000;-0.426691
9267.000000;-0.425684
9266.000000;-0.424798
9265.000000;-0.423909
9264.000000;-0.422927
9263.000000;-0.421838
9262.000000;-0.420662
9261.000000;-0.419433
9260.000000;-0.418228
9259.000000;-0.417147
9258.000000;-0.416235
9257.000000;-0.415430
9256.000000;-0.414591
9255.000000;-0.413618
9254.000000;-0.412541
9253.000000;-0.411478
9252.000000;-0.410495
9251.000000;-0.409541
9250.000000;-0.408539
9249.000000;-0.407512
9248.000000;-0.406556
9247.000000;-0.405699
9246.000000;-0.404867
9245.000000;-0.403979
9244.000000;-0.403042
9243.000000;-0.402115
9242.000000;-0.401224
9241.000000;-0.400341
9240.000000;-0.399416
9239.000000;-0.398404
9238.000000;-0.397302
9237.000000;-0.396168
9236.000000;-0.395101
9235.000000;-0.394171
9234.000000;-0.393365
9233.000000;-0.392606
9232.000000;-0.391801
9231.000000;-0.390890
9230.000000;-0.389886
9229.000000;-0.388862
9228.000000;-0.387885
9227.000000;-0.386955
9226.000000;-0.386047
9225.000000;-0.385164
9224.000000;-0.384329
9223.000000;-0.383510
9222.000000;-0.382646
9221.000000;-0.381736
9220.000000;-0.380856
9219.000000;-0.380050
9218.000000;-0.379273
9217.000000;-0.378461
9216.000000;-0.377623
9215.000000;-0.376819
9214.000000;-0.376070
9213.000000;-0.375341
9212.000000;-0.374588
9211.000000;-0.373786
9210.000000;-0.372923
9209.000000;-0.371998
9208.000000;-0.371049
9207.000000;-0.370137
9206.000000;-0.369313
9205.000000;-0.368570
9204.000000;-0.367856
9203.000000;-0.367116
9202.000000;-0.366345
9201.000000;-0.365586
9200.000000;-0.364851
9199.000000;-0.364077
9198.000000;-0.363187
9197.000000;-0.362199
9196.000000;-0.361241
9195.000000;-0.360415
9194.000000;-0.359688
9193.000000;-0.358947
9192.000000;-0.358148
9191.000000;-0.357363
9190.000000;-0.356679
9189.000000;-0.356077
9188.000000;-0.355444
9187.000000;-0.354686
9186.000000;-0.353804
9185.000000;-0.352877
9184.000000;-0.351996
9183.000000;-0.351229
9182.000000;-0.350591
9181.000000;-0.350025
9180.000000;-0.349410
9179.000000;-0.348664
9178.000000;-0.347846
9177.000000;-0.347109
9176.000000;-0.346537
9175.000000;-0.346046
9174.000000;-0.345486
9173.000000;-0.344782
9172.000000;-0.343975
9171.000000;-0.343142
9170.000000;-0.342336
9169.000000;-0.341575
9168.000000;-0.340849
9167.000000;-0.340124
9166.000000;-0.339378
9165.000000;-0.338630
9164.000000;-0.337918
9163.000000;-0.337265
9162.000000;-0.336678
9161.000000;-0.336162
9160.000000;-0.335691
9159.000000;-0.335197
9158.000000;-0.334619
9157.000000;-0.333963
9156.000000;-0.333275
9155.000000;-0.332585
9154.000000;-0.331895
9153.000000;-0.331227
9152.000000;-0.330619
9151.000000;-0.330070
9150.000000;-0.329524
9149.000000;-0.328937
9148.000000;-0.328319
9147.000000;-0.327718
9146.000000;-0.327152
9145.000000;-0.326584
9144.000000;-0.325960
9143.000000;-0.325269
9142.000000;-0.324556
9141.000000;-0.323883
9140.000000;-0.323266
9139.000000;-0.322680
9138.000000;-0.322107
9137.000000;-0.321552
9136.000000;-0.321014
9135.000000;-0.320480
9134.000000;-0.319961
9133.000000;-0.319479
9132.000000;-0.319012
9131.000000;-0.318485
9130.000000;-0.317859
9129.000000;-0.317191
9128.000000;-0.316569
9127.000000;-0.316013
9126.000000;-0.315477
9125.000000;-0.314928
9124.000000;-0.314368
9123.000000;-0.313823
9122.000000;-0.313343
9121.000000;-0.312985
9120.000000;-0.312748
9119.000000;-0.312518
9118.000000;-0.312145
9117.000000;-0.311577
9116.000000;-0.310897
9115.000000;-0.310222
9114.000000;-0.309607
9113.000000;-0.309034
9112.000000;-0.308464
9111.000000;-0.307874
9110.000000;-0.307283
9109.000000;-0.306735
9108.000000;-0.306262
9107.000000;-0.305848
9106.000000;-0.305442
9105.000000;-0.304990
9104.000000;-0.304463
9103.000000;-0.303879
9102.000000;-0.303302
9101.000000;-0.302805
9100.000000;-0.302395
9099.000000;-0.302013
9098.000000;-0.301616
9097.000000;-0.301210
9096.000000;-0.300806
9095.000000;-0.300377
9094.000000;-0.299913
9093.000000;-0.299443
9092.000000;-0.298987
9091.000000;-0.298516
9090.000000;-0.298025
9089.000000;-0.297596
9088.000000;-0.297305
9087.000000;-0.297100
9086.000000;-0.296838
