Criado como novo conjunto de dados;"0307_DANIEL.spp","34563.8 Secs"
cm-1;Abs
10000.000000;1.146816
9999.000000;1.145054
9998.000000;1.143284
9997.000000;1.141548
9996.000000;1.139753
9995.000000;1.138293
9994.000000;1.137595
9993.000000;1.137359
9992.000000;1.136926
9991.000000;1.135764
9990.000000;1.133900
9989.000000;1.131869
9988.000000;1.130263
9987.000000;1.129209
9986.000000;1.128347
9985.000000;1.127355
9984.000000;1.126288
9983.000000;1.125267
9982.000000;1.124160
9981.000000;1.122857
9980.000000;1.121609
9979.000000;1.120709
9978.000000;1.119964
9977.000000;1.118929
9976.000000;1.117600
9975.000000;1.116418
9974.000000;1.115569
9973.000000;1.114686
9972.000000;1.113371
9971.000000;1.111667
9970.000000;1.109863
9969.000000;1.108131
9968.000000;1.106492
9967.000000;1.104941
9966.000000;1.103448
9965.000000;1.101976
9964.000000;1.100546
9963.000000;1.099180
9962.000000;1.097803
9961.000000;1.096368
9960.000000;1.094991
9959.000000;1.093748
9958.000000;1.092443
9957.000000;1.090902
9956.000000;1.089422
9955.000000;1.088527
9954.000000;1.088255
9953.000000;1.088051
9952.000000;1.087404
9951.000000;1.086245
9950.000000;1.084692
9949.000000;1.082892
9948.000000;1.081247
9947.000000;1.080313
9946.000000;1.080147
9945.000000;1.080053
9944.000000;1.079290
9943.000000;1.077790
9942.000000;1.075964
9941.000000;1.074096
9940.000000;1.072233
9939.000000;1.070435
9938.000000;1.068787
9937.000000;1.067292
9936.000000;1.065998
9935.000000;1.065067
9934.000000;1.064495
9933.000000;1.063921
9932.000000;1.062961
9931.000000;1.061630
9930.000000;1.060240
9929.000000;1.058993
9928.000000;1.057912
9927.000000;1.056976
9926.000000;1.056046
9925.000000;1.054809
9924.000000;1.053084
9923.000000;1.051122
9922.000000;1.049308
9921.000000;1.047666
9920.000000;1.045948
9919.000000;1.044177
9918.000000;1.042740
9917.000000;1.041883
9916.000000;1.041423
9915.000000;1.041016
9914.000000;1.040436
9913.000000;1.039466
9912.000000;1.037849
9911.000000;1.035638
9910.000000;1.033437
9909.000000;1.031980
9908.000000;1.031401
9907.000000;1.031100
9906.000000;1.030329
9905.000000;1.028792
9904.000000;1.026658
9903.000000;1.024242
9902.000000;1.021861
9901.000000;1.019903
9900.000000;1.018756
9899.000000;1.018489
9898.000000;1.018630
9897.000000;1.018380
9896.000000;1.017183
9895.000000;1.015174
9894.000000;1.013049
9893.000000;1.011433
9892.000000;1.010280
9891.000000;1.008964
9890.000000;1.006993
9889.000000;1.004578
9888.000000;1.002364
9887.000000;1.000749
9886.000000;0.999670
9885.000000;0.998929
9884.000000;0.998358
9883.000000;0.997654
9882.000000;0.996463
9881.000000;0.994861
9880.000000;0.993402
9879.000000;0.992407
9878.000000;0.991470
9877.000000;0.990027
9876.000000;0.988191
9875.000000;0.986607
9874.000000;0.985565
9873.000000;0.984689
9872.000000;0.983463
9871.000000;0.981688
9870.000000;0.979437
9869.000000;0.976970
9868.000000;0.974785
9867.000000;0.973321
9866.000000;0.972465
9865.000000;0.971632
9864.000000;0.970468
9863.000000;0.969155
9862.000000;0.967899
9861.000000;0.966530
9860.000000;0.964860
9859.000000;0.963088
9858.000000;0.961492
9857.000000;0.959934
9856.000000;0.958065
9855.000000;0.955922
9854.000000;0.953961
9853.000000;0.952472
9852.000000;0.951270
9851.000000;0.949992
9850.000000;0.948504
9849.000000;0.946917
9848.000000;0.945385
9847.000000;0.943972
9846.000000;0.942622
9845.000000;0.941211
9844.000000;0.939695
9843.000000;0.938242
9842.000000;0.937094
9841.000000;0.936233
9840.000000;0.935272
9839.000000;0.933805
9838.000000;0.931880
9837.000000;0.930013
9836.000000;0.928643
9835.000000;0.927632
9834.000000;0.926419
9833.000000;0.924682
9832.000000;0.922684
9831.000000;0.920902
9830.000000;0.919495
9829.000000;0.918271
9828.000000;0.917044
9827.000000;0.915795
9826.000000;0.914505
9825.000000;0.913069
9824.000000;0.911436
9823.000000;0.909678
9822.000000;0.907871
9821.000000;0.906038
9820.000000;0.904249
9819.000000;0.902637
9818.000000;0.901251
9817.000000;0.899970
9816.000000;0.898648
9815.000000;0.897219
9814.000000;0.895665
9813.000000;0.893999
9812.000000;0.892344
9811.000000;0.890880
9810.000000;0.889601
9809.000000;0.888227
9808.000000;0.886469
9807.000000;0.884349
9806.000000;0.882168
9805.000000;0.880186
9804.000000;0.878417
9803.000000;0.876736
9802.000000;0.875120
9801.000000;0.873708
9800.000000;0.872591
9799.000000;0.871581
9798.000000;0.870310
9797.000000;0.868617
9796.000000;0.866715
9795.000000;0.864885
9794.000000;0.863151
9793.000000;0.861425
9792.000000;0.859823
9791.000000;0.858545
9790.000000;0.857457
9789.000000;0.856093
9788.000000;0.854186
9787.000000;0.851986
9786.000000;0.849946
9785.000000;0.848274
9784.000000;0.846899
9783.000000;0.845695
9782.000000;0.844543
9781.000000;0.843280
9780.000000;0.841806
9779.000000;0.840183
9778.000000;0.838488
9777.000000;0.836628
9776.000000;0.834467
9775.000000;0.832109
9774.000000;0.829879
9773.000000;0.828006
9772.000000;0.826446
9771.000000;0.825063
9770.000000;0.823795
9769.000000;0.822533
9768.000000;0.820983
9767.000000;0.818918
9766.000000;0.816575
9765.000000;0.814534
9764.000000;0.813082
9763.000000;0.811845
9762.000000;0.810222
9761.000000;0.808064
9760.000000;0.805719
9759.000000;0.803539
9758.000000;0.801622
9757.000000;0.799985
9756.000000;0.798619
9755.000000;0.797259
9754.000000;0.795468
9753.000000;0.793178
9752.000000;0.790915
9751.000000;0.789251
9750.000000;0.788183
9749.000000;0.787249
9748.000000;0.786086
9747.000000;0.784644
9746.000000;0.782998
9745.000000;0.781231
9744.000000;0.779453
9743.000000;0.777709
9742.000000;0.775914
9741.000000;0.774032
9740.000000;0.772201
9739.000000;0.770546
9738.000000;0.768984
9737.000000;0.767391
9736.000000;0.765759
9735.000000;0.763978
9734.000000;0.761745
9733.000000;0.759073
9732.000000;0.756645
9731.000000;0.755163
9730.000000;0.754399
9729.000000;0.753338
9728.000000;0.751318
9727.000000;0.748628
9726.000000;0.745931
9725.000000;0.743562
9724.000000;0.741533
9723.000000;0.739772
9722.000000;0.738086
9721.000000;0.736204
9720.000000;0.734096
9719.000000;0.732042
9718.000000;0.730225
9717.000000;0.728505
9716.000000;0.726715
9715.000000;0.724932
9714.000000;0.723263
9713.000000;0.721625
9712.000000;0.719938
9711.000000;0.718276
9710.000000;0.716643
9709.000000;0.714835
9708.000000;0.712815
9707.000000;0.710982
9706.000000;0.709714
9705.000000;0.708754
9704.000000;0.707350
9703.000000;0.705003
9702.000000;0.701862
9701.000000;0.698472
9700.000000;0.695355
9699.000000;0.692820
9698.000000;0.690910
9697.000000;0.689412
9696.000000;0.688048
9695.000000;0.686677
9694.000000;0.685269
9693.000000;0.683736
9692.000000;0.681925
9691.000000;0.679763
9690.000000;0.677323
9689.000000;0.674765
9688.000000;0.672317
9687.000000;0.670225
9686.000000;0.668601
9685.000000;0.667282
9684.000000;0.665947
9683.000000;0.664365
9682.000000;0.662510
9681.000000;0.660452
9680.000000;0.658210
9679.000000;0.655786
9678.000000;0.653267
9677.000000;0.650837
9676.000000;0.648642
9675.000000;0.646622
9674.000000;0.644564
9673.000000;0.642362
9672.000000;0.640151
9671.000000;0.638086
9670.000000;0.636117
9669.000000;0.634119
9668.000000;0.632154
9667.000000;0.630369
9666.000000;0.628687
9665.000000;0.626850
9664.000000;0.624778
9663.000000;0.622628
9662.000000;0.620470
9661.000000;0.618183
9660.000000;0.615782
9659.000000;0.613509
9658.000000;0.611443
9657.000000;0.609273
9656.000000;0.606737
9655.000000;0.604080
9654.000000;0.601794
9653.000000;0.599988
9652.000000;0.598265
9651.000000;0.596183
9650.000000;0.593635
9649.000000;0.590856
9648.000000;0.588226
9647.000000;0.586044
9646.000000;0.584279
9645.000000;0.582559
9644.000000;0.580557
9643.000000;0.578356
9642.000000;0.576278
9641.000000;0.574391
9640.000000;0.572423
9639.000000;0.570163
9638.000000;0.567762
9637.000000;0.565506
9636.000000;0.563458
9635.000000;0.561431
9634.000000;0.559225
9633.000000;0.556817
9632.000000;0.554362
9631.000000;0.552061
9630.000000;0.549991
9629.000000;0.548035
9628.000000;0.546003
9627.000000;0.543804
9626.000000;0.541493
9625.000000;0.539181
9624.000000;0.536973
9623.000000;0.534925
9622.000000;0.532964
9621.000000;0.530867
9620.000000;0.528450
9619.000000;0.525805
9618.000000;0.523241
9617.000000;0.520960
9616.000000;0.518861
9615.000000;0.516710
9614.000000;0.514410
9613.000000;0.512044
9612.000000;0.509715
9611.000000;0.507445
9610.000000;0.505213
9609.000000;0.503010
9608.000000;0.500812
9607.000000;0.498574
9606.000000;0.496311
9605.000000;0.494141
9604.000000;0.492183
9603.000000;0.490349
9602.000000;0.488291
9601.000000;0.485681
9600.000000;0.482578
9599.000000;0.479457
9598.000000;0.476790
9597.000000;0.474638
9596.000000;0.472680
9595.000000;0.470613
9594.000000;0.468407
9593.000000;0.466206
9592.000000;0.464104
9591.000000;0.462065
9590.000000;0.459972
9589.000000;0.457658
9588.000000;0.455010
9587.000000;0.452136
9586.000000;0.449350
9585.000000;0.446858
9584.000000;0.444502
9583.000000;0.441988
9582.000000;0.439346
9581.000000;0.436955
9580.000000;0.435030
9579.000000;0.433308
9578.000000;0.431371
9577.000000;0.429130
9576.000000;0.426804
9575.000000;0.424532
9574.000000;0.422243
9573.000000;0.419875
9572.000000;0.417483
9571.000000;0.415083
9570.000000;0.412572
9569.000000;0.409861
9568.000000;0.407003
9567.000000;0.404147
9566.000000;0.401492
9565.000000;0.399258
9564.000000;0.397517
9563.000000;0.395992
9562.000000;0.394217
9561.000000;0.391978
9560.000000;0.389468
9559.000000;0.386939
9558.000000;0.384377
9557.000000;0.381640
9556.000000;0.378759
9555.000000;0.375938
9554.000000;0.373334
9553.000000;0.370969
9552.000000;0.368784
9551.000000;0.366675
9550.000000;0.364542
9549.000000;0.362391
9548.000000;0.360297
9547.000000;0.358239
9546.000000;0.356099
9545.000000;0.353933
9544.000000;0.352044
9543.000000;0.350595
9542.000000;0.349255
9541.000000;0.347453
9540.000000;0.344963
9539.000000;0.342069
9538.000000;0.339201
9537.000000;0.336609
9536.000000;0.334358
9535.000000;0.332412
9534.000000;0.330633
9533.000000;0.328816
9532.000000;0.326792
9531.000000;0.324488
9530.000000;0.321939
9529.000000;0.319330
9528.000000;0.316948
9527.000000;0.314941
9526.000000;0.313146
9525.000000;0.311281
9524.000000;0.309265
9523.000000;0.307237
9522.000000;0.305273
9521.000000;0.303299
9520.000000;0.301294
9519.000000;0.299373
9518.000000;0.297571
9517.000000;0.295699
9516.000000;0.293567
9515.000000;0.291269
9514.000000;0.289119
9513.000000;0.287311
9512.000000;0.285715
9511.000000;0.284038
9510.000000;0.282124
9509.000000;0.280079
9508.000000;0.278129
9507.000000;0.276413
9506.000000;0.274900
9505.000000;0.273410
9504.000000;0.271702
9503.000000;0.269619
9502.000000;0.267279
9501.000000;0.265055
9500.000000;0.263221
9499.000000;0.261665
9498.000000;0.260095
9497.000000;0.258520
9496.000000;0.257255
9495.000000;0.256383
9494.000000;0.255495
9493.000000;0.254126
9492.000000;0.252272
9491.000000;0.250252
9490.000000;0.248271
9489.000000;0.246404
9488.000000;0.244851
9487.000000;0.243841
9486.000000;0.243248
9485.000000;0.242598
9484.000000;0.241577
9483.000000;0.240305
9482.000000;0.239074
9481.000000;0.238026
9480.000000;0.237166
9479.000000;0.236465
9478.000000;0.235788
9477.000000;0.234857
9476.000000;0.233490
9475.000000;0.231832
9474.000000;0.230221
9473.000000;0.228858
9472.000000;0.227711
9471.000000;0.226731
9470.000000;0.225998
9469.000000;0.225567
9468.000000;0.225224
9467.000000;0.224574
9466.000000;0.223475
9465.000000;0.222294
9464.000000;0.221564
9463.000000;0.221343
9462.000000;0.221080
9461.000000;0.220218
9460.000000;0.218816
9459.000000;0.217475
9458.000000;0.216730
9457.000000;0.216644
9456.000000;0.216864
9455.000000;0.216914
9454.000000;0.216474
9453.000000;0.215602
9452.000000;0.214723
9451.000000;0.214236
9450.000000;0.214103
9449.000000;0.213922
9448.000000;0.213457
9447.000000;0.212954
9446.000000;0.212859
9445.000000;0.213267
9444.000000;0.213772
9443.000000;0.213870
9442.000000;0.213459
9441.000000;0.212910
9440.000000;0.212630
9439.000000;0.212645
9438.000000;0.212681
9437.000000;0.212587
9436.000000;0.212507
9435.000000;0.212604
9434.000000;0.212801
9433.000000;0.212919
9432.000000;0.212954
9431.000000;0.213060
9430.000000;0.213327
9429.000000;0.213741
9428.000000;0.214289
9427.000000;0.214955
9426.000000;0.215637
9425.000000;0.216212
9424.000000;0.216691
9423.000000;0.217176
9422.000000;0.217703
9421.000000;0.218228
9420.000000;0.218746
9419.000000;0.219275
9418.000000;0.219753
9417.000000;0.220065
9416.000000;0.220220
9415.000000;0.220385
9414.000000;0.220714
9413.000000;0.221213
9412.000000;0.221778
9411.000000;0.222309
9410.000000;0.222817
9409.000000;0.223451
9408.000000;0.224373
9407.000000;0.225514
9406.000000;0.226537
9405.000000;0.227164
9404.000000;0.227495
9403.000000;0.227871
9402.000000;0.228492
9401.000000;0.229315
9400.000000;0.230245
9399.000000;0.231211
9398.000000;0.232062
9397.000000;0.232637
9396.000000;0.233012
9395.000000;0.233537
9394.000000;0.234530
9393.000000;0.235991
9392.000000;0.237645
9391.000000;0.239165
9390.000000;0.240333
9389.000000;0.241112
9388.000000;0.241661
9387.000000;0.242241
9386.000000;0.243056
9385.000000;0.244142
9384.000000;0.245359
9383.000000;0.246435
9382.000000;0.247116
9381.000000;0.247432
9380.000000;0.247782
9379.000000;0.248640
9378.000000;0.250134
9377.000000;0.251960
9376.000000;0.253681
9375.000000;0.255019
9374.000000;0.255972
9373.000000;0.256784
9372.000000;0.257792
9371.000000;0.259117
9370.000000;0.260510
9369.000000;0.261614
9368.000000;0.262408
9367.000000;0.263216
9366.000000;0.264279
9365.000000;0.265494
9364.000000;0.266637
9363.000000;0.267694
9362.000000;0.268843
9361.000000;0.270179
9360.000000;0.271593
9359.000000;0.272904
9358.000000;0.274067
9357.000000;0.275202
9356.000000;0.276445
9355.000000;0.277773
9354.000000;0.279008
9353.000000;0.280008
9352.000000;0.280776
9351.000000;0.281397
9350.000000;0.281968
9349.000000;0.282640
9348.000000;0.283601
9347.000000;0.284890
9346.000000;0.286296
9345.000000;0.287571
9344.000000;0.288691
9343.000000;0.289820
9342.000000;0.291097
9341.000000;0.292561
9340.000000;0.294169
9339.000000;0.295754
9338.000000;0.297081
9337.000000;0.298121
9336.000000;0.299187
9335.000000;0.300609
9334.000000;0.302326
9333.000000;0.303989
9332.000000;0.305399
9331.000000;0.306637
9330.000000;0.307769
9329.000000;0.308694
9328.000000;0.309332
9327.000000;0.309788
9326.000000;0.310282
9325.000000;0.311032
9324.000000;0.312196
9323.000000;0.313729
9322.000000;0.315301
9321.000000;0.316529
9320.000000;0.317342
9319.000000;0.317997
9318.000000;0.318771
9317.000000;0.319790
9316.000000;0.321127
9315.000000;0.322783
9314.000000;0.324520
9313.000000;0.325939
9312.000000;0.326877
9311.000000;0.327585
9310.000000;0.328449
9309.000000;0.329637
9308.000000;0.331048
9307.000000;0.332472
9306.000000;0.333740
9305.000000;0.334850
9304.000000;0.335983
9303.000000;0.337285
9302.000000;0.338606
9301.000000;0.339605
9300.000000;0.340182
9299.000000;0.340676
9298.000000;0.341572
9297.000000;0.343083
9296.000000;0.345010
9295.000000;0.346881
9294.000000;0.348244
9293.000000;0.348997
9292.000000;0.349488
9291.000000;0.350198
9290.000000;0.351277
9289.000000;0.352486
9288.000000;0.353534
9287.000000;0.354325
9286.000000;0.354930
9285.000000;0.355532
9284.000000;0.356382
9283.000000;0.357577
9282.000000;0.358851
9281.000000;0.359826
9280.000000;0.360512
9279.000000;0.361337
9278.000000;0.362599
9277.000000;0.364118
9276.000000;0.365515
9275.000000;0.366630
9274.000000;0.367543
9273.000000;0.368388
9272.000000;0.369300
9271.000000;0.370389
9270.000000;0.371589
9269.000000;0.372685
9268.000000;0.373595
9267.000000;0.374484
9266.000000;0.375479
9265.000000;0.376450
9264.000000;0.377223
9263.000000;0.377907
9262.000000;0.378813
9261.000000;0.380106
9260.000000;0.381632
9259.000000;0.383021
9258.000000;0.383908
9257.000000;0.384187
9256.000000;0.384186
9255.000000;0.384472
9254.000000;0.385362
9253.000000;0.386694
9252.000000;0.388103
9251.000000;0.389372
9250.000000;0.390422
9249.000000;0.391166
9248.000000;0.391613
9247.000000;0.392012
9246.000000;0.392675
9245.000000;0.393674
9244.000000;0.394857
9243.000000;0.396103
9242.000000;0.397394
9241.000000;0.398659
9240.000000;0.399742
9239.000000;0.400562
9238.000000;0.401172
9237.000000;0.401665
9236.000000;0.402095
9235.000000;0.402508
9234.000000;0.402969
9233.000000;0.403520
9232.000000;0.404184
9231.000000;0.405015
9230.000000;0.406061
9229.000000;0.407279
9228.000000;0.408498
9227.000000;0.409491
9226.000000;0.410123
9225.000000;0.410478
9224.000000;0.410873
9223.000000;0.411640
9222.000000;0.412833
9221.000000;0.414158
9220.000000;0.415259
9219.000000;0.416033
9218.000000;0.416629
9217.000000;0.417236
9216.000000;0.417936
9215.000000;0.418734
9214.000000;0.419611
9213.000000;0.420517
9212.000000;0.421364
9211.000000;0.422068
9210.000000;0.422605
9209.000000;0.423059
9208.000000;0.423590
9207.000000;0.424325
9206.000000;0.425247
9205.000000;0.426221
9204.000000;0.427129
9203.000000;0.427953
9202.000000;0.428744
9201.000000;0.429549
9200.000000;0.430365
9199.000000;0.431103
9198.000000;0.431604
9197.000000;0.431785
9196.000000;0.431798
9195.000000;0.431992
9194.000000;0.432660
9193.000000;0.433821
9192.000000;0.435229
9191.000000;0.436558
9190.000000;0.437611
9189.000000;0.438414
9188.000000;0.439117
9187.000000;0.439788
9186.000000;0.440352
9185.000000;0.440753
9184.000000;0.441080
9183.000000;0.441462
9182.000000;0.441930
9181.000000;0.442482
9180.000000;0.443183
9179.000000;0.444027
9178.000000;0.444793
9177.000000;0.445274
9176.000000;0.445613
9175.000000;0.446179
9174.000000;0.447084
9173.000000;0.448066
9172.000000;0.448888
9171.000000;0.449622
9170.000000;0.450401
9169.000000;0.451121
9168.000000;0.451597
9167.000000;0.451899
9166.000000;0.452317
9165.000000;0.453024
9164.000000;0.453888
9163.000000;0.454629
9162.000000;0.455066
9161.000000;0.455244
9160.000000;0.455383
9159.000000;0.455698
9158.000000;0.456256
9157.000000;0.456994
9156.000000;0.457832
9155.000000;0.458667
9154.000000;0.459309
9153.000000;0.459583
9152.000000;0.459565
9151.000000;0.459577
9150.000000;0.459900
9149.000000;0.460577
9148.000000;0.461503
9147.000000;0.462547
9146.000000;0.463534
9145.000000;0.464280
9144.000000;0.464755
9143.000000;0.465107
9142.000000;0.465449
9141.000000;0.465739
9140.000000;0.465952
9139.000000;0.466215
9138.000000;0.466635
9137.000000;0.467120
9136.000000;0.467514
9135.000000;0.467850
9134.000000;0.468277
9133.000000;0.468819
9132.000000;0.469354
9131.000000;0.469828
9130.000000;0.470306
9129.000000;0.470813
9128.000000;0.471277
9127.000000;0.471658
9126.000000;0.472035
9125.000000;0.472469
9124.000000;0.472881
9123.000000;0.473160
9122.000000;0.473347
9121.000000;0.473628
9120.000000;0.474136
9119.000000;0.474816
9118.000000;0.475502
9117.000000;0.476080
9116.000000;0.476536
9115.000000;0.476891
9114.000000;0.477189
9113.000000;0.477543
9112.000000;0.478099
9111.000000;0.478861
9110.000000;0.479630
9109.000000;0.480185
9108.000000;0.480497
9107.000000;0.480716
9106.000000;0.480974
9105.000000;0.481298
9104.000000;0.481643
9103.000000;0.481938
9102.000000;0.482135
9101.000000;0.482293
9100.000000;0.482557
9099.000000;0.482956
9098.000000;0.483313
9097.000000;0.483488
9096.000000;0.483639
9095.000000;0.484059
9094.000000;0.484790
9093.000000;0.485577
9092.000000;0.486207
9091.000000;0.486714
9090.000000;0.487200
9089.000000;0.487660
9088.000000;0.488030
9087.000000;0.488275
9086.000000;0.488356
9085.000000;0.488271
9084.000000;0.488174
9083.000000;0.488299
9082.000000;0.488693
9081.000000;0.489148
9080.000000;0.489474
9079.000000;0.489712
9078.000000;0.490009
9077.000000;0.490408
9076.000000;0.490877
9075.000000;0.491410
9074.000000;0.491994
9073.000000;0.492540
9072.000000;0.492943
9071.000000;0.493153
9070.000000;0.493165
9069.000000;0.493037
9068.000000;0.492950
9067.000000;0.493128
9066.000000;0.493634
9065.000000;0.494346
9064.000000;0.495147
9063.000000;0.495979
9062.000000;0.496662
9061.000000;0.496897
9060.000000;0.496606
9059.000000;0.496122
9058.000000;0.495864
9057.000000;0.495943
9056.000000;0.496224
9055.000000;0.496636
9054.000000;0.497182
9053.000000;0.497731
