Criado como novo conjunto de dados;"0307_DANIEL.spp","16922.9 Secs"
cm-1;Abs
10000.000000;0.880535
9999.000000;0.879341
9998.000000;0.878021
9997.000000;0.876543
9996.000000;0.875084
9995.000000;0.873891
9994.000000;0.873067
9993.000000;0.872457
9992.000000;0.871785
9991.000000;0.870888
9990.000000;0.869795
9989.000000;0.868631
9988.000000;0.867500
9987.000000;0.866432
9986.000000;0.865355
9985.000000;0.864150
9984.000000;0.862811
9983.000000;0.861551
9982.000000;0.860596
9981.000000;0.859854
9980.000000;0.858939
9979.000000;0.857629
9978.000000;0.856161
9977.000000;0.854935
9976.000000;0.854003
9975.000000;0.853029
9974.000000;0.851741
9973.000000;0.850249
9972.000000;0.848843
9971.000000;0.847629
9970.000000;0.846466
9969.000000;0.845175
9968.000000;0.843695
9967.000000;0.842062
9966.000000;0.840397
9965.000000;0.838893
9964.000000;0.837714
9963.000000;0.836827
9962.000000;0.836015
9961.000000;0.835074
9960.000000;0.833972
9959.000000;0.832783
9958.000000;0.831551
9957.000000;0.830262
9956.000000;0.828919
9955.000000;0.827538
9954.000000;0.826090
9953.000000;0.824527
9952.000000;0.822894
9951.000000;0.821359
9950.000000;0.820097
9949.000000;0.819171
9948.000000;0.818511
9947.000000;0.817972
9946.000000;0.817395
9945.000000;0.816666
9944.000000;0.815736
9943.000000;0.814603
9942.000000;0.813251
9941.000000;0.811665
9940.000000;0.809899
9939.000000;0.808104
9938.000000;0.806456
9937.000000;0.805027
9936.000000;0.803760
9935.000000;0.802575
9934.000000;0.801477
9933.000000;0.800521
9932.000000;0.799688
9931.000000;0.798856
9930.000000;0.797925
9929.000000;0.796909
9928.000000;0.795850
9927.000000;0.794692
9926.000000;0.793334
9925.000000;0.791773
9924.000000;0.790105
9923.000000;0.788394
9922.000000;0.786659
9921.000000;0.785006
9920.000000;0.783587
9919.000000;0.782378
9918.000000;0.781165
9917.000000;0.779845
9916.000000;0.778597
9915.000000;0.777567
9914.000000;0.776535
9913.000000;0.775114
9912.000000;0.773253
9911.000000;0.771304
9910.000000;0.769587
9909.000000;0.768117
9908.000000;0.766834
9907.000000;0.765846
9906.000000;0.765282
9905.000000;0.764952
9904.000000;0.764363
9903.000000;0.763100
9902.000000;0.761200
9901.000000;0.759141
9900.000000;0.757455
9899.000000;0.756285
9898.000000;0.755301
9897.000000;0.754128
9896.000000;0.752819
9895.000000;0.751763
9894.000000;0.751089
9893.000000;0.750356
9892.000000;0.748988
9891.000000;0.746916
9890.000000;0.744650
9889.000000;0.742735
9888.000000;0.741307
9887.000000;0.740157
9886.000000;0.739046
9885.000000;0.737889
9884.000000;0.736724
9883.000000;0.735608
9882.000000;0.734523
9881.000000;0.733330
9880.000000;0.731839
9879.000000;0.729998
9878.000000;0.728023
9877.000000;0.726271
9876.000000;0.724932
9875.000000;0.723867
9874.000000;0.722757
9873.000000;0.721417
9872.000000;0.719932
9871.000000;0.718507
9870.000000;0.717244
9869.000000;0.716092
9868.000000;0.714936
9867.000000;0.713671
9866.000000;0.712228
9865.000000;0.710592
9864.000000;0.708821
9863.000000;0.707022
9862.000000;0.705295
9861.000000;0.703729
9860.000000;0.702385
9859.000000;0.701221
9858.000000;0.700044
9857.000000;0.698626
9856.000000;0.696942
9855.000000;0.695251
9854.000000;0.693880
9853.000000;0.692930
9852.000000;0.692170
9851.000000;0.691230
9850.000000;0.689891
9849.000000;0.688231
9848.000000;0.686489
9847.000000;0.684818
9846.000000;0.683197
9845.000000;0.681547
9844.000000;0.679874
9843.000000;0.678251
9842.000000;0.676701
9841.000000;0.675210
9840.000000;0.673813
9839.000000;0.672597
9838.000000;0.671568
9837.000000;0.670553
9836.000000;0.669283
9835.000000;0.667570
9834.000000;0.665435
9833.000000;0.663093
9832.000000;0.660857
9831.000000;0.658998
9830.000000;0.657631
9829.000000;0.656657
9828.000000;0.655797
9827.000000;0.654731
9826.000000;0.653317
9825.000000;0.651695
9824.000000;0.650120
9823.000000;0.648659
9822.000000;0.647147
9821.000000;0.645479
9820.000000;0.643816
9819.000000;0.642385
9818.000000;0.641152
9817.000000;0.639838
9816.000000;0.638260
9815.000000;0.636506
9814.000000;0.634757
9813.000000;0.633073
9812.000000;0.631414
9811.000000;0.629757
9810.000000;0.628095
9809.000000;0.626400
9808.000000;0.624665
9807.000000;0.622951
9806.000000;0.621342
9805.000000;0.619882
9804.000000;0.618589
9803.000000;0.617469
9802.000000;0.616441
9801.000000;0.615305
9800.000000;0.613902
9799.000000;0.612290
9798.000000;0.610687
9797.000000;0.609234
9796.000000;0.607869
9795.000000;0.606444
9794.000000;0.604875
9793.000000;0.603155
9792.000000;0.601320
9791.000000;0.599489
9790.000000;0.597846
9789.000000;0.596457
9788.000000;0.595090
9787.000000;0.593371
9786.000000;0.591165
9785.000000;0.588738
9784.000000;0.586498
9783.000000;0.584635
9782.000000;0.583074
9781.000000;0.581660
9780.000000;0.580268
9779.000000;0.578786
9778.000000;0.577169
9777.000000;0.575540
9776.000000;0.574093
9775.000000;0.572843
9774.000000;0.571560
9773.000000;0.570027
9772.000000;0.568284
9771.000000;0.566531
9770.000000;0.564878
9769.000000;0.563264
9768.000000;0.561567
9767.000000;0.559711
9766.000000;0.557700
9765.000000;0.555631
9764.000000;0.553669
9763.000000;0.551942
9762.000000;0.550451
9761.000000;0.549111
9760.000000;0.547827
9759.000000;0.546475
9758.000000;0.544877
9757.000000;0.542895
9756.000000;0.540590
9755.000000;0.538212
9754.000000;0.536045
9753.000000;0.534240
9752.000000;0.532758
9751.000000;0.531378
9750.000000;0.529798
9749.000000;0.527862
9748.000000;0.525723
9747.000000;0.523718
9746.000000;0.522037
9745.000000;0.520555
9744.000000;0.518995
9743.000000;0.517235
9742.000000;0.515400
9741.000000;0.513672
9740.000000;0.512064
9739.000000;0.510417
9738.000000;0.508603
9737.000000;0.506694
9736.000000;0.504871
9735.000000;0.503217
9734.000000;0.501633
9733.000000;0.499967
9732.000000;0.498169
9731.000000;0.496294
9730.000000;0.494419
9729.000000;0.492595
9728.000000;0.490852
9727.000000;0.489181
9726.000000;0.487528
9725.000000;0.485829
9724.000000;0.484058
9723.000000;0.482223
9722.000000;0.480353
9721.000000;0.478474
9720.000000;0.476586
9719.000000;0.474654
9718.000000;0.472676
9717.000000;0.470726
9716.000000;0.468899
9715.000000;0.467209
9714.000000;0.465580
9713.000000;0.463933
9712.000000;0.462221
9711.000000;0.460401
9710.000000;0.458476
9709.000000;0.456548
9708.000000;0.454725
9707.000000;0.452967
9706.000000;0.451136
9705.000000;0.449205
9704.000000;0.447288
9703.000000;0.445407
9702.000000;0.443389
9701.000000;0.441095
9700.000000;0.438628
9699.000000;0.436248
9698.000000;0.434143
9697.000000;0.432353
9696.000000;0.430777
9695.000000;0.429180
9694.000000;0.427320
9693.000000;0.425204
9692.000000;0.423129
9691.000000;0.421342
9690.000000;0.419737
9689.000000;0.418010
9688.000000;0.415998
9687.000000;0.413746
9686.000000;0.411343
9685.000000;0.408912
9684.000000;0.406691
9683.000000;0.404895
9682.000000;0.403434
9681.000000;0.401944
9680.000000;0.400165
9679.000000;0.398186
9678.000000;0.396266
9677.000000;0.394489
9676.000000;0.392669
9675.000000;0.390555
9674.000000;0.388088
9673.000000;0.385493
9672.000000;0.383092
9671.000000;0.381018
9670.000000;0.379135
9669.000000;0.377245
9668.000000;0.375280
9667.000000;0.373258
9666.000000;0.371143
9665.000000;0.368907
9664.000000;0.366667
9663.000000;0.364609
9662.000000;0.362762
9661.000000;0.360945
9660.000000;0.358965
9659.000000;0.356785
9658.000000;0.354504
9657.000000;0.352246
9656.000000;0.350072
9655.000000;0.347951
9654.000000;0.345823
9653.000000;0.343691
9652.000000;0.341600
9651.000000;0.339508
9650.000000;0.337286
9649.000000;0.334916
9648.000000;0.332544
9647.000000;0.330235
9646.000000;0.327815
9645.000000;0.325163
9644.000000;0.322539
9643.000000;0.320340
9642.000000;0.318551
9641.000000;0.316714
9640.000000;0.314521
9639.000000;0.312201
9638.000000;0.310181
9637.000000;0.308540
9636.000000;0.306965
9635.000000;0.305146
9634.000000;0.303052
9633.000000;0.300845
9632.000000;0.298667
9631.000000;0.296534
9630.000000;0.294371
9629.000000;0.292118
9628.000000;0.289814
9627.000000;0.287560
9626.000000;0.285382
9625.000000;0.283164
9624.000000;0.280772
9623.000000;0.278234
9622.000000;0.275764
9621.000000;0.273588
9620.000000;0.271720
9619.000000;0.269919
9618.000000;0.267870
9617.000000;0.265453
9616.000000;0.262836
9615.000000;0.260303
9614.000000;0.258001
9613.000000;0.255861
9612.000000;0.253681
9611.000000;0.251298
9610.000000;0.248731
9609.000000;0.246202
9608.000000;0.243956
9607.000000;0.242022
9606.000000;0.240191
9605.000000;0.238253
9604.000000;0.236154
9603.000000;0.233901
9602.000000;0.231453
9601.000000;0.228832
9600.000000;0.226223
9599.000000;0.223797
9598.000000;0.221494
9597.000000;0.219145
9596.000000;0.216777
9595.000000;0.214591
9594.000000;0.212645
9593.000000;0.210722
9592.000000;0.208590
9591.000000;0.206240
9590.000000;0.203791
9589.000000;0.201283
9588.000000;0.198691
9587.000000;0.196079
9586.000000;0.193605
9585.000000;0.191356
9584.000000;0.189257
9583.000000;0.187170
9582.000000;0.185017
9581.000000;0.182797
9580.000000;0.180510
9579.000000;0.178144
9578.000000;0.175755
9577.000000;0.173480
9576.000000;0.171394
9575.000000;0.169375
9574.000000;0.167183
9573.000000;0.164688
9572.000000;0.161961
9571.000000;0.159168
9570.000000;0.156461
9569.000000;0.153953
9568.000000;0.151657
9567.000000;0.149441
9566.000000;0.147160
9565.000000;0.144888
9564.000000;0.142835
9563.000000;0.140986
9562.000000;0.138975
9561.000000;0.136480
9560.000000;0.133614
9559.000000;0.130780
9558.000000;0.128233
9557.000000;0.125945
9556.000000;0.123789
9555.000000;0.121687
9554.000000;0.119606
9553.000000;0.117555
9552.000000;0.115571
9551.000000;0.113590
9550.000000;0.111418
9549.000000;0.108960
9548.000000;0.106429
9547.000000;0.104151
9546.000000;0.102203
9545.000000;0.100371
9544.000000;0.098433
9543.000000;0.096303
9542.000000;0.093944
9541.000000;0.091384
9540.000000;0.088813
9539.000000;0.086486
9538.000000;0.084436
9537.000000;0.082442
9536.000000;0.080338
9535.000000;0.078211
9534.000000;0.076222
9533.000000;0.074368
9532.000000;0.072510
9531.000000;0.070560
9530.000000;0.068550
9529.000000;0.066550
9528.000000;0.064571
9527.000000;0.062526
9526.000000;0.060303
9525.000000;0.057899
9524.000000;0.055439
9523.000000;0.053034
9522.000000;0.050703
9521.000000;0.048522
9520.000000;0.046691
9519.000000;0.045263
9518.000000;0.043898
9517.000000;0.042149
9516.000000;0.040006
9515.000000;0.037894
9514.000000;0.036091
9513.000000;0.034411
9512.000000;0.032547
9511.000000;0.030499
9510.000000;0.028478
9509.000000;0.026575
9508.000000;0.024751
9507.000000;0.023012
9506.000000;0.021393
9505.000000;0.019800
9504.000000;0.018079
9503.000000;0.016257
9502.000000;0.014558
9501.000000;0.013131
9500.000000;0.011828
9499.000000;0.010321
9498.000000;0.008452
9497.000000;0.006416
9496.000000;0.004589
9495.000000;0.003150
9494.000000;0.001918
9493.000000;0.000600
9492.000000;-0.000877
9491.000000;-0.002384
9490.000000;-0.003853
9489.000000;-0.005327
9488.000000;-0.006757
9487.000000;-0.007957
9486.000000;-0.008887
9485.000000;-0.009833
9484.000000;-0.011150
9483.000000;-0.012890
9482.000000;-0.014778
9481.000000;-0.016468
9480.000000;-0.017725
9479.000000;-0.018483
9478.000000;-0.018897
9477.000000;-0.019313
9476.000000;-0.020038
9475.000000;-0.021090
9474.000000;-0.022244
9473.000000;-0.023302
9472.000000;-0.024244
9471.000000;-0.025137
9470.000000;-0.026016
9469.000000;-0.026889
9468.000000;-0.027786
9467.000000;-0.028733
9466.000000;-0.029696
9465.000000;-0.030570
9464.000000;-0.031237
9463.000000;-0.031689
9462.000000;-0.032080
9461.000000;-0.032627
9460.000000;-0.033397
9459.000000;-0.034249
9458.000000;-0.035000
9457.000000;-0.035619
9456.000000;-0.036198
9455.000000;-0.036765
9454.000000;-0.037210
9453.000000;-0.037415
9452.000000;-0.037413
9451.000000;-0.037387
9450.000000;-0.037501
9449.000000;-0.037754
9448.000000;-0.038007
9447.000000;-0.038165
9446.000000;-0.038282
9445.000000;-0.038442
9444.000000;-0.038602
9443.000000;-0.038675
9442.000000;-0.038727
9441.000000;-0.038930
9440.000000;-0.039277
9439.000000;-0.039508
9438.000000;-0.039437
9437.000000;-0.039208
9436.000000;-0.039073
9435.000000;-0.039012
9434.000000;-0.038796
9433.000000;-0.038401
9432.000000;-0.038131
9431.000000;-0.038242
9430.000000;-0.038591
9429.000000;-0.038789
9428.000000;-0.038583
9427.000000;-0.037990
9426.000000;-0.037144
9425.000000;-0.036185
9424.000000;-0.035296
9423.000000;-0.034694
9422.000000;-0.034463
9421.000000;-0.034420
9420.000000;-0.034204
9419.000000;-0.033559
9418.000000;-0.032552
9417.000000;-0.031542
9416.000000;-0.030906
9415.000000;-0.030734
9414.000000;-0.030773
9413.000000;-0.030676
9412.000000;-0.030293
9411.000000;-0.029693
9410.000000;-0.028963
9409.000000;-0.028109
9408.000000;-0.027182
9407.000000;-0.026353
9406.000000;-0.025732
9405.000000;-0.025176
9404.000000;-0.024432
9403.000000;-0.023457
9402.000000;-0.022464
9401.000000;-0.021609
9400.000000;-0.020798
9399.000000;-0.019871
9398.000000;-0.018858
9397.000000;-0.017908
9396.000000;-0.017083
9395.000000;-0.016337
9394.000000;-0.015660
9393.000000;-0.015075
9392.000000;-0.014492
9391.000000;-0.013729
9390.000000;-0.012702
9389.000000;-0.011525
9388.000000;-0.010371
9387.000000;-0.009307
9386.000000;-0.008278
9385.000000;-0.007171
9384.000000;-0.005888
9383.000000;-0.004425
9382.000000;-0.002908
9381.000000;-0.001524
9380.000000;-0.000398
9379.000000;0.000438
9378.000000;0.001022
9377.000000;0.001512
9376.000000;0.002196
9375.000000;0.003302
9374.000000;0.004738
9373.000000;0.006151
9372.000000;0.007287
9371.000000;0.008227
9370.000000;0.009188
9369.000000;0.010235
9368.000000;0.011258
9367.000000;0.012193
9366.000000;0.013133
9365.000000;0.014234
9364.000000;0.015555
9363.000000;0.017002
9362.000000;0.018415
9361.000000;0.019710
9360.000000;0.020923
9359.000000;0.022092
9358.000000;0.023148
9357.000000;0.024048
9356.000000;0.024949
9355.000000;0.026112
9354.000000;0.027581
9353.000000;0.029098
9352.000000;0.030377
9351.000000;0.031385
9350.000000;0.032278
9349.000000;0.033190
9348.000000;0.034188
9347.000000;0.035321
9346.000000;0.036602
9345.000000;0.037976
9344.000000;0.039381
9343.000000;0.040798
9342.000000;0.042191
9341.000000;0.043479
9340.000000;0.044658
9339.000000;0.045860
9338.000000;0.047190
9337.000000;0.048563
9336.000000;0.049833
9335.000000;0.051016
9334.000000;0.052263
9333.000000;0.053627
9332.000000;0.055003
9331.000000;0.056272
9330.000000;0.057394
9329.000000;0.058361
9328.000000;0.059206
9327.000000;0.060089
9326.000000;0.061239
9325.000000;0.062725
9324.000000;0.064343
9323.000000;0.065813
9322.000000;0.067020
9321.000000;0.068034
9320.000000;0.068942
9319.000000;0.069788
9318.000000;0.070635
9317.000000;0.071585
9316.000000;0.072670
9315.000000;0.073769
9314.000000;0.074736
9313.000000;0.075615
9312.000000;0.076636
9311.000000;0.077945
9310.000000;0.079407
9309.000000;0.080772
9308.000000;0.081990
9307.000000;0.083193
9306.000000;0.084423
9305.000000;0.085554
9304.000000;0.086552
9303.000000;0.087618
9302.000000;0.088932
9301.000000;0.090375
9300.000000;0.091695
9299.000000;0.092845
9298.000000;0.093988
9297.000000;0.095209
9296.000000;0.096408
9295.000000;0.097496
9294.000000;0.098503
9293.000000;0.099476
9292.000000;0.100413
9291.000000;0.101361
9290.000000;0.102446
9289.000000;0.103726
9288.000000;0.105101
9287.000000;0.106433
9286.000000;0.107657
9285.000000;0.108737
9284.000000;0.109623
9283.000000;0.110348
9282.000000;0.111080
9281.000000;0.111983
9280.000000;0.113044
9279.000000;0.114110
9278.000000;0.115067
9277.000000;0.115917
9276.000000;0.116728
9275.000000;0.117569
9274.000000;0.118471
9273.000000;0.119418
9272.000000;0.120392
9271.000000;0.121447
9270.000000;0.122692
9269.000000;0.124139
9268.000000;0.125606
9267.000000;0.126851
9266.000000;0.127780
9265.000000;0.128492
9264.000000;0.129168
9263.000000;0.129968
9262.000000;0.130986
9261.000000;0.132178
9260.000000;0.133348
9259.000000;0.134288
9258.000000;0.134970
9257.000000;0.135559
9256.000000;0.136227
9255.000000;0.137017
9254.000000;0.137876
9253.000000;0.138760
9252.000000;0.139663
9251.000000;0.140610
9250.000000;0.141656
9249.000000;0.142838
9248.000000;0.144079
9247.000000;0.145194
9246.000000;0.146047
9245.000000;0.146689
9244.000000;0.147296
9243.000000;0.147979
9242.000000;0.148721
9241.000000;0.149473
9240.000000;0.150272
9239.000000;0.151209
9238.000000;0.152305
9237.000000;0.153481
9236.000000;0.154631
9235.000000;0.155721
9234.000000;0.156776
9233.000000;0.157789
9232.000000;0.158685
9231.000000;0.159399
9230.000000;0.159980
9229.000000;0.160565
9228.000000;0.161254
9227.000000;0.162016
9226.000000;0.162748
9225.000000;0.163397
9224.000000;0.164036
9223.000000;0.164811
9222.000000;0.165826
9221.000000;0.167030
9220.000000;0.168213
9219.000000;0.169149
9218.000000;0.169788
9217.000000;0.170300
9216.000000;0.170912
9215.000000;0.171716
9214.000000;0.172630
9213.000000;0.173531
9212.000000;0.174370
9211.000000;0.175161
9210.000000;0.175922
9209.000000;0.176662
9208.000000;0.177407
9207.000000;0.178174
9206.000000;0.178922
9205.000000;0.179558
9204.000000;0.180055
9203.000000;0.180524
9202.000000;0.181115
9201.000000;0.181846
9200.000000;0.182599
9199.000000;0.183326
9198.000000;0.184149
9197.000000;0.185170
9196.000000;0.186241
9195.000000;0.187076
9194.000000;0.187605
9193.000000;0.188058
9192.000000;0.188670
9191.000000;0.189442
9190.000000;0.190233
9189.000000;0.190972
9188.000000;0.191634
9187.000000;0.192152
9186.000000;0.192511
9185.000000;0.192869
9184.000000;0.193406
9183.000000;0.194093
9182.000000;0.194747
9181.000000;0.195334
9180.000000;0.196035
9179.000000;0.196950
9178.000000;0.197903
9177.000000;0.198617
9176.000000;0.199008
9175.000000;0.199232
9174.000000;0.199534
9173.000000;0.200090
9172.000000;0.200931
9171.000000;0.201923
9170.000000;0.202869
9169.000000;0.203685
9168.000000;0.204441
9167.000000;0.205208
9166.000000;0.205924
9165.000000;0.206495
9164.000000;0.206943
9163.000000;0.207389
9162.000000;0.207903
9161.000000;0.208443
9160.000000;0.208926
9159.000000;0.209308
9158.000000;0.209609
9157.000000;0.209915
9156.000000;0.210330
9155.000000;0.210915
9154.000000;0.211634
9153.000000;0.212394
9152.000000;0.213102
9151.000000;0.213694
9150.000000;0.214163
9149.000000;0.214581
9148.000000;0.215063
9147.000000;0.215661
9146.000000;0.216310
9145.000000;0.216898
9144.000000;0.217403
9143.000000;0.217922
9142.000000;0.218584
9141.000000;0.219408
9140.000000;0.220234
9139.000000;0.220837
9138.000000;0.221143
9137.000000;0.221328
9136.000000;0.221652
9135.000000;0.222212
9134.000000;0.222912
9133.000000;0.223614
9132.000000;0.224224
9131.000000;0.224669
9130.000000;0.224943
9129.000000;0.225200
9128.000000;0.225660
9127.000000;0.226345
9126.000000;0.227012
9125.000000;0.227425
9124.000000;0.227609
9123.000000;0.227780
9122.000000;0.228098
9121.000000;0.228555
9120.000000;0.229050
9119.000000;0.229492
9118.000000;0.229870
9117.000000;0.230274
9116.000000;0.230779
9115.000000;0.231306
9114.000000;0.231682
9113.000000;0.231874
9112.000000;0.232068
9111.000000;0.232444
9110.000000;0.232985
9109.000000;0.233597
9108.000000;0.234287
9107.000000;0.235093
9106.000000;0.235924
9105.000000;0.236610
9104.000000;0.237088
9103.000000;0.237417
9102.000000;0.237639
9101.000000;0.237752
9100.000000;0.237817
9099.000000;0.237969
9098.000000;0.238300
9097.000000;0.238787
9096.000000;0.239339
9095.000000;0.239869
9094.000000;0.240329
9093.000000;0.240714
9092.000000;0.241035
9091.000000;0.241282
9090.000000;0.241463
9089.000000;0.241685
9088.000000;0.242096
9087.000000;0.242702
9086.000000;0.243313
9085.000000;0.243771
9084.000000;0.244123
9083.000000;0.244503
9082.000000;0.244909
9081.000000;0.245238
9080.000000;0.245461
9079.000000;0.245654
9078.000000;0.245890
9077.000000;0.246203
9076.000000;0.246609
9075.000000;0.247042
9074.000000;0.247343
9073.000000;0.247439
9072.000000;0.247497
9071.000000;0.247779
9070.000000;0.248346
9069.000000;0.249024
9068.000000;0.249612
9067.000000;0.250029
9066.000000;0.250275
9065.000000;0.250409
9064.000000;0.250555
9063.000000;0.250819
9062.000000;0.251169
9061.000000;0.251498
9060.000000;0.251769
9059.000000;0.252012
9058.000000;0.252213
