Criado como novo conjunto de dados;"0307_DANIEL.spp","49504.4 Secs"
cm-1;Abs
10000.000000;0.624954
9999.000000;0.623622
9998.000000;0.622314
9997.000000;0.621184
9996.000000;0.620267
9995.000000;0.619435
9994.000000;0.618515
9993.000000;0.617415
9992.000000;0.616220
9991.000000;0.615085
9990.000000;0.614061
9989.000000;0.613054
9988.000000;0.612001
9987.000000;0.610977
9986.000000;0.610080
9985.000000;0.609248
9984.000000;0.608274
9983.000000;0.607012
9982.000000;0.605539
9981.000000;0.604097
9980.000000;0.602895
9979.000000;0.601954
9978.000000;0.601101
9977.000000;0.600093
9976.000000;0.598772
9975.000000;0.597159
9974.000000;0.595454
9973.000000;0.593911
9972.000000;0.592683
9971.000000;0.591736
9970.000000;0.590934
9969.000000;0.590173
9968.000000;0.589402
9967.000000;0.588547
9966.000000;0.587519
9965.000000;0.586340
9964.000000;0.585147
9963.000000;0.584001
9962.000000;0.582777
9961.000000;0.581342
9960.000000;0.579798
9959.000000;0.578400
9958.000000;0.577246
9957.000000;0.576181
9956.000000;0.575025
9955.000000;0.573799
9954.000000;0.572683
9953.000000;0.571796
9952.000000;0.571048
9951.000000;0.570174
9950.000000;0.568928
9949.000000;0.567317
9948.000000;0.565638
9947.000000;0.564232
9946.000000;0.563201
9945.000000;0.562397
9944.000000;0.561627
9943.000000;0.560752
9942.000000;0.559636
9941.000000;0.558177
9940.000000;0.556476
9939.000000;0.554839
9938.000000;0.553518
9937.000000;0.552485
9936.000000;0.551512
9935.000000;0.550417
9934.000000;0.549163
9933.000000;0.547786
9932.000000;0.546332
9931.000000;0.544864
9930.000000;0.543483
9929.000000;0.542289
9928.000000;0.541305
9927.000000;0.540413
9926.000000;0.539403
9925.000000;0.538149
9924.000000;0.536736
9923.000000;0.535344
9922.000000;0.534033
9921.000000;0.532730
9920.000000;0.531417
9919.000000;0.530196
9918.000000;0.529113
9917.000000;0.528060
9916.000000;0.526948
9915.000000;0.525867
9914.000000;0.524938
9913.000000;0.524063
9912.000000;0.522978
9911.000000;0.521551
9910.000000;0.519908
9909.000000;0.518257
9908.000000;0.516687
9907.000000;0.515175
9906.000000;0.513707
9905.000000;0.512308
9904.000000;0.510992
9903.000000;0.509742
9902.000000;0.508541
9901.000000;0.507410
9900.000000;0.506377
9899.000000;0.505418
9898.000000;0.504428
9897.000000;0.503300
9896.000000;0.502022
9895.000000;0.500673
9894.000000;0.499296
9893.000000;0.497834
9892.000000;0.496219
9891.000000;0.494507
9890.000000;0.492871
9889.000000;0.491469
9888.000000;0.490339
9887.000000;0.489371
9886.000000;0.488364
9885.000000;0.487156
9884.000000;0.485755
9883.000000;0.484347
9882.000000;0.483113
9881.000000;0.482057
9880.000000;0.481016
9879.000000;0.479822
9878.000000;0.478408
9877.000000;0.476816
9876.000000;0.475171
9875.000000;0.473621
9874.000000;0.472220
9873.000000;0.470869
9872.000000;0.469423
9871.000000;0.467875
9870.000000;0.466353
9869.000000;0.464948
9868.000000;0.463626
9867.000000;0.462348
9866.000000;0.461159
9865.000000;0.460099
9864.000000;0.459073
9863.000000;0.457916
9862.000000;0.456553
9861.000000;0.455046
9860.000000;0.453486
9859.000000;0.451937
9858.000000;0.450466
9857.000000;0.449147
9856.000000;0.447976
9855.000000;0.446842
9854.000000;0.445607
9853.000000;0.444200
9852.000000;0.442618
9851.000000;0.440902
9850.000000;0.439143
9849.000000;0.437478
9848.000000;0.436008
9847.000000;0.434730
9846.000000;0.433586
9845.000000;0.432540
9844.000000;0.431557
9843.000000;0.430516
9842.000000;0.429238
9841.000000;0.427621
9840.000000;0.425735
9839.000000;0.423779
9838.000000;0.421964
9837.000000;0.420423
9836.000000;0.419149
9835.000000;0.418004
9834.000000;0.416826
9833.000000;0.415540
9832.000000;0.414150
9831.000000;0.412660
9830.000000;0.411085
9829.000000;0.409516
9828.000000;0.408091
9827.000000;0.406848
9826.000000;0.405670
9825.000000;0.404401
9824.000000;0.402945
9823.000000;0.401281
9822.000000;0.399474
9821.000000;0.397709
9820.000000;0.396169
9819.000000;0.394828
9818.000000;0.393450
9817.000000;0.391876
9816.000000;0.390223
9815.000000;0.388715
9814.000000;0.387417
9813.000000;0.386228
9812.000000;0.385028
9811.000000;0.383703
9810.000000;0.382121
9809.000000;0.380278
9808.000000;0.378414
9807.000000;0.376805
9806.000000;0.375454
9805.000000;0.374126
9804.000000;0.372690
9803.000000;0.371236
9802.000000;0.369845
9801.000000;0.368415
9800.000000;0.366812
9799.000000;0.365052
9798.000000;0.363261
9797.000000;0.361551
9796.000000;0.360010
9795.000000;0.358689
9794.000000;0.357502
9793.000000;0.356249
9792.000000;0.354810
9791.000000;0.353264
9790.000000;0.351728
9789.000000;0.350167
9788.000000;0.348466
9787.000000;0.346646
9786.000000;0.344887
9785.000000;0.343347
9784.000000;0.342020
9783.000000;0.340756
9782.000000;0.339351
9781.000000;0.337664
9780.000000;0.335734
9779.000000;0.333778
9778.000000;0.332000
9777.000000;0.330398
9776.000000;0.328828
9775.000000;0.327212
9774.000000;0.325605
9773.000000;0.324028
9772.000000;0.322365
9771.000000;0.320502
9770.000000;0.318518
9769.000000;0.316636
9768.000000;0.314989
9767.000000;0.313496
9766.000000;0.312023
9765.000000;0.310566
9764.000000;0.309196
9763.000000;0.307867
9762.000000;0.306418
9761.000000;0.304781
9760.000000;0.303093
9759.000000;0.301492
9758.000000;0.299919
9757.000000;0.298219
9756.000000;0.296399
9755.000000;0.294638
9754.000000;0.293031
9753.000000;0.291450
9752.000000;0.289715
9751.000000;0.287822
9750.000000;0.285947
9749.000000;0.284251
9748.000000;0.282736
9747.000000;0.281230
9746.000000;0.279523
9745.000000;0.277552
9744.000000;0.275481
9743.000000;0.273556
9742.000000;0.271881
9741.000000;0.270361
9740.000000;0.268859
9739.000000;0.267330
9738.000000;0.265749
9737.000000;0.264035
9736.000000;0.262103
9735.000000;0.260009
9734.000000;0.257951
9733.000000;0.256122
9732.000000;0.254565
9731.000000;0.253147
9730.000000;0.251665
9729.000000;0.249992
9728.000000;0.248168
9727.000000;0.246338
9726.000000;0.244614
9725.000000;0.242997
9724.000000;0.241395
9723.000000;0.239693
9722.000000;0.237819
9721.000000;0.235805
9720.000000;0.233778
9719.000000;0.231834
9718.000000;0.229952
9717.000000;0.228059
9716.000000;0.226157
9715.000000;0.224308
9714.000000;0.222523
9713.000000;0.220757
9712.000000;0.219010
9711.000000;0.217316
9710.000000;0.215623
9709.000000;0.213793
9708.000000;0.211775
9707.000000;0.209693
9706.000000;0.207718
9705.000000;0.205901
9704.000000;0.204182
9703.000000;0.202475
9702.000000;0.200713
9701.000000;0.198872
9700.000000;0.197019
9699.000000;0.195283
9698.000000;0.193702
9697.000000;0.192155
9696.000000;0.190469
9695.000000;0.188576
9694.000000;0.186527
9693.000000;0.184396
9692.000000;0.182207
9691.000000;0.179950
9690.000000;0.177632
9689.000000;0.175369
9688.000000;0.173391
9687.000000;0.171855
9686.000000;0.170603
9685.000000;0.169204
9684.000000;0.167334
9683.000000;0.165054
9682.000000;0.162686
9681.000000;0.160481
9680.000000;0.158481
9679.000000;0.156606
9678.000000;0.154753
9677.000000;0.152822
9676.000000;0.150761
9675.000000;0.148625
9674.000000;0.146544
9673.000000;0.144610
9672.000000;0.142797
9671.000000;0.140987
9670.000000;0.139068
9669.000000;0.137046
9668.000000;0.135066
9667.000000;0.133267
9666.000000;0.131592
9665.000000;0.129813
9664.000000;0.127764
9663.000000;0.125498
9662.000000;0.123171
9661.000000;0.120870
9660.000000;0.118622
9659.000000;0.116485
9658.000000;0.114516
9657.000000;0.112677
9656.000000;0.110846
9655.000000;0.108919
9654.000000;0.106860
9653.000000;0.104701
9652.000000;0.102534
9651.000000;0.100446
9650.000000;0.098420
9649.000000;0.096348
9648.000000;0.094218
9647.000000;0.092166
9646.000000;0.090259
9645.000000;0.088325
9644.000000;0.086145
9643.000000;0.083769
9642.000000;0.081460
9641.000000;0.079347
9640.000000;0.077312
9639.000000;0.075241
9638.000000;0.073193
9637.000000;0.071230
9636.000000;0.069253
9635.000000;0.067134
9634.000000;0.064929
9633.000000;0.062831
9632.000000;0.060930
9631.000000;0.059113
9630.000000;0.057164
9629.000000;0.054937
9628.000000;0.052439
9627.000000;0.049853
9626.000000;0.047438
9625.000000;0.045329
9624.000000;0.043429
9623.000000;0.041529
9622.000000;0.039520
9621.000000;0.037442
9620.000000;0.035334
9619.000000;0.033137
9618.000000;0.030770
9617.000000;0.028261
9616.000000;0.025754
9615.000000;0.023388
9614.000000;0.021203
9613.000000;0.019121
9612.000000;0.017007
9611.000000;0.014750
9610.000000;0.012351
9609.000000;0.009955
9608.000000;0.007758
9607.000000;0.005838
9606.000000;0.004071
9605.000000;0.002214
9604.000000;0.000080
9603.000000;-0.002377
9602.000000;-0.005069
9601.000000;-0.007824
9600.000000;-0.010442
9599.000000;-0.012797
9598.000000;-0.014935
9597.000000;-0.017032
9596.000000;-0.019222
9595.000000;-0.021496
9594.000000;-0.023780
9593.000000;-0.026060
9592.000000;-0.028361
9591.000000;-0.030644
9590.000000;-0.032828
9589.000000;-0.034895
9588.000000;-0.036926
9587.000000;-0.039010
9586.000000;-0.041157
9585.000000;-0.043321
9584.000000;-0.045462
9583.000000;-0.047587
9582.000000;-0.049743
9581.000000;-0.051984
9580.000000;-0.054307
9579.000000;-0.056628
9578.000000;-0.058875
9577.000000;-0.061089
9576.000000;-0.063360
9575.000000;-0.065674
9574.000000;-0.067909
9573.000000;-0.070027
9572.000000;-0.072170
9571.000000;-0.074485
9570.000000;-0.076920
9569.000000;-0.079307
9568.000000;-0.081609
9567.000000;-0.083940
9566.000000;-0.086356
9565.000000;-0.088735
9564.000000;-0.090946
9563.000000;-0.093042
9562.000000;-0.095199
9561.000000;-0.097520
9560.000000;-0.099965
9559.000000;-0.102433
9558.000000;-0.104830
9557.000000;-0.107080
9556.000000;-0.109176
9555.000000;-0.111233
9554.000000;-0.113413
9553.000000;-0.115755
9552.000000;-0.118122
9551.000000;-0.120358
9550.000000;-0.122440
9549.000000;-0.124464
9548.000000;-0.126517
9547.000000;-0.128631
9546.000000;-0.130806
9545.000000;-0.133035
9544.000000;-0.135293
9543.000000;-0.137543
9542.000000;-0.139764
9541.000000;-0.141953
9540.000000;-0.144117
9539.000000;-0.146269
9538.000000;-0.148432
9537.000000;-0.150634
9536.000000;-0.152888
9535.000000;-0.155185
9534.000000;-0.157470
9533.000000;-0.159645
9532.000000;-0.161642
9531.000000;-0.163517
9530.000000;-0.165416
9529.000000;-0.167413
9528.000000;-0.169438
9527.000000;-0.171395
9526.000000;-0.173297
9525.000000;-0.175206
9524.000000;-0.177119
9523.000000;-0.179001
9522.000000;-0.180900
9521.000000;-0.182912
9520.000000;-0.185021
9519.000000;-0.187088
9518.000000;-0.189015
9517.000000;-0.190831
9516.000000;-0.192593
9515.000000;-0.194305
9514.000000;-0.195977
9513.000000;-0.197676
9512.000000;-0.199440
9511.000000;-0.201210
9510.000000;-0.202907
9509.000000;-0.204551
9508.000000;-0.206209
9507.000000;-0.207902
9506.000000;-0.209628
9505.000000;-0.211437
9504.000000;-0.213376
9503.000000;-0.215358
9502.000000;-0.217187
9501.000000;-0.218766
9500.000000;-0.220223
9499.000000;-0.221783
9498.000000;-0.223527
9497.000000;-0.225318
9496.000000;-0.226967
9495.000000;-0.228454
9494.000000;-0.229938
9493.000000;-0.231558
9492.000000;-0.233234
9491.000000;-0.234733
9490.000000;-0.235928
9489.000000;-0.236934
9488.000000;-0.237936
9487.000000;-0.238985
9486.000000;-0.240017
9485.000000;-0.241031
9484.000000;-0.242117
9483.000000;-0.243327
9482.000000;-0.244609
9481.000000;-0.245884
9480.000000;-0.247098
9479.000000;-0.248185
9478.000000;-0.249074
9477.000000;-0.249812
9476.000000;-0.250584
9475.000000;-0.251529
9474.000000;-0.252574
9473.000000;-0.253523
9472.000000;-0.254309
9471.000000;-0.255057
9470.000000;-0.255913
9469.000000;-0.256881
9468.000000;-0.257875
9467.000000;-0.258846
9466.000000;-0.259781
9465.000000;-0.260615
9464.000000;-0.261240
9463.000000;-0.261637
9462.000000;-0.261961
9461.000000;-0.262416
9460.000000;-0.263055
9459.000000;-0.263723
9458.000000;-0.264248
9457.000000;-0.264650
9456.000000;-0.265132
9455.000000;-0.265853
9454.000000;-0.266725
9453.000000;-0.267450
9452.000000;-0.267766
9451.000000;-0.267679
9450.000000;-0.267458
9449.000000;-0.267385
9448.000000;-0.267496
9447.000000;-0.267593
9446.000000;-0.267513
9445.000000;-0.267329
9444.000000;-0.267232
9443.000000;-0.267291
9442.000000;-0.267418
9441.000000;-0.267534
9440.000000;-0.267669
9439.000000;-0.267847
9438.000000;-0.267983
9437.000000;-0.267964
9436.000000;-0.267776
9435.000000;-0.267499
9434.000000;-0.267205
9433.000000;-0.266936
9432.000000;-0.266724
9431.000000;-0.266569
9430.000000;-0.266392
9429.000000;-0.266081
9428.000000;-0.265605
9427.000000;-0.265061
9426.000000;-0.264569
9425.000000;-0.264172
9424.000000;-0.263838
9423.000000;-0.263516
9422.000000;-0.263163
9421.000000;-0.262713
9420.000000;-0.262079
9419.000000;-0.261204
9418.000000;-0.260178
9417.000000;-0.259251
9416.000000;-0.258678
9415.000000;-0.258474
9414.000000;-0.258356
9413.000000;-0.257994
9412.000000;-0.257296
9411.000000;-0.256428
9410.000000;-0.255567
9409.000000;-0.254740
9408.000000;-0.253913
9407.000000;-0.253141
9406.000000;-0.252509
9405.000000;-0.251972
9404.000000;-0.251347
9403.000000;-0.250515
9402.000000;-0.249551
9401.000000;-0.248620
9400.000000;-0.247777
9399.000000;-0.246941
9398.000000;-0.246025
9397.000000;-0.245045
9396.000000;-0.244069
9395.000000;-0.243137
9394.000000;-0.242238
9393.000000;-0.241343
9392.000000;-0.240404
9391.000000;-0.239371
9390.000000;-0.238247
9389.000000;-0.237129
9388.000000;-0.236114
9387.000000;-0.235170
9386.000000;-0.234139
9385.000000;-0.232902
9384.000000;-0.231505
9383.000000;-0.230119
9382.000000;-0.228892
9381.000000;-0.227857
9380.000000;-0.226938
9379.000000;-0.226006
9378.000000;-0.224940
9377.000000;-0.223682
9376.000000;-0.222287
9375.000000;-0.220919
9374.000000;-0.219755
9373.000000;-0.218849
9372.000000;-0.218059
9371.000000;-0.217140
9370.000000;-0.215951
9369.000000;-0.214584
9368.000000;-0.213249
9367.000000;-0.212058
9366.000000;-0.210948
9365.000000;-0.209806
9364.000000;-0.208601
9363.000000;-0.207364
9362.000000;-0.206125
9361.000000;-0.204928
9360.000000;-0.203845
9359.000000;-0.202887
9358.000000;-0.201911
9357.000000;-0.200708
9356.000000;-0.199215
9355.000000;-0.197588
9354.000000;-0.196050
9353.000000;-0.194735
9352.000000;-0.193649
9351.000000;-0.192717
9350.000000;-0.191811
9349.000000;-0.190789
9348.000000;-0.189594
9347.000000;-0.188286
9346.000000;-0.186947
9345.000000;-0.185581
9344.000000;-0.184155
9343.000000;-0.182713
9342.000000;-0.181348
9341.000000;-0.180079
9340.000000;-0.178831
9339.000000;-0.177554
9338.000000;-0.176288
9337.000000;-0.175094
9336.000000;-0.173980
9335.000000;-0.172935
9334.000000;-0.171960
9333.000000;-0.170984
9332.000000;-0.169851
9331.000000;-0.168471
9330.000000;-0.166972
9329.000000;-0.165592
9328.000000;-0.164419
9327.000000;-0.163320
9326.000000;-0.162137
9325.000000;-0.160862
9324.000000;-0.159568
9323.000000;-0.158290
9322.000000;-0.157032
9321.000000;-0.155840
9320.000000;-0.154777
9319.000000;-0.153816
9318.000000;-0.152838
9317.000000;-0.151725
9316.000000;-0.150434
9315.000000;-0.149012
9314.000000;-0.147579
9313.000000;-0.146288
9312.000000;-0.145227
9311.000000;-0.144312
9310.000000;-0.143338
9309.000000;-0.142155
9308.000000;-0.140799
9307.000000;-0.139435
9306.000000;-0.138186
9305.000000;-0.137015
9304.000000;-0.135784
9303.000000;-0.134399
9302.000000;-0.132934
9301.000000;-0.131584
9300.000000;-0.130487
9299.000000;-0.129592
9298.000000;-0.128696
9297.000000;-0.127633
9296.000000;-0.126399
9295.000000;-0.125128
9294.000000;-0.123946
9293.000000;-0.122865
9292.000000;-0.121792
9291.000000;-0.120620
9290.000000;-0.119342
9289.000000;-0.118054
9288.000000;-0.116856
9287.000000;-0.115754
9286.000000;-0.114660
9285.000000;-0.113506
9284.000000;-0.112322
9283.000000;-0.111192
9282.000000;-0.110149
9281.000000;-0.109134
9280.000000;-0.108081
9279.000000;-0.107003
9278.000000;-0.105974
9277.000000;-0.105031
9276.000000;-0.104113
9275.000000;-0.103124
9274.000000;-0.102032
9273.000000;-0.100877
9272.000000;-0.099710
9271.000000;-0.098566
9270.000000;-0.097477
9269.000000;-0.096463
9268.000000;-0.095493
9267.000000;-0.094489
9266.000000;-0.093416
9265.000000;-0.092340
9264.000000;-0.091364
9263.000000;-0.090498
9262.000000;-0.089623
9261.000000;-0.088599
9260.000000;-0.087412
9259.000000;-0.086217
9258.000000;-0.085220
9257.000000;-0.084473
9256.000000;-0.083797
9255.000000;-0.082940
9254.000000;-0.081823
9253.000000;-0.080606
9252.000000;-0.079505
9251.000000;-0.078584
9250.000000;-0.077758
9249.000000;-0.076928
9248.000000;-0.076061
9247.000000;-0.075143
9246.000000;-0.074151
9245.000000;-0.073092
9244.000000;-0.072036
9243.000000;-0.071063
9242.000000;-0.070188
9241.000000;-0.069344
9240.000000;-0.068439
9239.000000;-0.067424
9238.000000;-0.066322
9237.000000;-0.065208
9236.000000;-0.064172
9235.000000;-0.063268
9234.000000;-0.062496
9233.000000;-0.061798
9232.000000;-0.061083
9231.000000;-0.060276
9230.000000;-0.059368
9229.000000;-0.058408
9228.000000;-0.057459
9227.000000;-0.056561
9226.000000;-0.055736
9225.000000;-0.054981
9224.000000;-0.054239
9223.000000;-0.053410
9222.000000;-0.052449
9221.000000;-0.051425
9220.000000;-0.050456
9219.000000;-0.049586
9218.000000;-0.048752
9217.000000;-0.047875
9216.000000;-0.046949
9215.000000;-0.046038
9214.000000;-0.045200
9213.000000;-0.044442
9212.000000;-0.043730
9211.000000;-0.043020
9210.000000;-0.042275
9209.000000;-0.041480
9208.000000;-0.040658
9207.000000;-0.039881
9206.000000;-0.039231
9205.000000;-0.038720
9204.000000;-0.038252
9203.000000;-0.037693
9202.000000;-0.036979
9201.000000;-0.036146
9200.000000;-0.035267
9199.000000;-0.034403
9198.000000;-0.033618
9197.000000;-0.032968
9196.000000;-0.032407
9195.000000;-0.031757
9194.000000;-0.030851
9193.000000;-0.029723
9192.000000;-0.028601
9191.000000;-0.027704
9190.000000;-0.027050
9189.000000;-0.026500
9188.000000;-0.025928
9187.000000;-0.025311
9186.000000;-0.024674
9185.000000;-0.024012
9184.000000;-0.023296
9183.000000;-0.022534
9182.000000;-0.021768
9181.000000;-0.021007
9180.000000;-0.020198
9179.000000;-0.019307
9178.000000;-0.018408
9177.000000;-0.017658
9176.000000;-0.017133
9175.000000;-0.016745
9174.000000;-0.016307
9173.000000;-0.015686
9172.000000;-0.014873
9171.000000;-0.013948
9170.000000;-0.013027
9169.000000;-0.012227
9168.000000;-0.011611
9167.000000;-0.011142
9166.000000;-0.010713
9165.000000;-0.010232
9164.000000;-0.009682
9163.000000;-0.009080
9162.000000;-0.008419
9161.000000;-0.007687
9160.000000;-0.006928
9159.000000;-0.006233
9158.000000;-0.005627
9157.000000;-0.005007
9156.000000;-0.004243
9155.000000;-0.003357
9154.000000;-0.002555
9153.000000;-0.002022
9152.000000;-0.001726
9151.000000;-0.001444
9150.000000;-0.000985
9149.000000;-0.000338
9148.000000;0.000380
9147.000000;0.001056
9146.000000;0.001645
9145.000000;0.002161
9144.000000;0.002667
9143.000000;0.003234
9142.000000;0.003872
9141.000000;0.004497
9140.000000;0.005012
9139.000000;0.005422
9138.000000;0.005838
9137.000000;0.006338
9136.000000;0.006873
9135.000000;0.007336
9134.000000;0.007708
9133.000000;0.008099
9132.000000;0.008626
9131.000000;0.009285
9130.000000;0.009974
9129.000000;0.010628
9128.000000;0.011275
9127.000000;0.011946
9126.000000;0.012585
9125.000000;0.013105
9124.000000;0.013506
9123.000000;0.013881
9122.000000;0.014317
9121.000000;0.014809
9120.000000;0.015293
9119.000000;0.015694
9118.000000;0.015973
9117.000000;0.016167
9116.000000;0.016413
9115.000000;0.016861
9114.000000;0.017540
9113.000000;0.018324
9112.000000;0.019072
9111.000000;0.019742
9110.000000;0.020356
9109.000000;0.020904
9108.000000;0.021365
9107.000000;0.021782
9106.000000;0.022224
9105.000000;0.022686
9104.000000;0.023084
9103.000000;0.023393
9102.000000;0.023701
9101.000000;0.024105
9100.000000;0.024591
9099.000000;0.025079
9098.000000;0.025532
9097.000000;0.025974
9096.000000;0.026412
9095.000000;0.026810
9094.000000;0.027150
9093.000000;0.027478
9092.000000;0.027844
9091.000000;0.028251
9090.000000;0.028693
9089.000000;0.029211
9088.000000;0.029829
9087.000000;0.030459
9086.000000;0.030923
9085.000000;0.031141
9084.000000;0.031243
9083.000000;0.031446
9082.000000;0.031838
9081.000000;0.032327
9080.000000;0.032766
9079.000000;0.033100
9078.000000;0.033376
9077.000000;0.033683
9076.000000;0.034084
9075.000000;0.034575
9074.000000;0.035075
