Criado como novo conjunto de dados;"0307_DANIEL.spp","11162.4 Secs"
cm-1;Abs
10000.000000;0.688688
9999.000000;0.687784
9998.000000;0.686623
9997.000000;0.685416
9996.000000;0.684367
9995.000000;0.683461
9994.000000;0.682472
9993.000000;0.681204
9992.000000;0.679726
9991.000000;0.678311
9990.000000;0.677125
9989.000000;0.676073
9988.000000;0.674954
9987.000000;0.673663
9986.000000;0.672215
9985.000000;0.670723
9984.000000;0.669403
9983.000000;0.668466
9982.000000;0.667849
9981.000000;0.667176
9980.000000;0.666131
9979.000000;0.664808
9978.000000;0.663515
9977.000000;0.662323
9976.000000;0.661027
9975.000000;0.659566
9974.000000;0.658205
9973.000000;0.657191
9972.000000;0.656400
9971.000000;0.655492
9970.000000;0.654333
9969.000000;0.653089
9968.000000;0.651937
9967.000000;0.650852
9966.000000;0.649710
9965.000000;0.648465
9964.000000;0.647126
9963.000000;0.645659
9962.000000;0.644040
9961.000000;0.642381
9960.000000;0.640889
9959.000000;0.639655
9958.000000;0.638577
9957.000000;0.637527
9956.000000;0.636501
9955.000000;0.635542
9954.000000;0.634597
9953.000000;0.633576
9952.000000;0.632466
9951.000000;0.631310
9950.000000;0.630104
9949.000000;0.628845
9948.000000;0.627632
9947.000000;0.626585
9946.000000;0.625664
9945.000000;0.624714
9944.000000;0.623682
9943.000000;0.622639
9942.000000;0.621564
9941.000000;0.620294
9940.000000;0.618753
9939.000000;0.617100
9938.000000;0.615551
9937.000000;0.614167
9936.000000;0.612892
9935.000000;0.611667
9934.000000;0.610420
9933.000000;0.609073
9932.000000;0.607661
9931.000000;0.606353
9930.000000;0.605250
9929.000000;0.604237
9928.000000;0.603144
9927.000000;0.601960
9926.000000;0.600791
9925.000000;0.599666
9924.000000;0.598511
9923.000000;0.597247
9922.000000;0.595821
9921.000000;0.594215
9920.000000;0.592540
9919.000000;0.591018
9918.000000;0.589753
9917.000000;0.588580
9916.000000;0.587267
9915.000000;0.585827
9914.000000;0.584448
9913.000000;0.583206
9912.000000;0.582006
9911.000000;0.580828
9910.000000;0.579796
9909.000000;0.578969
9908.000000;0.578191
9907.000000;0.577254
9906.000000;0.576093
9905.000000;0.574764
9904.000000;0.573327
9903.000000;0.571846
9902.000000;0.570425
9901.000000;0.569159
9900.000000;0.568033
9899.000000;0.566920
9898.000000;0.565674
9897.000000;0.564208
9896.000000;0.562536
9895.000000;0.560758
9894.000000;0.558995
9893.000000;0.557315
9892.000000;0.555744
9891.000000;0.554333
9890.000000;0.553161
9889.000000;0.552226
9888.000000;0.551371
9887.000000;0.550362
9886.000000;0.549077
9885.000000;0.547619
9884.000000;0.546239
9883.000000;0.545108
9882.000000;0.544147
9881.000000;0.543095
9880.000000;0.541750
9879.000000;0.540129
9878.000000;0.538391
9877.000000;0.536679
9876.000000;0.535071
9875.000000;0.533626
9874.000000;0.532366
9873.000000;0.531218
9872.000000;0.530036
9871.000000;0.528752
9870.000000;0.527444
9869.000000;0.526219
9868.000000;0.525040
9867.000000;0.523722
9866.000000;0.522131
9865.000000;0.520375
9864.000000;0.518732
9863.000000;0.517388
9862.000000;0.516265
9861.000000;0.515119
9860.000000;0.513769
9859.000000;0.512186
9858.000000;0.510438
9857.000000;0.508659
9856.000000;0.507033
9855.000000;0.505665
9854.000000;0.504440
9853.000000;0.503113
9852.000000;0.501613
9851.000000;0.500139
9850.000000;0.498891
9849.000000;0.497794
9848.000000;0.496594
9847.000000;0.495201
9846.000000;0.493812
9845.000000;0.492664
9844.000000;0.491740
9843.000000;0.490740
9842.000000;0.489346
9841.000000;0.487506
9840.000000;0.485458
9839.000000;0.483481
9838.000000;0.481680
9837.000000;0.480026
9836.000000;0.478530
9835.000000;0.477233
9834.000000;0.476046
9833.000000;0.474772
9832.000000;0.473348
9831.000000;0.471926
9830.000000;0.470625
9829.000000;0.469315
9828.000000;0.467788
9827.000000;0.466057
9826.000000;0.464342
9825.000000;0.462791
9824.000000;0.461361
9823.000000;0.459967
9822.000000;0.458612
9821.000000;0.457308
9820.000000;0.455981
9819.000000;0.454530
9818.000000;0.452933
9817.000000;0.451260
9816.000000;0.449599
9815.000000;0.447998
9814.000000;0.446476
9813.000000;0.445036
9812.000000;0.443662
9811.000000;0.442301
9810.000000;0.440876
9809.000000;0.439358
9808.000000;0.437798
9807.000000;0.436253
9806.000000;0.434703
9805.000000;0.433083
9804.000000;0.431396
9803.000000;0.429721
9802.000000;0.428090
9801.000000;0.426442
9800.000000;0.424753
9799.000000;0.423139
9798.000000;0.421741
9797.000000;0.420548
9796.000000;0.419370
9795.000000;0.417983
9794.000000;0.416291
9793.000000;0.414389
9792.000000;0.412499
9791.000000;0.410790
9790.000000;0.409235
9789.000000;0.407663
9788.000000;0.405963
9787.000000;0.404164
9786.000000;0.402325
9785.000000;0.400466
9784.000000;0.398651
9783.000000;0.397014
9782.000000;0.395578
9781.000000;0.394163
9780.000000;0.392577
9779.000000;0.390855
9778.000000;0.389202
9777.000000;0.387741
9776.000000;0.386423
9775.000000;0.385137
9774.000000;0.383810
9773.000000;0.382418
9772.000000;0.380991
9771.000000;0.379576
9770.000000;0.378098
9769.000000;0.376341
9768.000000;0.374179
9767.000000;0.371822
9766.000000;0.369659
9765.000000;0.367874
9764.000000;0.366325
9763.000000;0.364804
9762.000000;0.363267
9761.000000;0.361735
9760.000000;0.360117
9759.000000;0.358281
9758.000000;0.356248
9757.000000;0.354207
9756.000000;0.352350
9755.000000;0.350733
9754.000000;0.349308
9753.000000;0.348013
9752.000000;0.346783
9751.000000;0.345492
9750.000000;0.343950
9749.000000;0.342050
9748.000000;0.339933
9747.000000;0.337906
9746.000000;0.336123
9745.000000;0.334425
9744.000000;0.332567
9743.000000;0.330552
9742.000000;0.328631
9741.000000;0.326978
9740.000000;0.325485
9739.000000;0.323908
9738.000000;0.322131
9737.000000;0.320248
9736.000000;0.318457
9735.000000;0.316902
9734.000000;0.315564
9733.000000;0.314255
9732.000000;0.312754
9731.000000;0.310963
9730.000000;0.308928
9729.000000;0.306745
9728.000000;0.304517
9727.000000;0.302366
9726.000000;0.300403
9725.000000;0.298641
9724.000000;0.297007
9723.000000;0.295445
9722.000000;0.293921
9721.000000;0.292319
9720.000000;0.290445
9719.000000;0.288232
9718.000000;0.285875
9717.000000;0.283697
9716.000000;0.281886
9715.000000;0.280384
9714.000000;0.278976
9713.000000;0.277424
9712.000000;0.275582
9711.000000;0.273470
9710.000000;0.271258
9709.000000;0.269125
9708.000000;0.267131
9707.000000;0.265247
9706.000000;0.263452
9705.000000;0.261756
9704.000000;0.260117
9703.000000;0.258409
9702.000000;0.256506
9701.000000;0.254377
9700.000000;0.252121
9699.000000;0.249920
9698.000000;0.247951
9697.000000;0.246273
9696.000000;0.244766
9695.000000;0.243210
9694.000000;0.241470
9693.000000;0.239577
9692.000000;0.237645
9691.000000;0.235707
9690.000000;0.233686
9689.000000;0.231513
9688.000000;0.229269
9687.000000;0.227164
9686.000000;0.225363
9685.000000;0.223818
9684.000000;0.222290
9683.000000;0.220549
9682.000000;0.218562
9681.000000;0.216449
9680.000000;0.214303
9679.000000;0.212133
9678.000000;0.209987
9677.000000;0.207993
9676.000000;0.206192
9675.000000;0.204387
9674.000000;0.202314
9673.000000;0.199970
9672.000000;0.197647
9671.000000;0.195560
9670.000000;0.193587
9669.000000;0.191467
9668.000000;0.189176
9667.000000;0.186954
9666.000000;0.184981
9665.000000;0.183162
9664.000000;0.181284
9663.000000;0.179281
9662.000000;0.177287
9661.000000;0.175458
9660.000000;0.173771
9659.000000;0.172007
9658.000000;0.169942
9657.000000;0.167563
9656.000000;0.165094
9655.000000;0.162756
9654.000000;0.160559
9653.000000;0.158378
9652.000000;0.156189
9651.000000;0.154117
9650.000000;0.152242
9649.000000;0.150500
9648.000000;0.148770
9647.000000;0.146971
9646.000000;0.145032
9645.000000;0.142884
9644.000000;0.140573
9643.000000;0.138264
9642.000000;0.136049
9641.000000;0.133843
9640.000000;0.131565
9639.000000;0.129328
9638.000000;0.127294
9637.000000;0.125403
9636.000000;0.123398
9635.000000;0.121138
9634.000000;0.118757
9633.000000;0.116462
9632.000000;0.114299
9631.000000;0.112182
9630.000000;0.110043
9629.000000;0.107885
9628.000000;0.105697
9627.000000;0.103418
9626.000000;0.101019
9625.000000;0.098587
9624.000000;0.096299
9623.000000;0.094271
9622.000000;0.092429
9621.000000;0.090544
9620.000000;0.088428
9619.000000;0.086067
9618.000000;0.083569
9617.000000;0.081028
9616.000000;0.078501
9615.000000;0.076075
9614.000000;0.073855
9613.000000;0.071856
9612.000000;0.069958
9611.000000;0.068002
9610.000000;0.065913
9609.000000;0.063721
9608.000000;0.061494
9607.000000;0.059257
9606.000000;0.056969
9605.000000;0.054573
9604.000000;0.052083
9603.000000;0.049601
9602.000000;0.047241
9601.000000;0.045025
9600.000000;0.042896
9599.000000;0.040806
9598.000000;0.038749
9597.000000;0.036714
9596.000000;0.034641
9595.000000;0.032437
9594.000000;0.030034
9593.000000;0.027445
9592.000000;0.024800
9591.000000;0.022287
9590.000000;0.020013
9589.000000;0.017921
9588.000000;0.015856
9587.000000;0.013716
9586.000000;0.011500
9585.000000;0.009236
9584.000000;0.006941
9583.000000;0.004644
9582.000000;0.002359
9581.000000;0.000021
9580.000000;-0.002477
9579.000000;-0.005120
9578.000000;-0.007717
9577.000000;-0.010082
9576.000000;-0.012238
9575.000000;-0.014374
9574.000000;-0.016624
9573.000000;-0.018970
9572.000000;-0.021346
9571.000000;-0.023748
9570.000000;-0.026194
9569.000000;-0.028625
9568.000000;-0.030915
9567.000000;-0.032964
9566.000000;-0.034781
9565.000000;-0.036490
9564.000000;-0.038283
9563.000000;-0.040328
9562.000000;-0.042688
9561.000000;-0.045280
9560.000000;-0.047912
9559.000000;-0.050378
9558.000000;-0.052568
9557.000000;-0.054543
9556.000000;-0.056514
9555.000000;-0.058707
9554.000000;-0.061183
9553.000000;-0.063796
9552.000000;-0.066333
9551.000000;-0.068710
9550.000000;-0.070994
9549.000000;-0.073261
9548.000000;-0.075485
9547.000000;-0.077592
9546.000000;-0.079586
9545.000000;-0.081562
9544.000000;-0.083601
9543.000000;-0.085705
9542.000000;-0.087835
9541.000000;-0.089983
9540.000000;-0.092176
9539.000000;-0.094429
9538.000000;-0.096731
9537.000000;-0.099061
9536.000000;-0.101389
9535.000000;-0.103659
9534.000000;-0.105810
9533.000000;-0.107833
9532.000000;-0.109792
9531.000000;-0.111770
9530.000000;-0.113782
9529.000000;-0.115775
9528.000000;-0.117712
9527.000000;-0.119647
9526.000000;-0.121672
9525.000000;-0.123818
9524.000000;-0.126033
9523.000000;-0.128254
9522.000000;-0.130447
9521.000000;-0.132553
9520.000000;-0.134480
9519.000000;-0.136214
9518.000000;-0.137897
9517.000000;-0.139706
9516.000000;-0.141634
9515.000000;-0.143506
9514.000000;-0.145214
9513.000000;-0.146874
9512.000000;-0.148670
9511.000000;-0.150636
9510.000000;-0.152651
9509.000000;-0.154611
9508.000000;-0.156510
9507.000000;-0.158377
9506.000000;-0.160215
9505.000000;-0.162010
9504.000000;-0.163740
9503.000000;-0.165351
9502.000000;-0.166819
9501.000000;-0.168242
9500.000000;-0.169807
9499.000000;-0.171607
9498.000000;-0.173538
9497.000000;-0.175401
9496.000000;-0.177059
9495.000000;-0.178466
9494.000000;-0.179633
9493.000000;-0.180656
9492.000000;-0.181731
9491.000000;-0.183030
9490.000000;-0.184540
9489.000000;-0.186065
9488.000000;-0.187422
9487.000000;-0.188589
9486.000000;-0.189675
9485.000000;-0.190815
9484.000000;-0.192094
9483.000000;-0.193509
9482.000000;-0.194974
9481.000000;-0.196370
9480.000000;-0.197620
9479.000000;-0.198704
9478.000000;-0.199623
9477.000000;-0.200402
9476.000000;-0.201138
9475.000000;-0.201958
9474.000000;-0.202907
9473.000000;-0.203905
9472.000000;-0.204845
9471.000000;-0.205709
9470.000000;-0.206547
9469.000000;-0.207419
9468.000000;-0.208397
9467.000000;-0.209551
9466.000000;-0.210808
9465.000000;-0.211864
9464.000000;-0.212404
9463.000000;-0.212456
9462.000000;-0.212450
9461.000000;-0.212812
9460.000000;-0.213574
9459.000000;-0.214432
9458.000000;-0.215146
9457.000000;-0.215760
9456.000000;-0.216428
9455.000000;-0.217172
9454.000000;-0.217841
9453.000000;-0.218277
9452.000000;-0.218444
9451.000000;-0.218449
9450.000000;-0.218479
9449.000000;-0.218675
9448.000000;-0.219002
9447.000000;-0.219241
9446.000000;-0.219171
9445.000000;-0.218805
9444.000000;-0.218398
9443.000000;-0.218222
9442.000000;-0.218358
9441.000000;-0.218689
9440.000000;-0.219033
9439.000000;-0.219257
9438.000000;-0.219314
9437.000000;-0.219235
9436.000000;-0.219089
9435.000000;-0.218915
9434.000000;-0.218705
9433.000000;-0.218454
9432.000000;-0.218210
9431.000000;-0.218023
9430.000000;-0.217870
9429.000000;-0.217646
9428.000000;-0.217276
9427.000000;-0.216784
9426.000000;-0.216262
9425.000000;-0.215769
9424.000000;-0.215280
9423.000000;-0.214733
9422.000000;-0.214114
9421.000000;-0.213493
9420.000000;-0.212955
9419.000000;-0.212485
9418.000000;-0.211974
9417.000000;-0.211346
9416.000000;-0.210669
9415.000000;-0.210098
9414.000000;-0.209704
9413.000000;-0.209411
9412.000000;-0.209101
9411.000000;-0.208725
9410.000000;-0.208288
9409.000000;-0.207769
9408.000000;-0.207108
9407.000000;-0.206282
9406.000000;-0.205354
9405.000000;-0.204420
9404.000000;-0.203527
9403.000000;-0.202649
9402.000000;-0.201734
9401.000000;-0.200764
9400.000000;-0.199782
9399.000000;-0.198842
9398.000000;-0.197958
9397.000000;-0.197090
9396.000000;-0.196188
9395.000000;-0.195250
9394.000000;-0.194315
9393.000000;-0.193423
9392.000000;-0.192566
9391.000000;-0.191685
9390.000000;-0.190700
9389.000000;-0.189588
9388.000000;-0.188431
9387.000000;-0.187353
9386.000000;-0.186362
9385.000000;-0.185300
9384.000000;-0.184027
9383.000000;-0.182640
9382.000000;-0.181413
9381.000000;-0.180494
9380.000000;-0.179725
9379.000000;-0.178828
9378.000000;-0.177703
9377.000000;-0.176462
9376.000000;-0.175222
9375.000000;-0.173994
9374.000000;-0.172768
9373.000000;-0.171588
9372.000000;-0.170472
9371.000000;-0.169361
9370.000000;-0.168204
9369.000000;-0.167034
9368.000000;-0.165889
9367.000000;-0.164698
9366.000000;-0.163369
9365.000000;-0.161969
9364.000000;-0.160704
9363.000000;-0.159679
9362.000000;-0.158753
9361.000000;-0.157686
9360.000000;-0.156394
9359.000000;-0.155007
9358.000000;-0.153691
9357.000000;-0.152482
9356.000000;-0.151295
9355.000000;-0.150045
9354.000000;-0.148740
9353.000000;-0.147446
9352.000000;-0.146206
9351.000000;-0.145012
9350.000000;-0.143845
9349.000000;-0.142731
9348.000000;-0.141702
9347.000000;-0.140728
9346.000000;-0.139707
9345.000000;-0.138563
9344.000000;-0.137309
9343.000000;-0.136011
9342.000000;-0.134694
9341.000000;-0.133340
9340.000000;-0.131968
9339.000000;-0.130666
9338.000000;-0.129494
9337.000000;-0.128387
9336.000000;-0.127216
9335.000000;-0.125962
9334.000000;-0.124750
9333.000000;-0.123692
9332.000000;-0.122731
9331.000000;-0.121707
9330.000000;-0.120554
9329.000000;-0.119354
9328.000000;-0.118201
9327.000000;-0.117083
9326.000000;-0.115938
9325.000000;-0.114750
9324.000000;-0.113534
9323.000000;-0.112280
9322.000000;-0.110979
9321.000000;-0.109697
9320.000000;-0.108537
9319.000000;-0.107511
9318.000000;-0.106514
9317.000000;-0.105437
9316.000000;-0.104269
9315.000000;-0.103061
9314.000000;-0.101838
9313.000000;-0.100597
9312.000000;-0.099346
9311.000000;-0.098098
9310.000000;-0.096850
9309.000000;-0.095595
9308.000000;-0.094373
9307.000000;-0.093244
9306.000000;-0.092223
9305.000000;-0.091250
9304.000000;-0.090236
9303.000000;-0.089119
9302.000000;-0.087886
9301.000000;-0.086556
9300.000000;-0.085195
9299.000000;-0.083900
9298.000000;-0.082736
9297.000000;-0.081673
9296.000000;-0.080619
9295.000000;-0.079531
9294.000000;-0.078459
9293.000000;-0.077469
9292.000000;-0.076540
9291.000000;-0.075569
9290.000000;-0.074475
9289.000000;-0.073270
9288.000000;-0.072028
9287.000000;-0.070829
9286.000000;-0.069711
9285.000000;-0.068639
9284.000000;-0.067515
9283.000000;-0.066280
9282.000000;-0.065027
9281.000000;-0.063944
9280.000000;-0.063100
9279.000000;-0.062330
9278.000000;-0.061402
9277.000000;-0.060273
9276.000000;-0.059101
9275.000000;-0.058031
9274.000000;-0.057052
9273.000000;-0.056077
9272.000000;-0.055050
9271.000000;-0.053958
9270.000000;-0.052796
9269.000000;-0.051614
9268.000000;-0.050531
9267.000000;-0.049629
9266.000000;-0.048842
9265.000000;-0.048008
9264.000000;-0.047029
9263.000000;-0.045926
9262.000000;-0.044754
9261.000000;-0.043540
9260.000000;-0.042339
9259.000000;-0.041265
9258.000000;-0.040407
9257.000000;-0.039708
9256.000000;-0.038974
9255.000000;-0.038023
9254.000000;-0.036832
9253.000000;-0.035570
9252.000000;-0.034479
9251.000000;-0.033676
9250.000000;-0.033052
9249.000000;-0.032373
9248.000000;-0.031516
9247.000000;-0.030556
9246.000000;-0.029629
9245.000000;-0.028763
9244.000000;-0.027884
9243.000000;-0.026933
9242.000000;-0.025914
9241.000000;-0.024833
9240.000000;-0.023700
9239.000000;-0.022579
9238.000000;-0.021569
9237.000000;-0.020686
9236.000000;-0.019849
9235.000000;-0.019015
9234.000000;-0.018268
9233.000000;-0.017693
9232.000000;-0.017216
9231.000000;-0.016631
9230.000000;-0.015796
9229.000000;-0.014741
9228.000000;-0.013614
9227.000000;-0.012570
9226.000000;-0.011699
9225.000000;-0.010963
9224.000000;-0.010193
9223.000000;-0.009233
9222.000000;-0.008122
9221.000000;-0.007096
9220.000000;-0.006358
9219.000000;-0.005874
9218.000000;-0.005418
9217.000000;-0.004797
9216.000000;-0.003972
9215.000000;-0.003018
9214.000000;-0.002032
9213.000000;-0.001091
9212.000000;-0.000256
9211.000000;0.000463
9210.000000;0.001133
9209.000000;0.001860
9208.000000;0.002703
9207.000000;0.003603
9206.000000;0.004427
9205.000000;0.005091
9204.000000;0.005654
9203.000000;0.006269
9202.000000;0.007046
9201.000000;0.007959
9200.000000;0.008888
9199.000000;0.009720
9198.000000;0.010406
9197.000000;0.010962
9196.000000;0.011452
9195.000000;0.011986
9194.000000;0.012653
9193.000000;0.013438
9192.000000;0.014206
9191.000000;0.014833
9190.000000;0.015356
9189.000000;0.015966
9188.000000;0.016814
9187.000000;0.017848
9186.000000;0.018878
9185.000000;0.019771
9184.000000;0.020531
9183.000000;0.021197
9182.000000;0.021772
9181.000000;0.022286
9180.000000;0.022865
9179.000000;0.023617
9178.000000;0.024478
9177.000000;0.025252
9176.000000;0.025819
9175.000000;0.026242
9174.000000;0.026677
9173.000000;0.027232
9172.000000;0.027929
9171.000000;0.028721
9170.000000;0.029515
9169.000000;0.030223
9168.000000;0.030859
9167.000000;0.031524
9166.000000;0.032264
9165.000000;0.032985
9164.000000;0.033565
9163.000000;0.034005
9162.000000;0.034415
9161.000000;0.034862
9160.000000;0.035330
9159.000000;0.035814
9158.000000;0.036390
9157.000000;0.037113
9156.000000;0.037908
9155.000000;0.038604
9154.000000;0.039106
9153.000000;0.039505
9152.000000;0.040021
9151.000000;0.040797
9150.000000;0.041742
9149.000000;0.042587
9148.000000;0.043135
9147.000000;0.043447
9146.000000;0.043764
9145.000000;0.044267
9144.000000;0.044936
9143.000000;0.045622
9142.000000;0.046198
9141.000000;0.046635
9140.000000;0.046995
9139.000000;0.047395
9138.000000;0.047934
9137.000000;0.048596
9136.000000;0.049254
9135.000000;0.049800
9134.000000;0.050269
9133.000000;0.050769
9132.000000;0.051332
9131.000000;0.051877
9130.000000;0.052327
9129.000000;0.052715
9128.000000;0.053137
9127.000000;0.053643
9126.000000;0.054207
9125.000000;0.054779
9124.000000;0.055332
9123.000000;0.055855
9122.000000;0.056350
9121.000000;0.056826
9120.000000;0.057280
9119.000000;0.057676
9118.000000;0.057968
9117.000000;0.058197
9116.000000;0.058517
9115.000000;0.059093
9114.000000;0.059913
9113.000000;0.060747
9112.000000;0.061334
9111.000000;0.061622
9110.000000;0.061803
9109.000000;0.062091
9108.000000;0.062512
9107.000000;0.062928
9106.000000;0.063230
9105.000000;0.063455
9104.000000;0.063736
9103.000000;0.064175
9102.000000;0.064767
9101.000000;0.065406
9100.000000;0.065954
9099.000000;0.066353
9098.000000;0.066692
9097.000000;0.067111
9096.000000;0.067639
9095.000000;0.068160
9094.000000;0.068562
9093.000000;0.068864
9092.000000;0.069155
9091.000000;0.069476
9090.000000;0.069796
9089.000000;0.070087
9088.000000;0.070358
9087.000000;0.070643
9086.000000;0.070999
9085.000000;0.071483
9084.000000;0.072085
9083.000000;0.072694
9082.000000;0.073192
9081.000000;0.073560
9080.000000;0.073848
9079.000000;0.074086
9078.000000;0.074300
9077.000000;0.074588
9076.000000;0.075071
9075.000000;0.075743
9074.000000;0.076426
9073.000000;0.076928
9072.000000;0.077192
9071.000000;0.077299
9070.000000;0.077394
