Criado como novo conjunto de dados;"0307_DANIEL.spp","51124.7 Secs"
cm-1;Abs
10000.000000;0.472685
9999.000000;0.471339
9998.000000;0.469995
9997.000000;0.468659
9996.000000;0.467320
9995.000000;0.465999
9994.000000;0.464644
9993.000000;0.463231
9992.000000;0.462008
9991.000000;0.461043
9990.000000;0.460184
9989.000000;0.459202
9988.000000;0.458037
9987.000000;0.456815
9986.000000;0.455664
9985.000000;0.454587
9984.000000;0.453526
9983.000000;0.452471
9982.000000;0.451442
9981.000000;0.450382
9980.000000;0.449192
9979.000000;0.447885
9978.000000;0.446613
9977.000000;0.445486
9976.000000;0.444446
9975.000000;0.443384
9974.000000;0.442311
9973.000000;0.441296
9972.000000;0.440293
9971.000000;0.439153
9970.000000;0.437810
9969.000000;0.436365
9968.000000;0.434985
9967.000000;0.433800
9966.000000;0.432872
9965.000000;0.432140
9964.000000;0.431386
9963.000000;0.430377
9962.000000;0.429099
9961.000000;0.427770
9960.000000;0.426574
9959.000000;0.425471
9958.000000;0.424306
9957.000000;0.423027
9956.000000;0.421710
9955.000000;0.420432
9954.000000;0.419193
9953.000000;0.417955
9952.000000;0.416706
9951.000000;0.415458
9950.000000;0.414223
9949.000000;0.412982
9948.000000;0.411678
9947.000000;0.410291
9946.000000;0.408920
9945.000000;0.407714
9944.000000;0.406702
9943.000000;0.405739
9942.000000;0.404663
9941.000000;0.403468
9940.000000;0.402278
9939.000000;0.401173
9938.000000;0.400117
9937.000000;0.399038
9936.000000;0.397929
9935.000000;0.396845
9934.000000;0.395790
9933.000000;0.394647
9932.000000;0.393273
9931.000000;0.391678
9930.000000;0.390076
9929.000000;0.388693
9928.000000;0.387567
9927.000000;0.386554
9926.000000;0.385524
9925.000000;0.384443
9924.000000;0.383309
9923.000000;0.382125
9922.000000;0.380948
9921.000000;0.379865
9920.000000;0.378882
9919.000000;0.377882
9918.000000;0.376746
9917.000000;0.375443
9916.000000;0.374006
9915.000000;0.372486
9914.000000;0.370975
9913.000000;0.369574
9912.000000;0.368292
9911.000000;0.367050
9910.000000;0.365808
9909.000000;0.364619
9908.000000;0.363509
9907.000000;0.362393
9906.000000;0.361196
9905.000000;0.359965
9904.000000;0.358790
9903.000000;0.357654
9902.000000;0.356446
9901.000000;0.355093
9900.000000;0.353633
9899.000000;0.352184
9898.000000;0.350881
9897.000000;0.349783
9896.000000;0.348782
9895.000000;0.347665
9894.000000;0.346329
9893.000000;0.344879
9892.000000;0.343464
9891.000000;0.342076
9890.000000;0.340597
9889.000000;0.339010
9888.000000;0.337462
9887.000000;0.336131
9886.000000;0.335090
9885.000000;0.334280
9884.000000;0.333532
9883.000000;0.332641
9882.000000;0.331508
9881.000000;0.330192
9880.000000;0.328814
9879.000000;0.327423
9878.000000;0.326014
9877.000000;0.324607
9876.000000;0.323216
9875.000000;0.321790
9874.000000;0.320292
9873.000000;0.318814
9872.000000;0.317489
9871.000000;0.316285
9870.000000;0.315011
9869.000000;0.313548
9868.000000;0.311991
9867.000000;0.310488
9866.000000;0.309044
9865.000000;0.307569
9864.000000;0.306060
9863.000000;0.304619
9862.000000;0.303313
9861.000000;0.302086
9860.000000;0.300839
9859.000000;0.299537
9858.000000;0.298206
9857.000000;0.296879
9856.000000;0.295591
9855.000000;0.294387
9854.000000;0.293260
9853.000000;0.292071
9852.000000;0.290643
9851.000000;0.288977
9850.000000;0.287303
9849.000000;0.285818
9848.000000;0.284449
9847.000000;0.282968
9846.000000;0.281335
9845.000000;0.279767
9844.000000;0.278473
9843.000000;0.277420
9842.000000;0.276404
9841.000000;0.275245
9840.000000;0.273859
9839.000000;0.272258
9838.000000;0.270567
9837.000000;0.268970
9836.000000;0.267545
9835.000000;0.266198
9834.000000;0.264824
9833.000000;0.263451
9832.000000;0.262144
9831.000000;0.260830
9830.000000;0.259351
9829.000000;0.257660
9828.000000;0.255873
9827.000000;0.254155
9826.000000;0.252627
9825.000000;0.251363
9824.000000;0.250330
9823.000000;0.249335
9822.000000;0.248132
9821.000000;0.246642
9820.000000;0.245008
9819.000000;0.243412
9818.000000;0.241918
9817.000000;0.240468
9816.000000;0.238988
9815.000000;0.237440
9814.000000;0.235846
9813.000000;0.234261
9812.000000;0.232708
9811.000000;0.231155
9810.000000;0.229592
9809.000000;0.228096
9808.000000;0.226751
9807.000000;0.225504
9806.000000;0.224184
9805.000000;0.222677
9804.000000;0.221017
9803.000000;0.219305
9802.000000;0.217610
9801.000000;0.215980
9800.000000;0.214472
9799.000000;0.213101
9798.000000;0.211785
9797.000000;0.210370
9796.000000;0.208757
9795.000000;0.207008
9794.000000;0.205319
9793.000000;0.203853
9792.000000;0.202557
9791.000000;0.201195
9790.000000;0.199593
9789.000000;0.197829
9788.000000;0.196110
9787.000000;0.194520
9786.000000;0.192979
9785.000000;0.191414
9784.000000;0.189842
9783.000000;0.188269
9782.000000;0.186633
9781.000000;0.184901
9780.000000;0.183149
9779.000000;0.181473
9778.000000;0.179871
9777.000000;0.178292
9776.000000;0.176732
9775.000000;0.175219
9774.000000;0.173729
9773.000000;0.172191
9772.000000;0.170567
9771.000000;0.168883
9770.000000;0.167188
9769.000000;0.165539
9768.000000;0.164002
9767.000000;0.162624
9766.000000;0.161366
9765.000000;0.160083
9764.000000;0.158613
9763.000000;0.156896
9762.000000;0.155040
9761.000000;0.153225
9760.000000;0.151541
9759.000000;0.149911
9758.000000;0.148193
9757.000000;0.146357
9756.000000;0.144504
9755.000000;0.142741
9754.000000;0.141071
9753.000000;0.139442
9752.000000;0.137844
9751.000000;0.136286
9750.000000;0.134728
9749.000000;0.133096
9748.000000;0.131375
9747.000000;0.129632
9746.000000;0.127939
9745.000000;0.126283
9744.000000;0.124591
9743.000000;0.122808
9742.000000;0.120932
9741.000000;0.119000
9740.000000;0.117076
9739.000000;0.115269
9738.000000;0.113676
9737.000000;0.112266
9736.000000;0.110846
9735.000000;0.109214
9734.000000;0.107362
9733.000000;0.105482
9732.000000;0.103741
9731.000000;0.102119
9730.000000;0.100486
9729.000000;0.098785
9728.000000;0.097067
9727.000000;0.095376
9726.000000;0.093681
9725.000000;0.091935
9724.000000;0.090143
9723.000000;0.088330
9722.000000;0.086503
9721.000000;0.084669
9720.000000;0.082862
9719.000000;0.081112
9718.000000;0.079406
9717.000000;0.077696
9716.000000;0.075935
9715.000000;0.074086
9714.000000;0.072131
9713.000000;0.070109
9712.000000;0.068127
9711.000000;0.066290
9710.000000;0.064609
9709.000000;0.062984
9708.000000;0.061282
9707.000000;0.059433
9706.000000;0.057444
9705.000000;0.055382
9704.000000;0.053340
9703.000000;0.051405
9702.000000;0.049598
9701.000000;0.047859
9700.000000;0.046097
9699.000000;0.044288
9698.000000;0.042492
9697.000000;0.040775
9696.000000;0.039123
9695.000000;0.037464
9694.000000;0.035749
9693.000000;0.033972
9692.000000;0.032117
9691.000000;0.030128
9690.000000;0.027975
9689.000000;0.025733
9688.000000;0.023561
9687.000000;0.021576
9686.000000;0.019735
9685.000000;0.017861
9684.000000;0.015818
9683.000000;0.013662
9682.000000;0.011600
9681.000000;0.009782
9680.000000;0.008145
9679.000000;0.006486
9678.000000;0.004676
9677.000000;0.002744
9676.000000;0.000793
9675.000000;-0.001130
9674.000000;-0.003047
9673.000000;-0.004995
9672.000000;-0.006982
9671.000000;-0.008998
9670.000000;-0.011039
9669.000000;-0.013129
9668.000000;-0.015292
9667.000000;-0.017508
9666.000000;-0.019698
9665.000000;-0.021795
9664.000000;-0.023813
9663.000000;-0.025798
9662.000000;-0.027736
9661.000000;-0.029574
9660.000000;-0.031336
9659.000000;-0.033149
9658.000000;-0.035108
9657.000000;-0.037193
9656.000000;-0.039346
9655.000000;-0.041565
9654.000000;-0.043867
9653.000000;-0.046177
9652.000000;-0.048369
9651.000000;-0.050416
9650.000000;-0.052429
9649.000000;-0.054512
9648.000000;-0.056621
9647.000000;-0.058634
9646.000000;-0.060534
9645.000000;-0.062456
9644.000000;-0.064534
9643.000000;-0.066738
9642.000000;-0.068934
9641.000000;-0.071074
9640.000000;-0.073231
9639.000000;-0.075436
9638.000000;-0.077588
9637.000000;-0.079598
9636.000000;-0.081533
9635.000000;-0.083515
9634.000000;-0.085546
9633.000000;-0.087574
9632.000000;-0.089682
9631.000000;-0.092017
9630.000000;-0.094500
9629.000000;-0.096816
9628.000000;-0.098781
9627.000000;-0.100589
9626.000000;-0.102552
9625.000000;-0.104738
9624.000000;-0.106982
9623.000000;-0.109177
9622.000000;-0.111347
9621.000000;-0.113479
9620.000000;-0.115482
9619.000000;-0.117369
9618.000000;-0.119318
9617.000000;-0.121494
9616.000000;-0.123861
9615.000000;-0.126242
9614.000000;-0.128506
9613.000000;-0.130642
9612.000000;-0.132723
9611.000000;-0.134834
9610.000000;-0.137034
9609.000000;-0.139330
9608.000000;-0.141682
9607.000000;-0.144039
9606.000000;-0.146349
9605.000000;-0.148572
9604.000000;-0.150722
9603.000000;-0.152887
9602.000000;-0.155176
9601.000000;-0.157603
9600.000000;-0.160058
9599.000000;-0.162408
9598.000000;-0.164608
9597.000000;-0.166725
9596.000000;-0.168855
9595.000000;-0.171029
9594.000000;-0.173198
9593.000000;-0.175316
9592.000000;-0.177438
9591.000000;-0.179691
9590.000000;-0.182113
9589.000000;-0.184566
9588.000000;-0.186852
9587.000000;-0.188914
9586.000000;-0.190894
9585.000000;-0.192973
9584.000000;-0.195197
9583.000000;-0.197479
9582.000000;-0.199740
9581.000000;-0.202008
9580.000000;-0.204360
9579.000000;-0.206779
9578.000000;-0.209144
9577.000000;-0.211388
9576.000000;-0.213611
9575.000000;-0.215967
9574.000000;-0.218438
9573.000000;-0.220825
9572.000000;-0.222976
9571.000000;-0.224956
9570.000000;-0.226954
9569.000000;-0.229116
9568.000000;-0.231479
9567.000000;-0.233987
9566.000000;-0.236489
9565.000000;-0.238803
9564.000000;-0.240879
9563.000000;-0.242847
9562.000000;-0.244875
9561.000000;-0.247012
9560.000000;-0.249236
9559.000000;-0.251548
9558.000000;-0.253915
9557.000000;-0.256197
9556.000000;-0.258283
9555.000000;-0.260268
9554.000000;-0.262382
9553.000000;-0.264732
9552.000000;-0.267221
9551.000000;-0.269711
9550.000000;-0.272140
9549.000000;-0.274457
9548.000000;-0.276596
9547.000000;-0.278559
9546.000000;-0.280462
9545.000000;-0.282425
9544.000000;-0.284471
9543.000000;-0.286569
9542.000000;-0.288706
9541.000000;-0.290877
9540.000000;-0.293058
9539.000000;-0.295218
9538.000000;-0.297352
9537.000000;-0.299484
9536.000000;-0.301653
9535.000000;-0.303906
9534.000000;-0.306241
9533.000000;-0.308566
9532.000000;-0.310763
9531.000000;-0.312795
9530.000000;-0.314713
9529.000000;-0.316563
9528.000000;-0.318371
9527.000000;-0.320200
9526.000000;-0.322133
9525.000000;-0.324165
9524.000000;-0.326205
9523.000000;-0.328199
9522.000000;-0.330193
9521.000000;-0.332220
9520.000000;-0.334207
9519.000000;-0.336062
9518.000000;-0.337797
9517.000000;-0.339498
9516.000000;-0.341224
9515.000000;-0.342994
9514.000000;-0.344825
9513.000000;-0.346720
9512.000000;-0.348619
9511.000000;-0.350449
9510.000000;-0.352234
9509.000000;-0.354079
9508.000000;-0.356025
9507.000000;-0.357956
9506.000000;-0.359714
9505.000000;-0.361276
9504.000000;-0.362787
9503.000000;-0.364377
9502.000000;-0.366003
9501.000000;-0.367535
9500.000000;-0.368977
9499.000000;-0.370526
9498.000000;-0.372328
9497.000000;-0.374261
9496.000000;-0.376028
9495.000000;-0.377468
9494.000000;-0.378683
9493.000000;-0.379873
9492.000000;-0.381132
9491.000000;-0.382446
9490.000000;-0.383783
9489.000000;-0.385124
9488.000000;-0.386428
9487.000000;-0.387647
9486.000000;-0.388777
9485.000000;-0.389863
9484.000000;-0.390966
9483.000000;-0.392129
9482.000000;-0.393367
9481.000000;-0.394638
9480.000000;-0.395828
9479.000000;-0.396813
9478.000000;-0.397559
9477.000000;-0.398178
9476.000000;-0.398872
9475.000000;-0.399815
9474.000000;-0.401031
9473.000000;-0.402358
9472.000000;-0.403543
9471.000000;-0.404418
9470.000000;-0.405018
9469.000000;-0.405565
9468.000000;-0.406321
9467.000000;-0.407391
9466.000000;-0.408604
9465.000000;-0.409597
9464.000000;-0.410131
9463.000000;-0.410327
9462.000000;-0.410563
9461.000000;-0.411088
9460.000000;-0.411793
9459.000000;-0.412385
9458.000000;-0.412739
9457.000000;-0.412985
9456.000000;-0.413315
9455.000000;-0.413765
9454.000000;-0.414221
9453.000000;-0.414547
9452.000000;-0.414683
9451.000000;-0.414687
9450.000000;-0.414720
9449.000000;-0.414945
9448.000000;-0.415371
9447.000000;-0.415816
9446.000000;-0.416065
9445.000000;-0.416064
9444.000000;-0.415928
9443.000000;-0.415792
9442.000000;-0.415719
9441.000000;-0.415731
9440.000000;-0.415838
9439.000000;-0.415995
9438.000000;-0.416084
9437.000000;-0.416011
9436.000000;-0.415795
9435.000000;-0.415528
9434.000000;-0.415256
9433.000000;-0.414958
9432.000000;-0.414619
9431.000000;-0.414268
9430.000000;-0.413941
9429.000000;-0.413630
9428.000000;-0.413300
9427.000000;-0.412918
9426.000000;-0.412469
9425.000000;-0.411973
9424.000000;-0.411481
9423.000000;-0.411046
9422.000000;-0.410682
9421.000000;-0.410346
9420.000000;-0.409946
9419.000000;-0.409365
9418.000000;-0.408539
9417.000000;-0.407577
9416.000000;-0.406746
9415.000000;-0.406242
9414.000000;-0.405979
9413.000000;-0.405673
9412.000000;-0.405133
9411.000000;-0.404399
9410.000000;-0.403586
9409.000000;-0.402728
9408.000000;-0.401840
9407.000000;-0.400999
9406.000000;-0.400260
9405.000000;-0.399521
9404.000000;-0.398633
9403.000000;-0.397608
9402.000000;-0.396614
9401.000000;-0.395756
9400.000000;-0.394965
9399.000000;-0.394143
9398.000000;-0.393300
9397.000000;-0.392497
9396.000000;-0.391712
9395.000000;-0.390856
9394.000000;-0.389892
9393.000000;-0.388867
9392.000000;-0.387847
9391.000000;-0.386855
9390.000000;-0.385885
9389.000000;-0.384920
9388.000000;-0.383924
9387.000000;-0.382855
9386.000000;-0.381698
9385.000000;-0.380479
9384.000000;-0.379244
9383.000000;-0.378036
9382.000000;-0.376875
9381.000000;-0.375754
9380.000000;-0.374649
9379.000000;-0.373542
9378.000000;-0.372431
9377.000000;-0.371295
9376.000000;-0.370091
9375.000000;-0.368819
9374.000000;-0.367569
9373.000000;-0.366443
9372.000000;-0.365403
9371.000000;-0.364277
9370.000000;-0.362961
9369.000000;-0.361565
9368.000000;-0.360298
9367.000000;-0.359218
9366.000000;-0.358180
9365.000000;-0.357020
9364.000000;-0.355732
9363.000000;-0.354422
9362.000000;-0.353170
9361.000000;-0.351981
9360.000000;-0.350839
9359.000000;-0.349709
9358.000000;-0.348522
9357.000000;-0.347221
9356.000000;-0.345838
9355.000000;-0.344469
9354.000000;-0.343155
9353.000000;-0.341844
9352.000000;-0.340509
9351.000000;-0.339226
9350.000000;-0.338087
9349.000000;-0.337074
9348.000000;-0.336083
9347.000000;-0.335037
9346.000000;-0.333922
9345.000000;-0.332714
9344.000000;-0.331369
9343.000000;-0.329902
9342.000000;-0.328418
9341.000000;-0.327023
9340.000000;-0.325735
9339.000000;-0.324497
9338.000000;-0.323253
9337.000000;-0.321992
9336.000000;-0.320742
9335.000000;-0.319545
9334.000000;-0.318400
9333.000000;-0.317233
9332.000000;-0.315960
9331.000000;-0.314617
9330.000000;-0.313349
9329.000000;-0.312244
9328.000000;-0.311211
9327.000000;-0.310093
9326.000000;-0.308856
9325.000000;-0.307572
9324.000000;-0.306266
9323.000000;-0.304911
9322.000000;-0.303595
9321.000000;-0.302512
9320.000000;-0.301717
9319.000000;-0.300961
9318.000000;-0.299901
9317.000000;-0.298439
9316.000000;-0.296787
9315.000000;-0.295223
9314.000000;-0.293873
9313.000000;-0.292721
9312.000000;-0.291708
9311.000000;-0.290763
9310.000000;-0.289790
9309.000000;-0.288682
9308.000000;-0.287397
9307.000000;-0.286000
9306.000000;-0.284652
9305.000000;-0.283477
9304.000000;-0.282436
9303.000000;-0.281327
9302.000000;-0.279995
9301.000000;-0.278504
9300.000000;-0.277078
9299.000000;-0.275873
9298.000000;-0.274858
9297.000000;-0.273895
9296.000000;-0.272871
9295.000000;-0.271739
9294.000000;-0.270508
9293.000000;-0.269240
9292.000000;-0.268027
9291.000000;-0.266921
9290.000000;-0.265893
9289.000000;-0.264873
9288.000000;-0.263803
9287.000000;-0.262668
9286.000000;-0.261492
9285.000000;-0.260324
9284.000000;-0.259193
9283.000000;-0.258066
9282.000000;-0.256895
9281.000000;-0.255690
9280.000000;-0.254523
9279.000000;-0.253448
9278.000000;-0.252457
9277.000000;-0.251505
9276.000000;-0.250550
9275.000000;-0.249540
9274.000000;-0.248440
9273.000000;-0.247281
9272.000000;-0.246134
9271.000000;-0.245025
9270.000000;-0.243921
9269.000000;-0.242825
9268.000000;-0.241809
9267.000000;-0.240911
9266.000000;-0.240039
9265.000000;-0.239055
9264.000000;-0.237920
9263.000000;-0.236710
9262.000000;-0.235512
9261.000000;-0.234361
9260.000000;-0.233282
9259.000000;-0.232313
9258.000000;-0.231462
9257.000000;-0.230664
9256.000000;-0.229812
9255.000000;-0.228826
9254.000000;-0.227720
9253.000000;-0.226587
9252.000000;-0.225521
9251.000000;-0.224543
9250.000000;-0.223628
9249.000000;-0.222773
9248.000000;-0.221984
9247.000000;-0.221198
9246.000000;-0.220289
9245.000000;-0.219197
9244.000000;-0.218010
9243.000000;-0.216873
9242.000000;-0.215849
9241.000000;-0.214918
9240.000000;-0.214048
9239.000000;-0.213201
9238.000000;-0.212307
9237.000000;-0.211319
9236.000000;-0.210298
9235.000000;-0.209373
9234.000000;-0.208592
9233.000000;-0.207859
9232.000000;-0.207035
9231.000000;-0.206063
9230.000000;-0.204994
9229.000000;-0.203939
9228.000000;-0.203013
9227.000000;-0.202275
9226.000000;-0.201671
9225.000000;-0.201049
9224.000000;-0.200258
9223.000000;-0.199266
9222.000000;-0.198180
9221.000000;-0.197165
9220.000000;-0.196311
9219.000000;-0.195571
9218.000000;-0.194823
9217.000000;-0.194005
9216.000000;-0.193164
9215.000000;-0.192360
9214.000000;-0.191557
9213.000000;-0.190669
9212.000000;-0.189683
9211.000000;-0.188703
9210.000000;-0.187835
9209.000000;-0.187089
9208.000000;-0.186395
9207.000000;-0.185698
9206.000000;-0.185001
9205.000000;-0.184315
9204.000000;-0.183606
9203.000000;-0.182787
9202.000000;-0.181807
9201.000000;-0.180735
9200.000000;-0.179728
9199.000000;-0.178899
9198.000000;-0.178229
9197.000000;-0.177607
9196.000000;-0.176939
9195.000000;-0.176201
9194.000000;-0.175407
9193.000000;-0.174598
9192.000000;-0.173835
9191.000000;-0.173172
9190.000000;-0.172598
9189.000000;-0.172038
9188.000000;-0.171417
9187.000000;-0.170701
9186.000000;-0.169903
9185.000000;-0.169066
9184.000000;-0.168252
9183.000000;-0.167497
9182.000000;-0.166771
9181.000000;-0.166011
9180.000000;-0.165194
9179.000000;-0.164362
9178.000000;-0.163583
9177.000000;-0.162887
9176.000000;-0.162261
9175.000000;-0.161672
9174.000000;-0.161090
9173.000000;-0.160495
9172.000000;-0.159868
9171.000000;-0.159175
9170.000000;-0.158400
9169.000000;-0.157578
9168.000000;-0.156807
9167.000000;-0.156164
9166.000000;-0.155643
9165.000000;-0.155162
9164.000000;-0.154648
9163.000000;-0.154080
9162.000000;-0.153463
9161.000000;-0.152789
9160.000000;-0.152045
9159.000000;-0.151241
9158.000000;-0.150427
9157.000000;-0.149673
9156.000000;-0.149025
9155.000000;-0.148464
9154.000000;-0.147926
9153.000000;-0.147369
9152.000000;-0.146810
9151.000000;-0.146277
9150.000000;-0.145774
9149.000000;-0.145289
9148.000000;-0.144823
9147.000000;-0.144368
9146.000000;-0.143878
9145.000000;-0.143310
9144.000000;-0.142673
9143.000000;-0.142012
9142.000000;-0.141345
9141.000000;-0.140668
9140.000000;-0.140006
9139.000000;-0.139409
9138.000000;-0.138883
9137.000000;-0.138374
9136.000000;-0.137828
9135.000000;-0.137247
9134.000000;-0.136671
9133.000000;-0.136136
9132.000000;-0.135642
9131.000000;-0.135142
9130.000000;-0.134577
9129.000000;-0.133937
9128.000000;-0.133287
9127.000000;-0.132703
9126.000000;-0.132193
9125.000000;-0.131713
9124.000000;-0.131231
9123.000000;-0.130752
9122.000000;-0.130267
9121.000000;-0.129750
9120.000000;-0.129211
9119.000000;-0.128707
9118.000000;-0.128265
9117.000000;-0.127844
9116.000000;-0.127387
9115.000000;-0.126884
9114.000000;-0.126348
9113.000000;-0.125789
9112.000000;-0.125217
9111.000000;-0.124667
9110.000000;-0.124177
9109.000000;-0.123748
9108.000000;-0.123333
9107.000000;-0.122867
9106.000000;-0.122311
9105.000000;-0.121687
9104.000000;-0.121091
9103.000000;-0.120632
9102.000000;-0.120330
9101.000000;-0.120074
9100.000000;-0.119719
9099.000000;-0.119210
9098.000000;-0.118613
9097.000000;-0.118047
9096.000000;-0.117601
9095.000000;-0.117303
9094.000000;-0.117105
9093.000000;-0.116888
9092.000000;-0.116524
9091.000000;-0.115971
9090.000000;-0.115321
9089.000000;-0.114728
9088.000000;-0.114274
9087.000000;-0.113915
9086.000000;-0.113546
9085.000000;-0.113116
9084.000000;-0.112655
9083.000000;-0.112220
9082.000000;-0.111844
9081.000000;-0.111525
