Criado como novo conjunto de dados;"0307_DANIEL.spp","57064.8 Secs"
cm-1;Abs
10000.000000;0.346142
9999.000000;0.345574
9998.000000;0.344976
9997.000000;0.344336
9996.000000;0.343663
9995.000000;0.342894
9994.000000;0.341882
9993.000000;0.340601
9992.000000;0.339304
9991.000000;0.338314
9990.000000;0.337682
9989.000000;0.337159
9988.000000;0.336519
9987.000000;0.335783
9986.000000;0.335087
9985.000000;0.334462
9984.000000;0.333815
9983.000000;0.333060
9982.000000;0.332187
9981.000000;0.331221
9980.000000;0.330213
9979.000000;0.329251
9978.000000;0.328423
9977.000000;0.327750
9976.000000;0.327165
9975.000000;0.326564
9974.000000;0.325861
9973.000000;0.325023
9972.000000;0.324097
9971.000000;0.323186
9970.000000;0.322370
9969.000000;0.321648
9968.000000;0.320966
9967.000000;0.320278
9966.000000;0.319560
9965.000000;0.318789
9964.000000;0.317949
9963.000000;0.317061
9962.000000;0.316196
9961.000000;0.315443
9960.000000;0.314855
9959.000000;0.314402
9958.000000;0.313940
9957.000000;0.313279
9956.000000;0.312350
9955.000000;0.311311
9954.000000;0.310440
9953.000000;0.309886
9952.000000;0.309512
9951.000000;0.309012
9950.000000;0.308183
9949.000000;0.307086
9948.000000;0.305967
9947.000000;0.305043
9946.000000;0.304323
9945.000000;0.303646
9944.000000;0.302848
9943.000000;0.301932
9942.000000;0.301038
9941.000000;0.300246
9940.000000;0.299447
9939.000000;0.298467
9938.000000;0.297335
9937.000000;0.296323
9936.000000;0.295657
9935.000000;0.295212
9934.000000;0.294607
9933.000000;0.293599
9932.000000;0.292326
9931.000000;0.291128
9930.000000;0.290200
9929.000000;0.289467
9928.000000;0.288733
9927.000000;0.287878
9926.000000;0.286927
9925.000000;0.285987
9924.000000;0.285133
9923.000000;0.284331
9922.000000;0.283484
9921.000000;0.282570
9920.000000;0.281669
9919.000000;0.280847
9918.000000;0.280067
9917.000000;0.279252
9916.000000;0.278391
9915.000000;0.277495
9914.000000;0.276526
9913.000000;0.275465
9912.000000;0.274429
9911.000000;0.273590
9910.000000;0.272961
9909.000000;0.272368
9908.000000;0.271658
9907.000000;0.270812
9906.000000;0.269843
9905.000000;0.268717
9904.000000;0.267473
9903.000000;0.266300
9902.000000;0.265367
9901.000000;0.264634
9900.000000;0.263937
9899.000000;0.263222
9898.000000;0.262562
9897.000000;0.261952
9896.000000;0.261236
9895.000000;0.260276
9894.000000;0.259114
9893.000000;0.257892
9892.000000;0.256694
9891.000000;0.255538
9890.000000;0.254478
9889.000000;0.253610
9888.000000;0.252952
9887.000000;0.252365
9886.000000;0.251628
9885.000000;0.250617
9884.000000;0.249403
9883.000000;0.248193
9882.000000;0.247173
9881.000000;0.246378
9880.000000;0.245671
9879.000000;0.244828
9878.000000;0.243686
9877.000000;0.242277
9876.000000;0.240848
9875.000000;0.239714
9874.000000;0.239002
9873.000000;0.238523
9872.000000;0.237925
9871.000000;0.236982
9870.000000;0.235765
9869.000000;0.234520
9868.000000;0.233430
9867.000000;0.232497
9866.000000;0.231633
9865.000000;0.230792
9864.000000;0.229992
9863.000000;0.229206
9862.000000;0.228299
9861.000000;0.227127
9860.000000;0.225725
9859.000000;0.224333
9858.000000;0.223183
9857.000000;0.222270
9856.000000;0.221389
9855.000000;0.220409
9854.000000;0.219443
9853.000000;0.218667
9852.000000;0.218020
9851.000000;0.217205
9850.000000;0.216034
9849.000000;0.214667
9848.000000;0.213439
9847.000000;0.212501
9846.000000;0.211729
9845.000000;0.210922
9844.000000;0.209978
9843.000000;0.208875
9842.000000;0.207605
9841.000000;0.206221
9840.000000;0.204856
9839.000000;0.203625
9838.000000;0.202540
9837.000000;0.201559
9836.000000;0.200673
9835.000000;0.199833
9834.000000;0.198872
9833.000000;0.197619
9832.000000;0.196136
9831.000000;0.194737
9830.000000;0.193697
9829.000000;0.192963
9828.000000;0.192202
9827.000000;0.191130
9826.000000;0.189758
9825.000000;0.188334
9824.000000;0.187075
9823.000000;0.185992
9822.000000;0.184963
9821.000000;0.183919
9820.000000;0.182885
9819.000000;0.181873
9818.000000;0.180833
9817.000000;0.179735
9816.000000;0.178626
9815.000000;0.177549
9814.000000;0.176451
9813.000000;0.175277
9812.000000;0.174080
9811.000000;0.172948
9810.000000;0.171835
9809.000000;0.170585
9808.000000;0.169160
9807.000000;0.167758
9806.000000;0.166635
9805.000000;0.165830
9804.000000;0.165078
9803.000000;0.164022
9802.000000;0.162538
9801.000000;0.160884
9800.000000;0.159490
9799.000000;0.158567
9798.000000;0.157931
9797.000000;0.157215
9796.000000;0.156203
9795.000000;0.154909
9794.000000;0.153429
9793.000000;0.151852
9792.000000;0.150298
9791.000000;0.148911
9790.000000;0.147746
9789.000000;0.146730
9788.000000;0.145738
9787.000000;0.144662
9786.000000;0.143419
9785.000000;0.142013
9784.000000;0.140585
9783.000000;0.139313
9782.000000;0.138221
9781.000000;0.137165
9780.000000;0.136027
9779.000000;0.134822
9778.000000;0.133565
9777.000000;0.132182
9776.000000;0.130657
9775.000000;0.129173
9774.000000;0.127930
9773.000000;0.126876
9772.000000;0.125732
9771.000000;0.124324
9770.000000;0.122765
9769.000000;0.121275
9768.000000;0.119918
9767.000000;0.118606
9766.000000;0.117295
9765.000000;0.116072
9764.000000;0.115019
9763.000000;0.114087
9762.000000;0.113156
9761.000000;0.112151
9760.000000;0.111036
9759.000000;0.109730
9758.000000;0.108183
9757.000000;0.106546
9756.000000;0.105114
9755.000000;0.104008
9754.000000;0.103000
9753.000000;0.101771
9752.000000;0.100293
9751.000000;0.098800
9750.000000;0.097422
9749.000000;0.096040
9748.000000;0.094512
9747.000000;0.092898
9746.000000;0.091365
9745.000000;0.089959
9744.000000;0.088569
9743.000000;0.087075
9742.000000;0.085482
9741.000000;0.083925
9740.000000;0.082563
9739.000000;0.081416
9738.000000;0.080332
9737.000000;0.079155
9736.000000;0.077904
9735.000000;0.076695
9734.000000;0.075508
9733.000000;0.074163
9732.000000;0.072568
9731.000000;0.070830
9730.000000;0.069088
9729.000000;0.067362
9728.000000;0.065656
9727.000000;0.064068
9726.000000;0.062690
9725.000000;0.061468
9724.000000;0.060277
9723.000000;0.059060
9722.000000;0.057821
9721.000000;0.056523
9720.000000;0.055105
9719.000000;0.053560
9718.000000;0.051938
9717.000000;0.050302
9716.000000;0.048771
9715.000000;0.047483
9714.000000;0.046428
9713.000000;0.045360
9712.000000;0.043998
9711.000000;0.042287
9710.000000;0.040383
9709.000000;0.038443
9708.000000;0.036587
9707.000000;0.034975
9706.000000;0.033725
9705.000000;0.032691
9704.000000;0.031497
9703.000000;0.029873
9702.000000;0.027921
9701.000000;0.025980
9700.000000;0.024313
9699.000000;0.022951
9698.000000;0.021743
9697.000000;0.020481
9696.000000;0.019027
9695.000000;0.017400
9694.000000;0.015753
9693.000000;0.014219
9692.000000;0.012778
9691.000000;0.011272
9690.000000;0.009548
9689.000000;0.007603
9688.000000;0.005598
9687.000000;0.003721
9686.000000;0.002045
9685.000000;0.000510
9684.000000;-0.000957
9683.000000;-0.002384
9682.000000;-0.003821
9681.000000;-0.005367
9680.000000;-0.007038
9679.000000;-0.008680
9678.000000;-0.010131
9677.000000;-0.011461
9676.000000;-0.012936
9675.000000;-0.014695
9674.000000;-0.016578
9673.000000;-0.018315
9672.000000;-0.019841
9671.000000;-0.021341
9670.000000;-0.023006
9669.000000;-0.024825
9668.000000;-0.026640
9667.000000;-0.028380
9666.000000;-0.030149
9665.000000;-0.032055
9664.000000;-0.034005
9663.000000;-0.035794
9662.000000;-0.037394
9661.000000;-0.039033
9660.000000;-0.040892
9659.000000;-0.042854
9658.000000;-0.044666
9657.000000;-0.046295
9656.000000;-0.047948
9655.000000;-0.049738
9654.000000;-0.051496
9653.000000;-0.052985
9652.000000;-0.054203
9651.000000;-0.055403
9650.000000;-0.056861
9649.000000;-0.058672
9648.000000;-0.060708
9647.000000;-0.062738
9646.000000;-0.064612
9645.000000;-0.066359
9644.000000;-0.068100
9643.000000;-0.069883
9642.000000;-0.071664
9641.000000;-0.073450
9640.000000;-0.075344
9639.000000;-0.077407
9638.000000;-0.079542
9637.000000;-0.081586
9636.000000;-0.083486
9635.000000;-0.085313
9634.000000;-0.087131
9633.000000;-0.088917
9632.000000;-0.090628
9631.000000;-0.092292
9630.000000;-0.094008
9629.000000;-0.095841
9628.000000;-0.097732
9627.000000;-0.099527
9626.000000;-0.101122
9625.000000;-0.102581
9624.000000;-0.104093
9623.000000;-0.105812
9622.000000;-0.107767
9621.000000;-0.109887
9620.000000;-0.112084
9619.000000;-0.114295
9618.000000;-0.116475
9617.000000;-0.118580
9616.000000;-0.120554
9615.000000;-0.122352
9614.000000;-0.124010
9613.000000;-0.125664
9612.000000;-0.127456
9611.000000;-0.129431
9610.000000;-0.131553
9609.000000;-0.133767
9608.000000;-0.135978
9607.000000;-0.138008
9606.000000;-0.139718
9605.000000;-0.141203
9604.000000;-0.142752
9603.000000;-0.144590
9602.000000;-0.146698
9601.000000;-0.148920
9600.000000;-0.151126
9599.000000;-0.153224
9598.000000;-0.155148
9597.000000;-0.156933
9596.000000;-0.158736
9595.000000;-0.160679
9594.000000;-0.162715
9593.000000;-0.164719
9592.000000;-0.166659
9591.000000;-0.168590
9590.000000;-0.170530
9589.000000;-0.172471
9588.000000;-0.174446
9587.000000;-0.176479
9586.000000;-0.178478
9585.000000;-0.180317
9584.000000;-0.182011
9583.000000;-0.183704
9582.000000;-0.185486
9581.000000;-0.187344
9580.000000;-0.189293
9579.000000;-0.191404
9578.000000;-0.193637
9577.000000;-0.195811
9576.000000;-0.197819
9575.000000;-0.199748
9574.000000;-0.201707
9573.000000;-0.203643
9572.000000;-0.205449
9571.000000;-0.207176
9570.000000;-0.208991
9569.000000;-0.210986
9568.000000;-0.213134
9567.000000;-0.215392
9566.000000;-0.217696
9565.000000;-0.219898
9564.000000;-0.221854
9563.000000;-0.223608
9562.000000;-0.225360
9561.000000;-0.227216
9560.000000;-0.229075
9559.000000;-0.230799
9558.000000;-0.232402
9557.000000;-0.234016
9556.000000;-0.235759
9555.000000;-0.237699
9554.000000;-0.239846
9553.000000;-0.242100
9552.000000;-0.244277
9551.000000;-0.246272
9550.000000;-0.248174
9549.000000;-0.250131
9548.000000;-0.252150
9547.000000;-0.254093
9546.000000;-0.255862
9545.000000;-0.257512
9544.000000;-0.259173
9543.000000;-0.260949
9542.000000;-0.262878
9541.000000;-0.264942
9540.000000;-0.267074
9539.000000;-0.269191
9538.000000;-0.271253
9537.000000;-0.273289
9536.000000;-0.275337
9535.000000;-0.277354
9534.000000;-0.279217
9533.000000;-0.280811
9532.000000;-0.282171
9531.000000;-0.283508
9530.000000;-0.285054
9529.000000;-0.286846
9528.000000;-0.288684
9527.000000;-0.290335
9526.000000;-0.291763
9525.000000;-0.293150
9524.000000;-0.294731
9523.000000;-0.296643
9522.000000;-0.298850
9521.000000;-0.301142
9520.000000;-0.303236
9519.000000;-0.304971
9518.000000;-0.306427
9517.000000;-0.307815
9516.000000;-0.309243
9515.000000;-0.310662
9514.000000;-0.312012
9513.000000;-0.313343
9512.000000;-0.314749
9511.000000;-0.316263
9510.000000;-0.317861
9509.000000;-0.319513
9508.000000;-0.321153
9507.000000;-0.322656
9506.000000;-0.323953
9505.000000;-0.325160
9504.000000;-0.326509
9503.000000;-0.328099
9502.000000;-0.329765
9501.000000;-0.331246
9500.000000;-0.332454
9499.000000;-0.333516
9498.000000;-0.334566
9497.000000;-0.335607
9496.000000;-0.336612
9495.000000;-0.337683
9494.000000;-0.338981
9493.000000;-0.340495
9492.000000;-0.341996
9491.000000;-0.343286
9490.000000;-0.344414
9489.000000;-0.345545
9488.000000;-0.346679
9487.000000;-0.347617
9486.000000;-0.348242
9485.000000;-0.348712
9484.000000;-0.349306
9483.000000;-0.350140
9482.000000;-0.351086
9481.000000;-0.351927
9480.000000;-0.352534
9479.000000;-0.352927
9478.000000;-0.353241
9477.000000;-0.353648
9476.000000;-0.354281
9475.000000;-0.355194
9474.000000;-0.356369
9473.000000;-0.357692
9472.000000;-0.358938
9471.000000;-0.359864
9470.000000;-0.360407
9469.000000;-0.360764
9468.000000;-0.361203
9467.000000;-0.361800
9466.000000;-0.362400
9465.000000;-0.362819
9464.000000;-0.363032
9463.000000;-0.363150
9462.000000;-0.363317
9461.000000;-0.363632
9460.000000;-0.364086
9459.000000;-0.364532
9458.000000;-0.364785
9457.000000;-0.364838
9456.000000;-0.364921
9455.000000;-0.365250
9454.000000;-0.365729
9453.000000;-0.365996
9452.000000;-0.365798
9451.000000;-0.365270
9450.000000;-0.364809
9449.000000;-0.364689
9448.000000;-0.364823
9447.000000;-0.364876
9446.000000;-0.364589
9445.000000;-0.363994
9444.000000;-0.363348
9443.000000;-0.362890
9442.000000;-0.362679
9441.000000;-0.362636
9440.000000;-0.362657
9439.000000;-0.362666
9438.000000;-0.362590
9437.000000;-0.362393
9436.000000;-0.362122
9435.000000;-0.361849
9434.000000;-0.361540
9433.000000;-0.361069
9432.000000;-0.360383
9431.000000;-0.359620
9430.000000;-0.359004
9429.000000;-0.358641
9428.000000;-0.358430
9427.000000;-0.358143
9426.000000;-0.357546
9425.000000;-0.356531
9424.000000;-0.355223
9423.000000;-0.353945
9422.000000;-0.352974
9421.000000;-0.352299
9420.000000;-0.351668
9419.000000;-0.350882
9418.000000;-0.349959
9417.000000;-0.349021
9416.000000;-0.348112
9415.000000;-0.347222
9414.000000;-0.346393
9413.000000;-0.345701
9412.000000;-0.345104
9411.000000;-0.344419
9410.000000;-0.343489
9409.000000;-0.342355
9408.000000;-0.341224
9407.000000;-0.340262
9406.000000;-0.339426
9405.000000;-0.338521
9404.000000;-0.337423
9403.000000;-0.336218
9402.000000;-0.335071
9401.000000;-0.333992
9400.000000;-0.332803
9399.000000;-0.331384
9398.000000;-0.329870
9397.000000;-0.328543
9396.000000;-0.327564
9395.000000;-0.326860
9394.000000;-0.326213
9393.000000;-0.325394
9392.000000;-0.324261
9391.000000;-0.322845
9390.000000;-0.321342
9389.000000;-0.319957
9388.000000;-0.318714
9387.000000;-0.317494
9386.000000;-0.316226
9385.000000;-0.314949
9384.000000;-0.313685
9383.000000;-0.312337
9382.000000;-0.310792
9381.000000;-0.309064
9380.000000;-0.307312
9379.000000;-0.305724
9378.000000;-0.304380
9377.000000;-0.303190
9376.000000;-0.301938
9375.000000;-0.300462
9374.000000;-0.298796
9373.000000;-0.297127
9372.000000;-0.295598
9371.000000;-0.294233
9370.000000;-0.293005
9369.000000;-0.291862
9368.000000;-0.290661
9367.000000;-0.289240
9366.000000;-0.287628
9365.000000;-0.286101
9364.000000;-0.284876
9363.000000;-0.283822
9362.000000;-0.282585
9361.000000;-0.280983
9360.000000;-0.279147
9359.000000;-0.277350
9358.000000;-0.275802
9357.000000;-0.274586
9356.000000;-0.273614
9355.000000;-0.272585
9354.000000;-0.271154
9353.000000;-0.269272
9352.000000;-0.267297
9351.000000;-0.265663
9350.000000;-0.264447
9349.000000;-0.263357
9348.000000;-0.262104
9347.000000;-0.260690
9346.000000;-0.259296
9345.000000;-0.257999
9344.000000;-0.256684
9343.000000;-0.255212
9342.000000;-0.253578
9341.000000;-0.251876
9340.000000;-0.250168
9339.000000;-0.248452
9338.000000;-0.246737
9337.000000;-0.245099
9336.000000;-0.243643
9335.000000;-0.242409
9334.000000;-0.241303
9333.000000;-0.240123
9332.000000;-0.238702
9331.000000;-0.237091
9330.000000;-0.235550
9329.000000;-0.234291
9328.000000;-0.233232
9327.000000;-0.232070
9326.000000;-0.230620
9325.000000;-0.228992
9324.000000;-0.227398
9323.000000;-0.225898
9322.000000;-0.224398
9321.000000;-0.222835
9320.000000;-0.221250
9319.000000;-0.219695
9318.000000;-0.218169
9317.000000;-0.216663
9316.000000;-0.215202
9315.000000;-0.213802
9314.000000;-0.212433
9313.000000;-0.211081
9312.000000;-0.209796
9311.000000;-0.208623
9310.000000;-0.207486
9309.000000;-0.206210
9308.000000;-0.204716
9307.000000;-0.203138
9306.000000;-0.201677
9305.000000;-0.200341
9304.000000;-0.198917
9303.000000;-0.197227
9302.000000;-0.195364
9301.000000;-0.193581
9300.000000;-0.192018
9299.000000;-0.190628
9298.000000;-0.189325
9297.000000;-0.188092
9296.000000;-0.186921
9295.000000;-0.185786
9294.000000;-0.184699
9293.000000;-0.183689
9292.000000;-0.182649
9291.000000;-0.181332
9290.000000;-0.179606
9289.000000;-0.177667
9288.000000;-0.175895
9287.000000;-0.174509
9286.000000;-0.173427
9285.000000;-0.172418
9284.000000;-0.171293
9283.000000;-0.169987
9282.000000;-0.168571
9281.000000;-0.167204
9280.000000;-0.166014
9279.000000;-0.164976
9278.000000;-0.163954
9277.000000;-0.162862
9276.000000;-0.161718
9275.000000;-0.160537
9274.000000;-0.159248
9273.000000;-0.157791
9272.000000;-0.156231
9271.000000;-0.154715
9270.000000;-0.153341
9269.000000;-0.152094
9268.000000;-0.150911
9267.000000;-0.149744
9266.000000;-0.148581
9265.000000;-0.147440
9264.000000;-0.146361
9263.000000;-0.145334
9262.000000;-0.144237
9261.000000;-0.142893
9260.000000;-0.141282
9259.000000;-0.139663
9258.000000;-0.138373
9257.000000;-0.137463
9256.000000;-0.136622
9255.000000;-0.135508
9254.000000;-0.134105
9253.000000;-0.132668
9252.000000;-0.131399
9251.000000;-0.130271
9250.000000;-0.129189
9249.000000;-0.128177
9248.000000;-0.127330
9247.000000;-0.126620
9246.000000;-0.125818
9245.000000;-0.124646
9244.000000;-0.123043
9243.000000;-0.121286
9242.000000;-0.119803
9241.000000;-0.118785
9240.000000;-0.118019
9239.000000;-0.117164
9238.000000;-0.116142
9237.000000;-0.115130
9236.000000;-0.114199
9235.000000;-0.113170
9234.000000;-0.111900
9233.000000;-0.110536
9232.000000;-0.109341
9231.000000;-0.108338
9230.000000;-0.107303
9229.000000;-0.106089
9228.000000;-0.104805
9227.000000;-0.103653
9226.000000;-0.102679
9225.000000;-0.101762
9224.000000;-0.100761
9223.000000;-0.099624
9222.000000;-0.098378
9221.000000;-0.097088
9220.000000;-0.095836
9219.000000;-0.094717
9218.000000;-0.093773
9217.000000;-0.092931
9216.000000;-0.092032
9215.000000;-0.090989
9214.000000;-0.089886
9213.000000;-0.088882
9212.000000;-0.088027
9211.000000;-0.087219
9210.000000;-0.086328
9209.000000;-0.085305
9208.000000;-0.084162
9207.000000;-0.082945
9206.000000;-0.081739
9205.000000;-0.080636
9204.000000;-0.079645
9203.000000;-0.078698
9202.000000;-0.077766
9201.000000;-0.076899
9200.000000;-0.076125
9199.000000;-0.075389
9198.000000;-0.074641
9197.000000;-0.073909
9196.000000;-0.073204
9195.000000;-0.072423
9194.000000;-0.071447
9193.000000;-0.070316
9192.000000;-0.069225
9191.000000;-0.068345
9190.000000;-0.067680
9189.000000;-0.067067
9188.000000;-0.066304
9187.000000;-0.065311
9186.000000;-0.064211
9185.000000;-0.063214
9184.000000;-0.062386
9183.000000;-0.061587
9182.000000;-0.060682
9181.000000;-0.059704
9180.000000;-0.058756
9179.000000;-0.057843
9178.000000;-0.056917
9177.000000;-0.056039
9176.000000;-0.055345
9175.000000;-0.054850
9174.000000;-0.054384
9173.000000;-0.053751
9172.000000;-0.052870
9171.000000;-0.051788
9170.000000;-0.050634
9169.000000;-0.049574
9168.000000;-0.048706
9167.000000;-0.047961
9166.000000;-0.047151
9165.000000;-0.046160
9164.000000;-0.045052
9163.000000;-0.043988
9162.000000;-0.043086
9161.000000;-0.042339
9160.000000;-0.041630
9159.000000;-0.040838
9158.000000;-0.039965
9157.000000;-0.039145
9156.000000;-0.038452
9155.000000;-0.037754
9154.000000;-0.036850
9153.000000;-0.035751
9152.000000;-0.034706
9151.000000;-0.033925
9150.000000;-0.033377
9149.000000;-0.032897
9148.000000;-0.032381
9147.000000;-0.031788
9146.000000;-0.031040
9145.000000;-0.030061
9144.000000;-0.028912
9143.000000;-0.027795
9142.000000;-0.026882
9141.000000;-0.026199
9140.000000;-0.025676
9139.000000;-0.025242
9138.000000;-0.024842
9137.000000;-0.024404
9136.000000;-0.023862
9135.000000;-0.023217
9134.000000;-0.022559
9133.000000;-0.021994
9132.000000;-0.021543
9131.000000;-0.021120
9130.000000;-0.020585
9129.000000;-0.019840
9128.000000;-0.018887
9127.000000;-0.017835
9126.000000;-0.016838
9125.000000;-0.016005
9124.000000;-0.015331
9123.000000;-0.014718
9122.000000;-0.014063
9121.000000;-0.013344
9120.000000;-0.012629
9119.000000;-0.012010
9118.000000;-0.011536
9117.000000;-0.011153
9116.000000;-0.010733
9115.000000;-0.010150
9114.000000;-0.009364
9113.000000;-0.008425
9112.000000;-0.007425
9111.000000;-0.006492
9110.000000;-0.005773
9109.000000;-0.005355
9108.000000;-0.005144
9107.000000;-0.004890
9106.000000;-0.004391
9105.000000;-0.003646
9104.000000;-0.002805
9103.000000;-0.002028
9102.000000;-0.001422
9101.000000;-0.001026
9100.000000;-0.000747
9099.000000;-0.000351
9098.000000;0.000356
9097.000000;0.001309
9096.000000;0.002220
9095.000000;0.002870
9094.000000;0.003306
9093.000000;0.003732
9092.000000;0.004290
9091.000000;0.004998
9090.000000;0.005821
9089.000000;0.006688
9088.000000;0.007455
9087.000000;0.007982
9086.000000;0.008294
9085.000000;0.008604
9084.000000;0.009111
9083.000000;0.009800
9082.000000;0.010495
9081.000000;0.011083
