Criado como novo conjunto de dados;"0307_DANIEL.spp","41583.9 Secs"
cm-1;Abs
10000.000000;1.055875
9999.000000;1.055984
9998.000000;1.056065
9997.000000;1.055518
9996.000000;1.054048
9995.000000;1.051796
9994.000000;1.049213
9993.000000;1.046808
9992.000000;1.044869
9991.000000;1.043369
9990.000000;1.042113
9989.000000;1.041001
9988.000000;1.040155
9987.000000;1.039742
9986.000000;1.039635
9985.000000;1.039293
9984.000000;1.038148
9983.000000;1.036176
9982.000000;1.033978
9981.000000;1.032215
9980.000000;1.031080
9979.000000;1.030382
9978.000000;1.029929
9977.000000;1.029573
9976.000000;1.028970
9975.000000;1.027682
9974.000000;1.025694
9973.000000;1.023626
9972.000000;1.022213
9971.000000;1.021605
9970.000000;1.021253
9969.000000;1.020424
9968.000000;1.018772
9967.000000;1.016483
9966.000000;1.014036
9965.000000;1.011856
9964.000000;1.010140
9963.000000;1.008943
9962.000000;1.008301
9961.000000;1.008137
9960.000000;1.008070
9959.000000;1.007521
9958.000000;1.006179
9957.000000;1.004318
9956.000000;1.002551
9955.000000;1.001268
9954.000000;1.000362
9953.000000;0.999433
9952.000000;0.998166
9951.000000;0.996552
9950.000000;0.994859
9949.000000;0.993404
9948.000000;0.992304
9947.000000;0.991389
9946.000000;0.990354
9945.000000;0.989014
9944.000000;0.987418
9943.000000;0.985772
9942.000000;0.984255
9941.000000;0.982849
9940.000000;0.981334
9939.000000;0.979536
9938.000000;0.977632
9937.000000;0.976145
9936.000000;0.975482
9935.000000;0.975481
9934.000000;0.975505
9933.000000;0.975016
9932.000000;0.973951
9931.000000;0.972546
9930.000000;0.970981
9929.000000;0.969338
9928.000000;0.967765
9927.000000;0.966417
9926.000000;0.965207
9925.000000;0.963853
9924.000000;0.962275
9923.000000;0.960776
9922.000000;0.959669
9921.000000;0.958838
9920.000000;0.957856
9919.000000;0.956512
9918.000000;0.955010
9917.000000;0.953640
9916.000000;0.952442
9915.000000;0.951259
9914.000000;0.949936
9913.000000;0.948376
9912.000000;0.946564
9911.000000;0.944634
9910.000000;0.942816
9909.000000;0.941186
9908.000000;0.939627
9907.000000;0.938122
9906.000000;0.936915
9905.000000;0.936173
9904.000000;0.935616
9903.000000;0.934720
9902.000000;0.933291
9901.000000;0.931597
9900.000000;0.929964
9899.000000;0.928473
9898.000000;0.927100
9897.000000;0.925901
9896.000000;0.924888
9895.000000;0.923882
9894.000000;0.922636
9893.000000;0.921051
9892.000000;0.919213
9891.000000;0.917290
9890.000000;0.915459
9889.000000;0.913835
9888.000000;0.912416
9887.000000;0.911138
9886.000000;0.909972
9885.000000;0.908869
9884.000000;0.907601
9883.000000;0.905907
9882.000000;0.903895
9881.000000;0.902137
9880.000000;0.901130
9879.000000;0.900723
9878.000000;0.900199
9877.000000;0.898952
9876.000000;0.897016
9875.000000;0.894933
9874.000000;0.893220
9873.000000;0.891973
9872.000000;0.890910
9871.000000;0.889727
9870.000000;0.888364
9869.000000;0.886932
9868.000000;0.885479
9867.000000;0.883982
9866.000000;0.882541
9865.000000;0.881375
9864.000000;0.880510
9863.000000;0.879604
9862.000000;0.878256
9861.000000;0.876440
9860.000000;0.874519
9859.000000;0.872857
9858.000000;0.871515
9857.000000;0.870290
9856.000000;0.868922
9855.000000;0.867236
9854.000000;0.865197
9853.000000;0.862935
9852.000000;0.860764
9851.000000;0.859114
9850.000000;0.858268
9849.000000;0.858014
9848.000000;0.857621
9847.000000;0.856406
9846.000000;0.854394
9845.000000;0.852286
9844.000000;0.850716
9843.000000;0.849721
9842.000000;0.848935
9841.000000;0.848064
9840.000000;0.846986
9839.000000;0.845618
9838.000000;0.843938
9837.000000;0.842084
9836.000000;0.840209
9835.000000;0.838289
9834.000000;0.836256
9833.000000;0.834241
9832.000000;0.832474
9831.000000;0.830959
9830.000000;0.829468
9829.000000;0.827865
9828.000000;0.826226
9827.000000;0.824627
9826.000000;0.823008
9825.000000;0.821344
9824.000000;0.819794
9823.000000;0.818566
9822.000000;0.817691
9821.000000;0.816975
9820.000000;0.816095
9819.000000;0.814734
9818.000000;0.812765
9817.000000;0.810366
9816.000000;0.807926
9815.000000;0.805796
9814.000000;0.804153
9813.000000;0.802982
9812.000000;0.802038
9811.000000;0.800864
9810.000000;0.799129
9809.000000;0.797030
9808.000000;0.795140
9807.000000;0.793744
9806.000000;0.792494
9805.000000;0.790880
9804.000000;0.788904
9803.000000;0.787041
9802.000000;0.785623
9801.000000;0.784514
9800.000000;0.783421
9799.000000;0.782254
9798.000000;0.781026
9797.000000;0.779573
9796.000000;0.777654
9795.000000;0.775352
9794.000000;0.773143
9793.000000;0.771416
9792.000000;0.770070
9791.000000;0.768690
9790.000000;0.767057
9789.000000;0.765298
9788.000000;0.763591
9787.000000;0.761918
9786.000000;0.760186
9785.000000;0.758421
9784.000000;0.756755
9783.000000;0.755311
9782.000000;0.754142
9781.000000;0.753140
9780.000000;0.751974
9779.000000;0.750293
9778.000000;0.748101
9777.000000;0.745750
9776.000000;0.743491
9775.000000;0.741258
9774.000000;0.739033
9773.000000;0.737117
9772.000000;0.735735
9771.000000;0.734559
9770.000000;0.733014
9769.000000;0.731030
9768.000000;0.729112
9767.000000;0.727635
9766.000000;0.726427
9765.000000;0.725128
9764.000000;0.723645
9763.000000;0.722120
9762.000000;0.720666
9761.000000;0.719295
9760.000000;0.717923
9759.000000;0.716345
9758.000000;0.714388
9757.000000;0.712185
9756.000000;0.710111
9755.000000;0.708323
9754.000000;0.706554
9753.000000;0.704503
9752.000000;0.702257
9751.000000;0.700152
9750.000000;0.698370
9749.000000;0.696845
9748.000000;0.695424
9747.000000;0.693926
9746.000000;0.692154
9745.000000;0.690075
9744.000000;0.687939
9743.000000;0.686039
9742.000000;0.684373
9741.000000;0.682676
9740.000000;0.680790
9739.000000;0.678826
9738.000000;0.676972
9737.000000;0.675258
9736.000000;0.673579
9735.000000;0.671882
9734.000000;0.670245
9733.000000;0.668767
9732.000000;0.667378
9731.000000;0.665836
9730.000000;0.663989
9729.000000;0.662026
9728.000000;0.660292
9727.000000;0.658849
9726.000000;0.657359
9725.000000;0.655465
9724.000000;0.653143
9723.000000;0.650626
9722.000000;0.648140
9721.000000;0.645843
9720.000000;0.643847
9719.000000;0.642117
9718.000000;0.640403
9717.000000;0.638453
9716.000000;0.636250
9715.000000;0.633990
9714.000000;0.631892
9713.000000;0.630110
9712.000000;0.628692
9711.000000;0.627488
9710.000000;0.626201
9709.000000;0.624658
9708.000000;0.622949
9707.000000;0.621170
9706.000000;0.619185
9705.000000;0.616854
9704.000000;0.614401
9703.000000;0.612271
9702.000000;0.610580
9701.000000;0.608938
9700.000000;0.606920
9699.000000;0.604542
9698.000000;0.602159
9697.000000;0.600018
9696.000000;0.598069
9695.000000;0.596199
9694.000000;0.594497
9693.000000;0.593167
9692.000000;0.592192
9691.000000;0.591155
9690.000000;0.589532
9689.000000;0.587191
9688.000000;0.584495
9687.000000;0.581865
9686.000000;0.579347
9685.000000;0.576740
9684.000000;0.574038
9683.000000;0.571545
9682.000000;0.569514
9681.000000;0.567826
9680.000000;0.566120
9679.000000;0.564218
9678.000000;0.562303
9677.000000;0.560653
9676.000000;0.559231
9675.000000;0.557651
9674.000000;0.555619
9673.000000;0.553306
9672.000000;0.551162
9671.000000;0.549375
9670.000000;0.547693
9669.000000;0.545795
9668.000000;0.543640
9667.000000;0.541352
9666.000000;0.538962
9665.000000;0.536463
9664.000000;0.533994
9663.000000;0.531757
9662.000000;0.529770
9661.000000;0.527862
9660.000000;0.525904
9659.000000;0.523912
9658.000000;0.521926
9657.000000;0.519925
9656.000000;0.517885
9655.000000;0.515812
9654.000000;0.513693
9653.000000;0.511482
9652.000000;0.509139
9651.000000;0.506651
9650.000000;0.504064
9649.000000;0.501551
9648.000000;0.499361
9647.000000;0.497577
9646.000000;0.495954
9645.000000;0.494105
9644.000000;0.491858
9643.000000;0.489377
9642.000000;0.486955
9641.000000;0.484749
9640.000000;0.482719
9639.000000;0.480714
9638.000000;0.478613
9637.000000;0.476401
9636.000000;0.474112
9635.000000;0.471738
9634.000000;0.469306
9633.000000;0.467002
9632.000000;0.465052
9631.000000;0.463369
9630.000000;0.461508
9629.000000;0.459118
9628.000000;0.456325
9627.000000;0.453532
9626.000000;0.450965
9625.000000;0.448614
9624.000000;0.446481
9623.000000;0.444631
9622.000000;0.442976
9621.000000;0.441258
9620.000000;0.439294
9619.000000;0.437090
9618.000000;0.434726
9617.000000;0.432284
9616.000000;0.429878
9615.000000;0.427582
9614.000000;0.425316
9613.000000;0.422931
9612.000000;0.420419
9611.000000;0.417887
9610.000000;0.415337
9609.000000;0.412658
9608.000000;0.409864
9607.000000;0.407190
9606.000000;0.404858
9605.000000;0.402869
9604.000000;0.401036
9603.000000;0.399118
9602.000000;0.396924
9601.000000;0.394447
9600.000000;0.391945
9599.000000;0.389750
9598.000000;0.387928
9597.000000;0.386207
9596.000000;0.384253
9595.000000;0.381907
9594.000000;0.379162
9593.000000;0.376142
9592.000000;0.373164
9591.000000;0.370617
9590.000000;0.368615
9589.000000;0.366865
9588.000000;0.364960
9587.000000;0.362705
9586.000000;0.360107
9585.000000;0.357236
9584.000000;0.354282
9583.000000;0.351614
9582.000000;0.349518
9581.000000;0.347856
9580.000000;0.346152
9579.000000;0.344063
9578.000000;0.341645
9577.000000;0.339153
9576.000000;0.336702
9575.000000;0.334227
9574.000000;0.331690
9573.000000;0.329196
9572.000000;0.326885
9571.000000;0.324762
9570.000000;0.322701
9569.000000;0.320594
9568.000000;0.318426
9567.000000;0.316180
9566.000000;0.313780
9565.000000;0.311193
9564.000000;0.308561
9563.000000;0.306082
9562.000000;0.303774
9561.000000;0.301446
9560.000000;0.298959
9559.000000;0.296426
9558.000000;0.294090
9557.000000;0.292050
9556.000000;0.290147
9555.000000;0.288094
9554.000000;0.285717
9553.000000;0.283088
9552.000000;0.280471
9551.000000;0.278109
9550.000000;0.276023
9549.000000;0.274014
9548.000000;0.271842
9547.000000;0.269407
9546.000000;0.266821
9545.000000;0.264352
9544.000000;0.262248
9543.000000;0.260496
9542.000000;0.258749
9541.000000;0.256620
9540.000000;0.254063
9539.000000;0.251406
9538.000000;0.248978
9537.000000;0.246780
9536.000000;0.244583
9535.000000;0.242232
9534.000000;0.239785
9533.000000;0.237413
9532.000000;0.235243
9531.000000;0.233303
9530.000000;0.231525
9529.000000;0.229777
9528.000000;0.227951
9527.000000;0.226045
9526.000000;0.224168
9525.000000;0.222401
9524.000000;0.220665
9523.000000;0.218753
9522.000000;0.216535
9521.000000;0.214139
9520.000000;0.211854
9519.000000;0.209811
9518.000000;0.207843
9517.000000;0.205722
9516.000000;0.203458
9515.000000;0.201278
9514.000000;0.199344
9513.000000;0.197603
9512.000000;0.195918
9511.000000;0.194239
9510.000000;0.192584
9509.000000;0.190924
9508.000000;0.189160
9507.000000;0.187236
9506.000000;0.185242
9505.000000;0.183358
9504.000000;0.181694
9503.000000;0.180183
9502.000000;0.178680
9501.000000;0.177147
9500.000000;0.175619
9499.000000;0.174020
9498.000000;0.172164
9497.000000;0.170039
9496.000000;0.167944
9495.000000;0.166175
9494.000000;0.164678
9493.000000;0.163191
9492.000000;0.161628
9491.000000;0.160127
9490.000000;0.158779
9489.000000;0.157539
9488.000000;0.156397
9487.000000;0.155383
9486.000000;0.154363
9485.000000;0.153075
9484.000000;0.151482
9483.000000;0.149869
9482.000000;0.148489
9481.000000;0.147340
9480.000000;0.146371
9479.000000;0.145664
9478.000000;0.145188
9477.000000;0.144565
9476.000000;0.143406
9475.000000;0.141792
9474.000000;0.140206
9473.000000;0.138999
9472.000000;0.138137
9471.000000;0.137429
9470.000000;0.136749
9469.000000;0.135987
9468.000000;0.135007
9467.000000;0.133815
9466.000000;0.132657
9465.000000;0.131834
9464.000000;0.131421
9463.000000;0.131202
9462.000000;0.130878
9461.000000;0.130316
9460.000000;0.129636
9459.000000;0.129008
9458.000000;0.128385
9457.000000;0.127527
9456.000000;0.126378
9455.000000;0.125275
9454.000000;0.124628
9453.000000;0.124451
9452.000000;0.124407
9451.000000;0.124295
9450.000000;0.124255
9449.000000;0.124443
9448.000000;0.124711
9447.000000;0.124770
9446.000000;0.124520
9445.000000;0.124071
9444.000000;0.123557
9443.000000;0.123100
9442.000000;0.122878
9441.000000;0.123004
9440.000000;0.123335
9439.000000;0.123545
9438.000000;0.123467
9437.000000;0.123254
9436.000000;0.123175
9435.000000;0.123330
9434.000000;0.123600
9433.000000;0.123809
9432.000000;0.123859
9431.000000;0.123787
9430.000000;0.123744
9429.000000;0.123886
9428.000000;0.124233
9427.000000;0.124644
9426.000000;0.124997
9425.000000;0.125341
9424.000000;0.125799
9423.000000;0.126340
9422.000000;0.126786
9421.000000;0.127098
9420.000000;0.127523
9419.000000;0.128300
9418.000000;0.129296
9417.000000;0.130109
9416.000000;0.130565
9415.000000;0.130920
9414.000000;0.131480
9413.000000;0.132184
9412.000000;0.132732
9411.000000;0.133016
9410.000000;0.133237
9409.000000;0.133611
9408.000000;0.134179
9407.000000;0.134943
9406.000000;0.135963
9405.000000;0.137197
9404.000000;0.138387
9403.000000;0.139290
9402.000000;0.139964
9401.000000;0.140664
9400.000000;0.141475
9399.000000;0.142227
9398.000000;0.142793
9397.000000;0.143329
9396.000000;0.144078
9395.000000;0.145024
9394.000000;0.145895
9393.000000;0.146514
9392.000000;0.147043
9391.000000;0.147820
9390.000000;0.148983
9389.000000;0.150347
9388.000000;0.151625
9387.000000;0.152710
9386.000000;0.153699
9385.000000;0.154714
9384.000000;0.155783
9383.000000;0.156898
9382.000000;0.158104
9381.000000;0.159464
9380.000000;0.160939
9379.000000;0.162343
9378.000000;0.163444
9377.000000;0.164142
9376.000000;0.164573
9375.000000;0.165044
9374.000000;0.165819
9373.000000;0.166941
9372.000000;0.168233
9371.000000;0.169475
9370.000000;0.170559
9369.000000;0.171508
9368.000000;0.172389
9367.000000;0.173267
9366.000000;0.174210
9365.000000;0.175272
9364.000000;0.176452
9363.000000;0.177694
9362.000000;0.178938
9361.000000;0.180155
9360.000000;0.181325
9359.000000;0.182415
9358.000000;0.183427
9357.000000;0.184461
9356.000000;0.185694
9355.000000;0.187212
9354.000000;0.188885
9353.000000;0.190455
9352.000000;0.191762
9351.000000;0.192872
9350.000000;0.193931
9349.000000;0.194995
9348.000000;0.196060
9347.000000;0.197220
9346.000000;0.198644
9345.000000;0.200322
9344.000000;0.201969
9343.000000;0.203298
9342.000000;0.204347
9341.000000;0.205408
9340.000000;0.206651
9339.000000;0.207946
9338.000000;0.209068
9337.000000;0.209944
9336.000000;0.210648
9335.000000;0.211268
9334.000000;0.211919
9333.000000;0.212793
9332.000000;0.214035
9331.000000;0.215544
9330.000000;0.217020
9329.000000;0.218224
9328.000000;0.219149
9327.000000;0.219932
9326.000000;0.220723
9325.000000;0.221683
9324.000000;0.222965
9323.000000;0.224563
9322.000000;0.226234
9321.000000;0.227687
9320.000000;0.228841
9319.000000;0.229842
9318.000000;0.230837
9317.000000;0.231846
9316.000000;0.232850
9315.000000;0.233882
9314.000000;0.234990
9313.000000;0.236188
9312.000000;0.237482
9311.000000;0.238877
9310.000000;0.240294
9309.000000;0.241537
9308.000000;0.242464
9307.000000;0.243187
9306.000000;0.244014
9305.000000;0.245151
9304.000000;0.246536
9303.000000;0.247964
9302.000000;0.249318
9301.000000;0.250595
9300.000000;0.251780
9299.000000;0.252820
9298.000000;0.253750
9297.000000;0.254710
9296.000000;0.255764
9295.000000;0.256757
9294.000000;0.257493
9293.000000;0.258022
9292.000000;0.258659
9291.000000;0.259655
9290.000000;0.260933
9289.000000;0.262188
9288.000000;0.263213
9287.000000;0.264060
9286.000000;0.264924
9285.000000;0.265961
9284.000000;0.267220
9283.000000;0.268642
9282.000000;0.270092
9281.000000;0.271407
9280.000000;0.272478
9279.000000;0.273339
9278.000000;0.274168
9277.000000;0.275155
9276.000000;0.276330
9275.000000;0.277533
9274.000000;0.278596
9273.000000;0.279543
9272.000000;0.280563
9271.000000;0.281763
9270.000000;0.283037
9269.000000;0.284221
9268.000000;0.285294
9267.000000;0.286337
9266.000000;0.287328
9265.000000;0.288101
9264.000000;0.288563
9263.000000;0.288880
9262.000000;0.289373
9261.000000;0.290240
9260.000000;0.291403
9259.000000;0.292615
9258.000000;0.293699
9257.000000;0.294664
9256.000000;0.295595
9255.000000;0.296475
9254.000000;0.297202
9253.000000;0.297772
9252.000000;0.298386
9251.000000;0.299261
9250.000000;0.300364
9249.000000;0.301416
9248.000000;0.302186
9247.000000;0.302746
9246.000000;0.303412
9245.000000;0.304451
9244.000000;0.305836
9243.000000;0.307245
9242.000000;0.308337
9241.000000;0.309049
9240.000000;0.309625
9239.000000;0.310333
9238.000000;0.311194
9237.000000;0.312044
9236.000000;0.312770
9235.000000;0.313393
9234.000000;0.313933
9233.000000;0.314370
9232.000000;0.314814
9231.000000;0.315564
9230.000000;0.316841
9229.000000;0.318484
9228.000000;0.320028
9227.000000;0.321099
9226.000000;0.321680
9225.000000;0.322026
9224.000000;0.322452
9223.000000;0.323192
9222.000000;0.324307
9221.000000;0.325628
9220.000000;0.326811
9219.000000;0.327591
9218.000000;0.327997
9217.000000;0.328294
9216.000000;0.328718
9215.000000;0.329308
9214.000000;0.329955
9213.000000;0.330562
9212.000000;0.331134
9211.000000;0.331776
9210.000000;0.332618
9209.000000;0.333681
9208.000000;0.334783
9207.000000;0.335666
9206.000000;0.336269
9205.000000;0.336810
9204.000000;0.337508
9203.000000;0.338287
9202.000000;0.338889
9201.000000;0.339244
9200.000000;0.339596
9199.000000;0.340205
9198.000000;0.341070
9197.000000;0.341997
9196.000000;0.342855
9195.000000;0.343656
9194.000000;0.344441
9193.000000;0.345185
9192.000000;0.345828
9191.000000;0.346344
9190.000000;0.346793
9189.000000;0.347306
9188.000000;0.348000
9187.000000;0.348866
9186.000000;0.349764
9185.000000;0.350565
9184.000000;0.351261
9183.000000;0.351908
9182.000000;0.352539
9181.000000;0.353180
9180.000000;0.353907
9179.000000;0.354768
9178.000000;0.355682
9177.000000;0.356465
9176.000000;0.356966
9175.000000;0.357154
9174.000000;0.357136
9173.000000;0.357150
9172.000000;0.357475
9171.000000;0.358230
9170.000000;0.359236
9169.000000;0.360169
9168.000000;0.360859
9167.000000;0.361402
9166.000000;0.361992
9165.000000;0.362715
9164.000000;0.363502
9163.000000;0.364195
9162.000000;0.364644
9161.000000;0.364829
9160.000000;0.364920
9159.000000;0.365174
9158.000000;0.365739
9157.000000;0.366566
9156.000000;0.367482
9155.000000;0.368305
9154.000000;0.368923
9153.000000;0.369336
9152.000000;0.369684
9151.000000;0.370146
9150.000000;0.370823
9149.000000;0.371703
9148.000000;0.372699
9147.000000;0.373647
9146.000000;0.374340
9145.000000;0.374710
9144.000000;0.374973
9143.000000;0.375468
9142.000000;0.376281
9141.000000;0.377127
9140.000000;0.377652
9139.000000;0.377779
9138.000000;0.377731
9137.000000;0.377793
9136.000000;0.378113
9135.000000;0.378646
9134.000000;0.379201
9133.000000;0.379589
9132.000000;0.379807
9131.000000;0.380042
9130.000000;0.380478
9129.000000;0.381132
9128.000000;0.381909
9127.000000;0.382720
9126.000000;0.383475
9125.000000;0.384036
9124.000000;0.384320
9123.000000;0.384430
9122.000000;0.384565
9121.000000;0.384817
9120.000000;0.385154
9119.000000;0.385573
9118.000000;0.386146
9117.000000;0.386868
9116.000000;0.387570
9115.000000;0.388089
9114.000000;0.388452
9113.000000;0.388819
9112.000000;0.389286
9111.000000;0.389808
9110.000000;0.390298
9109.000000;0.390715
9108.000000;0.391068
9107.000000;0.391394
9106.000000;0.391755
9105.000000;0.392182
9104.000000;0.392589
9103.000000;0.392811
9102.000000;0.392769
9101.000000;0.392596
9100.000000;0.392547
9099.000000;0.392809
9098.000000;0.393387
9097.000000;0.394139
9096.000000;0.394866
9095.000000;0.395423
9094.000000;0.395822
9093.000000;0.396217
9092.000000;0.396736
9091.000000;0.397307
9090.000000;0.397723
9089.000000;0.397898
9088.000000;0.397979
9087.000000;0.398179
9086.000000;0.398559
9085.000000;0.399024
9084.000000;0.399481
9083.000000;0.399905
9082.000000;0.400281
9081.000000;0.400572
9080.000000;0.400795
9079.000000;0.401070
9078.000000;0.401537
9077.000000;0.402186
9076.000000;0.402802
9075.000000;0.403122
9074.000000;0.403067
9073.000000;0.402806
9072.000000;0.402579
9071.000000;0.402507
9070.000000;0.402589
9069.000000;0.402815
9068.000000;0.403194
9067.000000;0.403671
9066.000000;0.404115
9065.000000;0.404436
9064.000000;0.404670
9063.000000;0.404937
9062.000000;0.405362
9061.000000;0.406014
9060.000000;0.406832
9059.000000;0.407592
9058.000000;0.408038
9057.000000;0.408104
9056.000000;0.407962
9055.000000;0.407827
9054.000000;0.407786
9053.000000;0.407827
