Criado como novo conjunto de dados;"0307_DANIEL.spp","55804.9 Secs"
cm-1;Abs
10000.000000;0.478844
9999.000000;0.477739
9998.000000;0.476632
9997.000000;0.475536
9996.000000;0.474425
9995.000000;0.473396
9994.000000;0.472451
9993.000000;0.471406
9992.000000;0.470222
9991.000000;0.469013
9990.000000;0.467854
9989.000000;0.466737
9988.000000;0.465718
9987.000000;0.464891
9986.000000;0.464141
9985.000000;0.463139
9984.000000;0.461702
9983.000000;0.460047
9982.000000;0.458552
9981.000000;0.457377
9980.000000;0.456429
9979.000000;0.455607
9978.000000;0.454899
9977.000000;0.454268
9976.000000;0.453587
9975.000000;0.452732
9974.000000;0.451678
9973.000000;0.450468
9972.000000;0.449147
9971.000000;0.447772
9970.000000;0.446445
9969.000000;0.445274
9968.000000;0.444278
9967.000000;0.443347
9966.000000;0.442339
9965.000000;0.441211
9964.000000;0.440047
9963.000000;0.438940
9962.000000;0.437884
9961.000000;0.436831
9960.000000;0.435794
9959.000000;0.434815
9958.000000;0.433836
9957.000000;0.432728
9956.000000;0.431472
9955.000000;0.430227
9954.000000;0.429155
9953.000000;0.428232
9952.000000;0.427302
9951.000000;0.426253
9950.000000;0.425071
9949.000000;0.423777
9948.000000;0.422427
9947.000000;0.421141
9946.000000;0.420020
9945.000000;0.418991
9944.000000;0.417854
9943.000000;0.416534
9942.000000;0.415205
9941.000000;0.414087
9940.000000;0.413190
9939.000000;0.412347
9938.000000;0.411423
9937.000000;0.410386
9936.000000;0.409195
9935.000000;0.407784
9934.000000;0.406211
9933.000000;0.404719
9932.000000;0.403540
9931.000000;0.402682
9930.000000;0.401962
9929.000000;0.401160
9928.000000;0.400100
9927.000000;0.398670
9926.000000;0.396944
9925.000000;0.395240
9924.000000;0.393895
9923.000000;0.392944
9922.000000;0.392104
9921.000000;0.391115
9920.000000;0.389978
9919.000000;0.388842
9918.000000;0.387776
9917.000000;0.386751
9916.000000;0.385757
9915.000000;0.384821
9914.000000;0.383914
9913.000000;0.382926
9912.000000;0.381761
9911.000000;0.380429
9910.000000;0.379039
9909.000000;0.377731
9908.000000;0.376575
9907.000000;0.375495
9906.000000;0.374339
9905.000000;0.373046
9904.000000;0.371713
9903.000000;0.370472
9902.000000;0.369338
9901.000000;0.368243
9900.000000;0.367137
9899.000000;0.366011
9898.000000;0.364831
9897.000000;0.363530
9896.000000;0.362103
9895.000000;0.360659
9894.000000;0.359353
9893.000000;0.358252
9892.000000;0.357266
9891.000000;0.356200
9890.000000;0.354904
9889.000000;0.353393
9888.000000;0.351816
9887.000000;0.350319
9886.000000;0.348951
9885.000000;0.347690
9884.000000;0.346502
9883.000000;0.345349
9882.000000;0.344203
9881.000000;0.343058
9880.000000;0.341893
9879.000000;0.340628
9878.000000;0.339192
9877.000000;0.337644
9876.000000;0.336154
9875.000000;0.334819
9874.000000;0.333609
9873.000000;0.332496
9872.000000;0.331546
9871.000000;0.330764
9870.000000;0.329973
9869.000000;0.328946
9868.000000;0.327647
9867.000000;0.326236
9866.000000;0.324863
9865.000000;0.323532
9864.000000;0.322151
9863.000000;0.320642
9862.000000;0.319011
9861.000000;0.317377
9860.000000;0.315908
9859.000000;0.314679
9858.000000;0.313603
9857.000000;0.312544
9856.000000;0.311449
9855.000000;0.310315
9854.000000;0.309081
9853.000000;0.307660
9852.000000;0.306071
9851.000000;0.304466
9850.000000;0.303011
9849.000000;0.301775
9848.000000;0.300689
9847.000000;0.299575
9846.000000;0.298256
9845.000000;0.296732
9844.000000;0.295224
9843.000000;0.293940
9842.000000;0.292821
9841.000000;0.291587
9840.000000;0.290045
9839.000000;0.288278
9838.000000;0.286552
9837.000000;0.285074
9836.000000;0.283851
9835.000000;0.282720
9834.000000;0.281526
9833.000000;0.280286
9832.000000;0.279128
9831.000000;0.278041
9830.000000;0.276793
9829.000000;0.275210
9828.000000;0.273479
9827.000000;0.271965
9826.000000;0.270759
9825.000000;0.269554
9824.000000;0.268001
9823.000000;0.266086
9822.000000;0.264100
9821.000000;0.262355
9820.000000;0.260976
9819.000000;0.259871
9818.000000;0.258816
9817.000000;0.257600
9816.000000;0.256175
9815.000000;0.254653
9814.000000;0.253174
9813.000000;0.251814
9812.000000;0.250565
9811.000000;0.249347
9810.000000;0.248028
9809.000000;0.246523
9808.000000;0.244888
9807.000000;0.243235
9806.000000;0.241570
9805.000000;0.239820
9804.000000;0.238011
9803.000000;0.236315
9802.000000;0.234845
9801.000000;0.233511
9800.000000;0.232149
9799.000000;0.230726
9798.000000;0.229333
9797.000000;0.228045
9796.000000;0.226852
9795.000000;0.225716
9794.000000;0.224600
9793.000000;0.223419
9792.000000;0.222033
9791.000000;0.220338
9790.000000;0.218404
9789.000000;0.216507
9788.000000;0.214941
9787.000000;0.213733
9786.000000;0.212579
9785.000000;0.211145
9784.000000;0.209407
9783.000000;0.207614
9782.000000;0.205959
9781.000000;0.204415
9780.000000;0.202922
9779.000000;0.201537
9778.000000;0.200303
9777.000000;0.199073
9776.000000;0.197624
9775.000000;0.195901
9774.000000;0.194057
9773.000000;0.192269
9772.000000;0.190597
9771.000000;0.189009
9770.000000;0.187440
9769.000000;0.185830
9768.000000;0.184161
9767.000000;0.182490
9766.000000;0.180899
9765.000000;0.179399
9764.000000;0.177917
9763.000000;0.176374
9762.000000;0.174748
9761.000000;0.173068
9760.000000;0.171372
9759.000000;0.169678
9758.000000;0.167958
9757.000000;0.166177
9756.000000;0.164390
9755.000000;0.162748
9754.000000;0.161343
9753.000000;0.160039
9752.000000;0.158542
9751.000000;0.156694
9750.000000;0.154648
9749.000000;0.152733
9748.000000;0.151165
9747.000000;0.149903
9746.000000;0.148721
9745.000000;0.147352
9744.000000;0.145639
9743.000000;0.143647
9742.000000;0.141647
9741.000000;0.139892
9740.000000;0.138383
9739.000000;0.136889
9738.000000;0.135229
9737.000000;0.133474
9736.000000;0.131807
9735.000000;0.130283
9734.000000;0.128804
9733.000000;0.127307
9732.000000;0.125823
9731.000000;0.124369
9730.000000;0.122894
9729.000000;0.121365
9728.000000;0.119798
9727.000000;0.118143
9726.000000;0.116261
9725.000000;0.114097
9724.000000;0.111831
9723.000000;0.109732
9722.000000;0.107907
9721.000000;0.106269
9720.000000;0.104701
9719.000000;0.103163
9718.000000;0.101629
9717.000000;0.100034
9716.000000;0.098344
9715.000000;0.096609
9714.000000;0.094903
9713.000000;0.093227
9712.000000;0.091479
9711.000000;0.089544
9710.000000;0.087414
9709.000000;0.085252
9708.000000;0.083287
9707.000000;0.081605
9706.000000;0.080050
9705.000000;0.078366
9704.000000;0.076456
9703.000000;0.074448
9702.000000;0.072541
9701.000000;0.070815
9700.000000;0.069174
9699.000000;0.067447
9698.000000;0.065537
9697.000000;0.063508
9696.000000;0.061521
9695.000000;0.059682
9694.000000;0.057983
9693.000000;0.056395
9692.000000;0.054923
9691.000000;0.053510
9690.000000;0.051965
9689.000000;0.050104
9688.000000;0.047960
9687.000000;0.045751
9686.000000;0.043640
9685.000000;0.041616
9684.000000;0.039605
9683.000000;0.037606
9682.000000;0.035661
9681.000000;0.033763
9680.000000;0.031874
9679.000000;0.029994
9678.000000;0.028166
9677.000000;0.026416
9676.000000;0.024713
9675.000000;0.022987
9674.000000;0.021179
9673.000000;0.019278
9672.000000;0.017320
9671.000000;0.015366
9670.000000;0.013475
9669.000000;0.011673
9668.000000;0.009902
9667.000000;0.008015
9666.000000;0.005901
9665.000000;0.003634
9664.000000;0.001436
9663.000000;-0.000549
9662.000000;-0.002397
9661.000000;-0.004282
9660.000000;-0.006284
9659.000000;-0.008367
9658.000000;-0.010467
9657.000000;-0.012521
9656.000000;-0.014467
9655.000000;-0.016328
9654.000000;-0.018241
9653.000000;-0.020302
9652.000000;-0.022429
9651.000000;-0.024502
9650.000000;-0.026569
9649.000000;-0.028760
9648.000000;-0.031024
9647.000000;-0.033133
9646.000000;-0.035000
9645.000000;-0.036815
9644.000000;-0.038771
9643.000000;-0.040819
9642.000000;-0.042795
9641.000000;-0.044713
9640.000000;-0.046753
9639.000000;-0.048999
9638.000000;-0.051316
9637.000000;-0.053502
9636.000000;-0.055474
9635.000000;-0.057296
9634.000000;-0.059080
9633.000000;-0.060925
9632.000000;-0.062911
9631.000000;-0.065095
9630.000000;-0.067460
9629.000000;-0.069875
9628.000000;-0.072172
9627.000000;-0.074316
9626.000000;-0.076439
9625.000000;-0.078659
9624.000000;-0.080879
9623.000000;-0.082883
9622.000000;-0.084621
9621.000000;-0.086315
9620.000000;-0.088229
9619.000000;-0.090420
9618.000000;-0.092753
9617.000000;-0.095085
9616.000000;-0.097362
9615.000000;-0.099592
9614.000000;-0.101806
9613.000000;-0.104027
9612.000000;-0.106236
9611.000000;-0.108385
9610.000000;-0.110466
9609.000000;-0.112535
9608.000000;-0.114638
9607.000000;-0.116741
9606.000000;-0.118783
9605.000000;-0.120766
9604.000000;-0.122763
9603.000000;-0.124853
9602.000000;-0.127079
9601.000000;-0.129435
9600.000000;-0.131857
9599.000000;-0.134264
9598.000000;-0.136620
9597.000000;-0.138937
9596.000000;-0.141187
9595.000000;-0.143293
9594.000000;-0.145266
9593.000000;-0.147303
9592.000000;-0.149629
9591.000000;-0.152241
9590.000000;-0.154885
9589.000000;-0.157307
9588.000000;-0.159454
9587.000000;-0.161424
9586.000000;-0.163315
9585.000000;-0.165196
9584.000000;-0.167157
9583.000000;-0.169269
9582.000000;-0.171495
9581.000000;-0.173715
9580.000000;-0.175855
9579.000000;-0.177955
9578.000000;-0.180077
9577.000000;-0.182224
9576.000000;-0.184383
9575.000000;-0.186596
9574.000000;-0.188903
9573.000000;-0.191260
9572.000000;-0.193599
9571.000000;-0.195957
9570.000000;-0.198468
9569.000000;-0.201169
9568.000000;-0.203886
9567.000000;-0.206353
9566.000000;-0.208434
9565.000000;-0.210210
9564.000000;-0.211895
9563.000000;-0.213706
9562.000000;-0.215759
9561.000000;-0.218019
9560.000000;-0.220355
9559.000000;-0.222675
9558.000000;-0.224992
9557.000000;-0.227349
9556.000000;-0.229716
9555.000000;-0.232016
9554.000000;-0.234222
9553.000000;-0.236361
9552.000000;-0.238457
9551.000000;-0.240518
9550.000000;-0.242584
9549.000000;-0.244725
9548.000000;-0.246952
9547.000000;-0.249165
9546.000000;-0.251219
9545.000000;-0.253050
9544.000000;-0.254770
9543.000000;-0.256608
9542.000000;-0.258736
9541.000000;-0.261098
9540.000000;-0.263471
9539.000000;-0.265689
9538.000000;-0.267781
9537.000000;-0.269871
9536.000000;-0.272017
9535.000000;-0.274213
9534.000000;-0.276458
9533.000000;-0.278740
9532.000000;-0.280965
9531.000000;-0.283027
9530.000000;-0.284927
9529.000000;-0.286752
9528.000000;-0.288543
9527.000000;-0.290288
9526.000000;-0.292045
9525.000000;-0.293940
9524.000000;-0.296007
9523.000000;-0.298110
9522.000000;-0.300097
9521.000000;-0.301948
9520.000000;-0.303746
9519.000000;-0.305563
9518.000000;-0.307431
9517.000000;-0.309351
9516.000000;-0.311241
9515.000000;-0.312964
9514.000000;-0.314476
9513.000000;-0.315935
9512.000000;-0.317561
9511.000000;-0.319390
9510.000000;-0.321258
9509.000000;-0.323008
9508.000000;-0.324639
9507.000000;-0.326219
9506.000000;-0.327761
9505.000000;-0.329261
9504.000000;-0.330791
9503.000000;-0.332454
9502.000000;-0.334241
9501.000000;-0.336012
9500.000000;-0.337674
9499.000000;-0.339313
9498.000000;-0.341086
9497.000000;-0.342994
9496.000000;-0.344850
9495.000000;-0.346479
9494.000000;-0.347895
9493.000000;-0.349218
9492.000000;-0.350496
9491.000000;-0.351695
9490.000000;-0.352817
9489.000000;-0.353921
9488.000000;-0.355018
9487.000000;-0.356053
9486.000000;-0.357028
9485.000000;-0.358058
9484.000000;-0.359242
9483.000000;-0.360532
9482.000000;-0.361800
9481.000000;-0.362978
9480.000000;-0.364058
9479.000000;-0.364993
9478.000000;-0.365731
9477.000000;-0.366350
9476.000000;-0.367066
9475.000000;-0.368035
9474.000000;-0.369176
9473.000000;-0.370248
9472.000000;-0.371065
9471.000000;-0.371628
9470.000000;-0.372101
9469.000000;-0.372701
9468.000000;-0.373596
9467.000000;-0.374793
9466.000000;-0.376113
9465.000000;-0.377287
9464.000000;-0.378134
9463.000000;-0.378636
9462.000000;-0.378904
9461.000000;-0.379078
9460.000000;-0.379281
9459.000000;-0.379619
9458.000000;-0.380163
9457.000000;-0.380909
9456.000000;-0.381738
9455.000000;-0.382440
9454.000000;-0.382826
9453.000000;-0.382875
9452.000000;-0.382776
9451.000000;-0.382768
9450.000000;-0.382923
9449.000000;-0.383095
9448.000000;-0.383111
9447.000000;-0.382961
9446.000000;-0.382770
9445.000000;-0.382637
9444.000000;-0.382553
9443.000000;-0.382492
9442.000000;-0.382489
9441.000000;-0.382601
9440.000000;-0.382795
9439.000000;-0.382943
9438.000000;-0.382933
9437.000000;-0.382779
9436.000000;-0.382591
9435.000000;-0.382447
9434.000000;-0.382304
9433.000000;-0.382069
9432.000000;-0.381732
9431.000000;-0.381394
9430.000000;-0.381136
9429.000000;-0.380911
9428.000000;-0.380601
9427.000000;-0.380164
9426.000000;-0.379674
9425.000000;-0.379214
9424.000000;-0.378773
9423.000000;-0.378272
9422.000000;-0.377647
9421.000000;-0.376891
9420.000000;-0.376026
9419.000000;-0.375095
9418.000000;-0.374171
9417.000000;-0.373369
9416.000000;-0.372805
9415.000000;-0.372514
9414.000000;-0.372394
9413.000000;-0.372253
9412.000000;-0.371954
9411.000000;-0.371480
9410.000000;-0.370853
9409.000000;-0.370037
9408.000000;-0.368996
9407.000000;-0.367830
9406.000000;-0.366722
9405.000000;-0.365748
9404.000000;-0.364805
9403.000000;-0.363786
9402.000000;-0.362732
9401.000000;-0.361755
9400.000000;-0.360899
9399.000000;-0.360135
9398.000000;-0.359436
9397.000000;-0.358750
9396.000000;-0.357953
9395.000000;-0.356941
9394.000000;-0.355770
9393.000000;-0.354613
9392.000000;-0.353575
9391.000000;-0.352620
9390.000000;-0.351668
9389.000000;-0.350681
9388.000000;-0.349634
9387.000000;-0.348500
9386.000000;-0.347307
9385.000000;-0.346127
9384.000000;-0.344973
9383.000000;-0.343766
9382.000000;-0.342470
9381.000000;-0.341187
9380.000000;-0.340061
9379.000000;-0.339120
9378.000000;-0.338255
9377.000000;-0.337325
9376.000000;-0.336233
9375.000000;-0.334947
9374.000000;-0.333529
9373.000000;-0.332119
9372.000000;-0.330817
9371.000000;-0.329593
9370.000000;-0.328351
9369.000000;-0.327078
9368.000000;-0.325867
9367.000000;-0.324788
9366.000000;-0.323798
9365.000000;-0.322790
9364.000000;-0.321675
9363.000000;-0.320421
9362.000000;-0.319050
9361.000000;-0.317649
9360.000000;-0.316320
9359.000000;-0.315093
9358.000000;-0.313891
9357.000000;-0.312608
9356.000000;-0.311191
9355.000000;-0.309637
9354.000000;-0.307974
9353.000000;-0.306285
9352.000000;-0.304729
9351.000000;-0.303475
9350.000000;-0.302579
9349.000000;-0.301944
9348.000000;-0.301364
9347.000000;-0.300586
9346.000000;-0.299418
9345.000000;-0.297879
9344.000000;-0.296237
9343.000000;-0.294789
9342.000000;-0.293575
9341.000000;-0.292364
9340.000000;-0.290966
9339.000000;-0.289430
9338.000000;-0.287915
9337.000000;-0.286480
9336.000000;-0.285107
9335.000000;-0.283840
9334.000000;-0.282723
9333.000000;-0.281660
9332.000000;-0.280482
9331.000000;-0.279193
9330.000000;-0.277972
9329.000000;-0.276899
9328.000000;-0.275813
9327.000000;-0.274538
9326.000000;-0.273131
9325.000000;-0.271776
9324.000000;-0.270513
9323.000000;-0.269203
9322.000000;-0.267762
9321.000000;-0.266292
9320.000000;-0.264974
9319.000000;-0.263879
9318.000000;-0.262922
9317.000000;-0.261958
9316.000000;-0.260903
9315.000000;-0.259790
9314.000000;-0.258681
9313.000000;-0.257539
9312.000000;-0.256233
9311.000000;-0.254726
9310.000000;-0.253196
9309.000000;-0.251886
9308.000000;-0.250850
9307.000000;-0.249905
9306.000000;-0.248828
9305.000000;-0.247531
9304.000000;-0.246066
9303.000000;-0.244569
9302.000000;-0.243195
9301.000000;-0.242042
9300.000000;-0.241074
9299.000000;-0.240145
9298.000000;-0.239116
9297.000000;-0.237932
9296.000000;-0.236624
9295.000000;-0.235285
9294.000000;-0.234033
9293.000000;-0.232935
9292.000000;-0.231937
9291.000000;-0.230916
9290.000000;-0.229804
9289.000000;-0.228621
9288.000000;-0.227420
9287.000000;-0.226257
9286.000000;-0.225182
9285.000000;-0.224180
9284.000000;-0.223108
9283.000000;-0.221809
9282.000000;-0.220327
9281.000000;-0.218918
9280.000000;-0.217793
9279.000000;-0.216912
9278.000000;-0.216087
9277.000000;-0.215187
9276.000000;-0.214189
9275.000000;-0.213075
9274.000000;-0.211818
9273.000000;-0.210473
9272.000000;-0.209176
9271.000000;-0.208020
9270.000000;-0.206975
9269.000000;-0.205967
9268.000000;-0.204974
9267.000000;-0.204018
9266.000000;-0.203089
9265.000000;-0.202133
9264.000000;-0.201095
9263.000000;-0.199947
9262.000000;-0.198683
9261.000000;-0.197346
9260.000000;-0.196075
9259.000000;-0.195057
9258.000000;-0.194340
9257.000000;-0.193724
9256.000000;-0.192941
9255.000000;-0.191960
9254.000000;-0.191021
9253.000000;-0.190305
9252.000000;-0.189646
9251.000000;-0.188707
9250.000000;-0.187391
9249.000000;-0.185977
9248.000000;-0.184819
9247.000000;-0.184016
9246.000000;-0.183379
9245.000000;-0.182662
9244.000000;-0.181738
9243.000000;-0.180637
9242.000000;-0.179470
9241.000000;-0.178339
9240.000000;-0.177286
9239.000000;-0.176315
9238.000000;-0.175442
9237.000000;-0.174676
9236.000000;-0.173957
9235.000000;-0.173159
9234.000000;-0.172200
9233.000000;-0.171095
9232.000000;-0.169916
9231.000000;-0.168703
9230.000000;-0.167460
9229.000000;-0.166211
9228.000000;-0.165031
9227.000000;-0.164032
9226.000000;-0.163290
9225.000000;-0.162773
9224.000000;-0.162327
9223.000000;-0.161776
9222.000000;-0.161053
9221.000000;-0.160225
9220.000000;-0.159399
9219.000000;-0.158603
9218.000000;-0.157767
9217.000000;-0.156786
9216.000000;-0.155633
9215.000000;-0.154426
9214.000000;-0.153354
9213.000000;-0.152516
9212.000000;-0.151847
9211.000000;-0.151234
9210.000000;-0.150648
9209.000000;-0.150082
9208.000000;-0.149439
9207.000000;-0.148607
9206.000000;-0.147633
9205.000000;-0.146692
9204.000000;-0.145868
9203.000000;-0.145074
9202.000000;-0.144237
9201.000000;-0.143411
9200.000000;-0.142637
9199.000000;-0.141803
9198.000000;-0.140779
9197.000000;-0.139662
9196.000000;-0.138719
9195.000000;-0.138100
9194.000000;-0.137675
9193.000000;-0.137194
9192.000000;-0.136519
9191.000000;-0.135688
9190.000000;-0.134823
9189.000000;-0.134028
9188.000000;-0.133347
9187.000000;-0.132768
9186.000000;-0.132238
9185.000000;-0.131667
9184.000000;-0.130967
9183.000000;-0.130115
9182.000000;-0.129189
9181.000000;-0.128310
9180.000000;-0.127518
9179.000000;-0.126756
9178.000000;-0.125979
9177.000000;-0.125234
9176.000000;-0.124571
9175.000000;-0.123937
9174.000000;-0.123225
9173.000000;-0.122414
9172.000000;-0.121597
9171.000000;-0.120871
9170.000000;-0.120241
9169.000000;-0.119636
9168.000000;-0.118978
9167.000000;-0.118201
9166.000000;-0.117284
9165.000000;-0.116279
9164.000000;-0.115332
9163.000000;-0.114622
9162.000000;-0.114241
9161.000000;-0.114117
9160.000000;-0.114020
9159.000000;-0.113698
9158.000000;-0.113053
9157.000000;-0.112210
9156.000000;-0.111411
9155.000000;-0.110816
9154.000000;-0.110396
9153.000000;-0.110010
9152.000000;-0.109539
9151.000000;-0.108945
9150.000000;-0.108241
9149.000000;-0.107452
9148.000000;-0.106625
9147.000000;-0.105837
9146.000000;-0.105153
9145.000000;-0.104547
9144.000000;-0.103919
9143.000000;-0.103211
9142.000000;-0.102498
9141.000000;-0.101917
9140.000000;-0.101497
9139.000000;-0.101113
9138.000000;-0.100609
9137.000000;-0.099945
9136.000000;-0.099197
9135.000000;-0.098471
9134.000000;-0.097840
9133.000000;-0.097358
9132.000000;-0.097054
9131.000000;-0.096897
9130.000000;-0.096758
9129.000000;-0.096454
9128.000000;-0.095855
9127.000000;-0.094989
9126.000000;-0.094037
9125.000000;-0.093216
9124.000000;-0.092639
9123.000000;-0.092258
9122.000000;-0.091931
9121.000000;-0.091527
9120.000000;-0.090992
9119.000000;-0.090369
9118.000000;-0.089749
9117.000000;-0.089190
9116.000000;-0.088662
9115.000000;-0.088108
9114.000000;-0.087543
9113.000000;-0.087052
9112.000000;-0.086674
9111.000000;-0.086344
9110.000000;-0.085962
9109.000000;-0.085506
9108.000000;-0.085021
9107.000000;-0.084527
9106.000000;-0.083995
9105.000000;-0.083431
9104.000000;-0.082915
9103.000000;-0.082541
9102.000000;-0.082310
9101.000000;-0.082118
9100.000000;-0.081831
9099.000000;-0.081379
9098.000000;-0.080782
9097.000000;-0.080111
9096.000000;-0.079436
9095.000000;-0.078797
9094.000000;-0.078215
9093.000000;-0.077721
9092.000000;-0.077337
9091.000000;-0.077031
9090.000000;-0.076691
9089.000000;-0.076211
9088.000000;-0.075605
9087.000000;-0.075024
9086.000000;-0.074614
9085.000000;-0.074364
9084.000000;-0.074120
9083.000000;-0.073749
9082.000000;-0.073266
9081.000000;-0.072783
