Criado como novo conjunto de dados;"0307_DANIEL.spp","48424.3 Secs"
cm-1;Abs
10000.000000;0.648238
9999.000000;0.646935
9998.000000;0.645637
9997.000000;0.644343
9996.000000;0.643052
9995.000000;0.641766
9994.000000;0.640481
9993.000000;0.639205
9992.000000;0.637924
9991.000000;0.636662
9990.000000;0.635374
9989.000000;0.634217
9988.000000;0.633214
9987.000000;0.632221
9986.000000;0.631297
9985.000000;0.630441
9984.000000;0.629487
9983.000000;0.628277
9982.000000;0.626953
9981.000000;0.625804
9980.000000;0.624897
9979.000000;0.624014
9978.000000;0.622968
9977.000000;0.621787
9976.000000;0.620615
9975.000000;0.619559
9974.000000;0.618633
9973.000000;0.617712
9972.000000;0.616551
9971.000000;0.614996
9970.000000;0.613224
9969.000000;0.611605
9968.000000;0.610312
9967.000000;0.609187
9966.000000;0.608038
9965.000000;0.606868
9964.000000;0.605750
9963.000000;0.604652
9962.000000;0.603532
9961.000000;0.602491
9960.000000;0.601625
9959.000000;0.600779
9958.000000;0.599643
9957.000000;0.598115
9956.000000;0.596455
9955.000000;0.595029
9954.000000;0.594022
9953.000000;0.593387
9952.000000;0.592932
9951.000000;0.592374
9950.000000;0.591446
9949.000000;0.590100
9948.000000;0.588577
9947.000000;0.587165
9946.000000;0.585902
9945.000000;0.584610
9944.000000;0.583215
9943.000000;0.581858
9942.000000;0.580654
9941.000000;0.579486
9940.000000;0.578156
9939.000000;0.576706
9938.000000;0.575433
9937.000000;0.574557
9936.000000;0.573944
9935.000000;0.573218
9934.000000;0.572104
9933.000000;0.570639
9932.000000;0.569070
9931.000000;0.567613
9930.000000;0.566348
9929.000000;0.565263
9928.000000;0.564303
9927.000000;0.563318
9926.000000;0.562099
9925.000000;0.560587
9924.000000;0.559009
9923.000000;0.557673
9922.000000;0.556611
9921.000000;0.555566
9920.000000;0.554346
9919.000000;0.553035
9918.000000;0.551767
9917.000000;0.550452
9916.000000;0.548914
9915.000000;0.547211
9914.000000;0.545621
9913.000000;0.544306
9912.000000;0.543165
9911.000000;0.542024
9910.000000;0.540818
9909.000000;0.539537
9908.000000;0.538165
9907.000000;0.536766
9906.000000;0.535528
9905.000000;0.534567
9904.000000;0.533733
9903.000000;0.532732
9902.000000;0.531455
9901.000000;0.530091
9900.000000;0.528871
9899.000000;0.527807
9898.000000;0.526728
9897.000000;0.525528
9896.000000;0.524259
9895.000000;0.522983
9894.000000;0.521662
9893.000000;0.520255
9892.000000;0.518824
9891.000000;0.517404
9890.000000;0.515889
9889.000000;0.514198
9888.000000;0.512541
9887.000000;0.511289
9886.000000;0.510509
9885.000000;0.509809
9884.000000;0.508754
9883.000000;0.507303
9882.000000;0.505722
9881.000000;0.504222
9880.000000;0.502862
9879.000000;0.501681
9878.000000;0.500676
9877.000000;0.499667
9876.000000;0.498399
9875.000000;0.496814
9874.000000;0.495088
9873.000000;0.493387
9872.000000;0.491742
9871.000000;0.490190
9870.000000;0.488869
9869.000000;0.487882
9868.000000;0.487166
9867.000000;0.486522
9866.000000;0.485707
9865.000000;0.484490
9864.000000;0.482763
9863.000000;0.480687
9862.000000;0.478639
9861.000000;0.476947
9860.000000;0.475687
9859.000000;0.474725
9858.000000;0.473834
9857.000000;0.472764
9856.000000;0.471334
9855.000000;0.469593
9854.000000;0.467821
9853.000000;0.466269
9852.000000;0.464923
9851.000000;0.463575
9850.000000;0.462093
9849.000000;0.460556
9848.000000;0.459123
9847.000000;0.457835
9846.000000;0.456565
9845.000000;0.455165
9844.000000;0.453664
9843.000000;0.452264
9842.000000;0.451106
9841.000000;0.450067
9840.000000;0.448870
9839.000000;0.447397
9838.000000;0.445803
9837.000000;0.444299
9836.000000;0.442920
9835.000000;0.441550
9834.000000;0.440103
9833.000000;0.438599
9832.000000;0.437115
9831.000000;0.435701
9830.000000;0.434339
9829.000000;0.432935
9828.000000;0.431401
9827.000000;0.429765
9826.000000;0.428144
9825.000000;0.426600
9824.000000;0.425075
9823.000000;0.423543
9822.000000;0.422115
9821.000000;0.420909
9820.000000;0.419846
9819.000000;0.418678
9818.000000;0.417233
9817.000000;0.415545
9816.000000;0.413753
9815.000000;0.411980
9814.000000;0.410330
9813.000000;0.408900
9812.000000;0.407667
9811.000000;0.406410
9810.000000;0.404872
9809.000000;0.403014
9808.000000;0.401063
9807.000000;0.399264
9806.000000;0.397675
9805.000000;0.396205
9804.000000;0.394780
9803.000000;0.393394
9802.000000;0.392045
9801.000000;0.390703
9800.000000;0.389341
9799.000000;0.387924
9798.000000;0.386418
9797.000000;0.384844
9796.000000;0.383304
9795.000000;0.381865
9794.000000;0.380456
9793.000000;0.378962
9792.000000;0.377398
9791.000000;0.375875
9790.000000;0.374425
9789.000000;0.372988
9788.000000;0.371548
9787.000000;0.370122
9786.000000;0.368581
9785.000000;0.366693
9784.000000;0.364459
9783.000000;0.362239
9782.000000;0.360396
9781.000000;0.358928
9780.000000;0.357569
9779.000000;0.356153
9778.000000;0.354701
9777.000000;0.353246
9776.000000;0.351757
9775.000000;0.350263
9774.000000;0.348840
9773.000000;0.347475
9772.000000;0.346036
9771.000000;0.344426
9770.000000;0.342657
9769.000000;0.340781
9768.000000;0.338844
9767.000000;0.336935
9766.000000;0.335157
9765.000000;0.333528
9764.000000;0.331986
9763.000000;0.330504
9762.000000;0.329111
9761.000000;0.327763
9760.000000;0.326284
9759.000000;0.324509
9758.000000;0.322468
9757.000000;0.320410
9756.000000;0.318649
9755.000000;0.317318
9754.000000;0.316221
9753.000000;0.314938
9752.000000;0.313172
9751.000000;0.311016
9750.000000;0.308826
9749.000000;0.306866
9748.000000;0.305124
9747.000000;0.303432
9746.000000;0.301669
9745.000000;0.299839
9744.000000;0.298039
9743.000000;0.296383
9742.000000;0.294889
9741.000000;0.293436
9740.000000;0.291882
9739.000000;0.290201
9738.000000;0.288476
9737.000000;0.286762
9736.000000;0.285041
9735.000000;0.283274
9734.000000;0.281445
9733.000000;0.279553
9732.000000;0.277626
9731.000000;0.275727
9730.000000;0.273897
9729.000000;0.272109
9728.000000;0.270342
9727.000000;0.268626
9726.000000;0.266948
9725.000000;0.265194
9724.000000;0.263286
9723.000000;0.261341
9722.000000;0.259542
9721.000000;0.257909
9720.000000;0.256304
9719.000000;0.254656
9718.000000;0.253024
9717.000000;0.251431
9716.000000;0.249794
9715.000000;0.248021
9714.000000;0.246086
9713.000000;0.243994
9712.000000;0.241821
9711.000000;0.239779
9710.000000;0.238067
9709.000000;0.236624
9708.000000;0.235162
9707.000000;0.233484
9706.000000;0.231626
9705.000000;0.229678
9704.000000;0.227650
9703.000000;0.225611
9702.000000;0.223748
9701.000000;0.222118
9700.000000;0.220484
9699.000000;0.218567
9698.000000;0.216408
9697.000000;0.214304
9696.000000;0.212453
9695.000000;0.210811
9694.000000;0.209230
9693.000000;0.207588
9692.000000;0.205777
9691.000000;0.203735
9690.000000;0.201550
9689.000000;0.199417
9688.000000;0.197446
9687.000000;0.195576
9686.000000;0.193685
9685.000000;0.191736
9684.000000;0.189771
9683.000000;0.187825
9682.000000;0.185886
9681.000000;0.183907
9680.000000;0.181845
9679.000000;0.179714
9678.000000;0.177618
9677.000000;0.175690
9676.000000;0.173972
9675.000000;0.172351
9674.000000;0.170647
9673.000000;0.168740
9672.000000;0.166628
9671.000000;0.164389
9670.000000;0.162122
9669.000000;0.159922
9668.000000;0.157860
9667.000000;0.155943
9666.000000;0.154104
9665.000000;0.152258
9664.000000;0.150373
9663.000000;0.148455
9662.000000;0.146467
9661.000000;0.144339
9660.000000;0.142067
9659.000000;0.139774
9658.000000;0.137592
9657.000000;0.135534
9656.000000;0.133517
9655.000000;0.131489
9654.000000;0.129464
9653.000000;0.127455
9652.000000;0.125438
9651.000000;0.123378
9650.000000;0.121250
9649.000000;0.119035
9648.000000;0.116765
9647.000000;0.114554
9646.000000;0.112540
9645.000000;0.110753
9644.000000;0.109073
9643.000000;0.107312
9642.000000;0.105326
9641.000000;0.103082
9640.000000;0.100691
9639.000000;0.098354
9638.000000;0.096193
9637.000000;0.094133
9636.000000;0.091995
9635.000000;0.089716
9634.000000;0.087420
9633.000000;0.085270
9632.000000;0.083304
9631.000000;0.081433
9630.000000;0.079530
9629.000000;0.077490
9628.000000;0.075274
9627.000000;0.072943
9626.000000;0.070631
9625.000000;0.068438
9624.000000;0.066368
9623.000000;0.064343
9622.000000;0.062281
9621.000000;0.060148
9620.000000;0.057989
9619.000000;0.055871
9618.000000;0.053768
9617.000000;0.051538
9616.000000;0.049093
9615.000000;0.046582
9614.000000;0.044298
9613.000000;0.042356
9612.000000;0.040549
9611.000000;0.038574
9610.000000;0.036314
9609.000000;0.033876
9608.000000;0.031426
9607.000000;0.029070
9606.000000;0.026842
9605.000000;0.024695
9604.000000;0.022503
9603.000000;0.020153
9602.000000;0.017659
9601.000000;0.015157
9600.000000;0.012775
9599.000000;0.010548
9598.000000;0.008455
9597.000000;0.006489
9596.000000;0.004647
9595.000000;0.002836
9594.000000;0.000870
9593.000000;-0.001402
9592.000000;-0.003937
9591.000000;-0.006511
9590.000000;-0.008931
9589.000000;-0.011192
9588.000000;-0.013429
9587.000000;-0.015737
9586.000000;-0.018098
9585.000000;-0.020454
9584.000000;-0.022773
9583.000000;-0.025036
9582.000000;-0.027230
9581.000000;-0.029382
9580.000000;-0.031557
9579.000000;-0.033773
9578.000000;-0.035972
9577.000000;-0.038124
9576.000000;-0.040315
9575.000000;-0.042660
9574.000000;-0.045149
9573.000000;-0.047641
9572.000000;-0.050051
9571.000000;-0.052451
9570.000000;-0.054947
9569.000000;-0.057481
9568.000000;-0.059862
9567.000000;-0.062013
9566.000000;-0.064078
9565.000000;-0.066220
9564.000000;-0.068401
9563.000000;-0.070460
9562.000000;-0.072391
9561.000000;-0.074399
9560.000000;-0.076652
9559.000000;-0.079085
9558.000000;-0.081497
9557.000000;-0.083753
9556.000000;-0.085842
9555.000000;-0.087843
9554.000000;-0.089908
9553.000000;-0.092188
9552.000000;-0.094674
9551.000000;-0.097156
9550.000000;-0.099438
9549.000000;-0.101553
9548.000000;-0.103692
9547.000000;-0.105948
9546.000000;-0.108233
9545.000000;-0.110405
9544.000000;-0.112413
9543.000000;-0.114322
9542.000000;-0.116279
9541.000000;-0.118414
9540.000000;-0.120705
9539.000000;-0.122976
9538.000000;-0.125126
9537.000000;-0.127280
9536.000000;-0.129610
9535.000000;-0.132040
9534.000000;-0.134292
9533.000000;-0.136225
9532.000000;-0.137978
9531.000000;-0.139758
9530.000000;-0.141625
9529.000000;-0.143542
9528.000000;-0.145494
9527.000000;-0.147464
9526.000000;-0.149381
9525.000000;-0.151219
9524.000000;-0.153085
9523.000000;-0.155143
9522.000000;-0.157436
9521.000000;-0.159838
9520.000000;-0.162159
9519.000000;-0.164290
9518.000000;-0.166254
9517.000000;-0.168128
9516.000000;-0.169910
9515.000000;-0.171507
9514.000000;-0.172917
9513.000000;-0.174374
9512.000000;-0.176171
9511.000000;-0.178326
9510.000000;-0.180526
9509.000000;-0.182450
9508.000000;-0.184066
9507.000000;-0.185577
9506.000000;-0.187162
9505.000000;-0.188842
9504.000000;-0.190522
9503.000000;-0.192085
9502.000000;-0.193492
9501.000000;-0.194853
9500.000000;-0.196357
9499.000000;-0.198088
9498.000000;-0.199941
9497.000000;-0.201746
9496.000000;-0.203413
9495.000000;-0.204925
9494.000000;-0.206265
9493.000000;-0.207439
9492.000000;-0.208534
9491.000000;-0.209685
9490.000000;-0.210973
9489.000000;-0.212374
9488.000000;-0.213778
9487.000000;-0.215043
9486.000000;-0.216096
9485.000000;-0.217039
9484.000000;-0.218110
9483.000000;-0.219458
9482.000000;-0.220984
9481.000000;-0.222429
9480.000000;-0.223606
9479.000000;-0.224520
9478.000000;-0.225320
9477.000000;-0.226177
9476.000000;-0.227183
9475.000000;-0.228292
9474.000000;-0.229366
9473.000000;-0.230305
9472.000000;-0.231139
9471.000000;-0.231973
9470.000000;-0.232874
9469.000000;-0.233842
9468.000000;-0.234838
9467.000000;-0.235791
9466.000000;-0.236599
9465.000000;-0.237174
9464.000000;-0.237509
9463.000000;-0.237719
9462.000000;-0.238006
9461.000000;-0.238558
9460.000000;-0.239402
9459.000000;-0.240347
9458.000000;-0.241123
9457.000000;-0.241630
9456.000000;-0.241990
9455.000000;-0.242355
9454.000000;-0.242728
9453.000000;-0.243008
9452.000000;-0.243160
9451.000000;-0.243252
9450.000000;-0.243368
9449.000000;-0.243537
9448.000000;-0.243729
9447.000000;-0.243864
9446.000000;-0.243866
9445.000000;-0.243756
9444.000000;-0.243677
9443.000000;-0.243777
9442.000000;-0.244041
9441.000000;-0.244284
9440.000000;-0.244296
9439.000000;-0.244023
9438.000000;-0.243622
9437.000000;-0.243331
9436.000000;-0.243242
9435.000000;-0.243189
9434.000000;-0.242931
9433.000000;-0.242455
9432.000000;-0.242004
9431.000000;-0.241781
9430.000000;-0.241718
9429.000000;-0.241603
9428.000000;-0.241360
9427.000000;-0.241078
9426.000000;-0.240801
9425.000000;-0.240449
9424.000000;-0.239964
9423.000000;-0.239424
9422.000000;-0.238965
9421.000000;-0.238618
9420.000000;-0.238276
9419.000000;-0.237785
9418.000000;-0.237071
9417.000000;-0.236206
9416.000000;-0.235364
9415.000000;-0.234674
9414.000000;-0.234122
9413.000000;-0.233590
9412.000000;-0.233000
9411.000000;-0.232359
9410.000000;-0.231681
9409.000000;-0.230938
9408.000000;-0.230117
9407.000000;-0.229275
9406.000000;-0.228482
9405.000000;-0.227728
9404.000000;-0.226928
9403.000000;-0.226021
9402.000000;-0.225011
9401.000000;-0.223930
9400.000000;-0.222812
9399.000000;-0.221734
9398.000000;-0.220820
9397.000000;-0.220125
9396.000000;-0.219522
9395.000000;-0.218796
9394.000000;-0.217874
9393.000000;-0.216882
9392.000000;-0.215966
9391.000000;-0.215109
9390.000000;-0.214204
9389.000000;-0.213226
9388.000000;-0.212231
9387.000000;-0.211219
9386.000000;-0.210114
9385.000000;-0.208902
9384.000000;-0.207687
9383.000000;-0.206568
9382.000000;-0.205509
9381.000000;-0.204388
9380.000000;-0.203151
9379.000000;-0.201878
9378.000000;-0.200709
9377.000000;-0.199697
9376.000000;-0.198728
9375.000000;-0.197587
9374.000000;-0.196164
9373.000000;-0.194588
9372.000000;-0.193130
9371.000000;-0.191961
9370.000000;-0.191031
9369.000000;-0.190162
9368.000000;-0.189200
9367.000000;-0.188088
9366.000000;-0.186874
9365.000000;-0.185670
9364.000000;-0.184544
9363.000000;-0.183442
9362.000000;-0.182266
9361.000000;-0.181012
9360.000000;-0.179790
9359.000000;-0.178670
9358.000000;-0.177592
9357.000000;-0.176425
9356.000000;-0.175086
9355.000000;-0.173574
9354.000000;-0.171966
9353.000000;-0.170387
9352.000000;-0.168945
9351.000000;-0.167669
9350.000000;-0.166531
9349.000000;-0.165516
9348.000000;-0.164595
9347.000000;-0.163627
9346.000000;-0.162414
9345.000000;-0.160909
9344.000000;-0.159304
9343.000000;-0.157855
9342.000000;-0.156670
9341.000000;-0.155683
9340.000000;-0.154760
9339.000000;-0.153761
9338.000000;-0.152579
9337.000000;-0.151217
9336.000000;-0.149817
9335.000000;-0.148503
9334.000000;-0.147224
9333.000000;-0.145823
9332.000000;-0.144299
9331.000000;-0.142891
9330.000000;-0.141850
9329.000000;-0.141133
9328.000000;-0.140405
9327.000000;-0.139364
9326.000000;-0.138027
9325.000000;-0.136636
9324.000000;-0.135341
9323.000000;-0.134057
9322.000000;-0.132664
9321.000000;-0.131237
9320.000000;-0.129986
9319.000000;-0.128983
9318.000000;-0.128069
9317.000000;-0.127011
9316.000000;-0.125707
9315.000000;-0.124232
9314.000000;-0.122760
9313.000000;-0.121449
9312.000000;-0.120336
9311.000000;-0.119319
9310.000000;-0.118279
9309.000000;-0.117199
9308.000000;-0.116110
9307.000000;-0.114973
9306.000000;-0.113702
9305.000000;-0.112323
9304.000000;-0.110966
9303.000000;-0.109697
9302.000000;-0.108451
9301.000000;-0.107192
9300.000000;-0.106015
9299.000000;-0.105006
9298.000000;-0.104083
9297.000000;-0.103063
9296.000000;-0.101876
9295.000000;-0.100610
9294.000000;-0.099380
9293.000000;-0.098216
9292.000000;-0.097079
9291.000000;-0.095930
9290.000000;-0.094753
9289.000000;-0.093560
9288.000000;-0.092389
9287.000000;-0.091275
9286.000000;-0.090221
9285.000000;-0.089189
9284.000000;-0.088128
9283.000000;-0.087019
9282.000000;-0.085891
9281.000000;-0.084790
9280.000000;-0.083703
9279.000000;-0.082554
9278.000000;-0.081312
9277.000000;-0.080064
9276.000000;-0.078939
9275.000000;-0.077966
9274.000000;-0.077077
9273.000000;-0.076217
9272.000000;-0.075369
9271.000000;-0.074469
9270.000000;-0.073401
9269.000000;-0.072123
9268.000000;-0.070749
9267.000000;-0.069439
9266.000000;-0.068284
9265.000000;-0.067305
9264.000000;-0.066497
9263.000000;-0.065787
9262.000000;-0.065014
9261.000000;-0.064044
9260.000000;-0.062904
9259.000000;-0.061765
9258.000000;-0.060763
9257.000000;-0.059877
9256.000000;-0.058971
9255.000000;-0.057950
9254.000000;-0.056877
9253.000000;-0.055905
9252.000000;-0.055090
9251.000000;-0.054298
9250.000000;-0.053343
9249.000000;-0.052219
9248.000000;-0.051102
9247.000000;-0.050117
9246.000000;-0.049193
9245.000000;-0.048192
9244.000000;-0.047118
9243.000000;-0.046112
9242.000000;-0.045268
9241.000000;-0.044504
9240.000000;-0.043646
9239.000000;-0.042621
9238.000000;-0.041542
9237.000000;-0.040595
9236.000000;-0.039829
9235.000000;-0.039109
9234.000000;-0.038299
9233.000000;-0.037420
9232.000000;-0.036568
9231.000000;-0.035724
9230.000000;-0.034780
9229.000000;-0.033744
9228.000000;-0.032781
9227.000000;-0.032009
9226.000000;-0.031360
9225.000000;-0.030698
9224.000000;-0.029977
9223.000000;-0.029219
9222.000000;-0.028411
9221.000000;-0.027523
9220.000000;-0.026585
9219.000000;-0.025677
9218.000000;-0.024860
9217.000000;-0.024132
9216.000000;-0.023406
9215.000000;-0.022544
9214.000000;-0.021484
9213.000000;-0.020379
9212.000000;-0.019492
9211.000000;-0.018876
9210.000000;-0.018266
9209.000000;-0.017385
9208.000000;-0.016278
9207.000000;-0.015222
9206.000000;-0.014390
9205.000000;-0.013725
9204.000000;-0.013108
9203.000000;-0.012485
9202.000000;-0.011812
9201.000000;-0.011020
9200.000000;-0.010076
9199.000000;-0.009014
9198.000000;-0.007890
9197.000000;-0.006783
9196.000000;-0.005832
9195.000000;-0.005150
9194.000000;-0.004670
9193.000000;-0.004188
9192.000000;-0.003586
9191.000000;-0.002951
9190.000000;-0.002391
9189.000000;-0.001848
9188.000000;-0.001169
9187.000000;-0.000323
9186.000000;0.000567
9185.000000;0.001372
9184.000000;0.002078
9183.000000;0.002757
9182.000000;0.003458
9181.000000;0.004182
9180.000000;0.004895
9179.000000;0.005575
9178.000000;0.006247
9177.000000;0.006967
9176.000000;0.007744
9175.000000;0.008472
9174.000000;0.009015
9173.000000;0.009383
9172.000000;0.009780
9171.000000;0.010424
9170.000000;0.011317
9169.000000;0.012236
9168.000000;0.012964
9167.000000;0.013478
9166.000000;0.013918
9165.000000;0.014413
9164.000000;0.015009
9163.000000;0.015720
9162.000000;0.016553
9161.000000;0.017450
9160.000000;0.018274
9159.000000;0.018912
9158.000000;0.019394
9157.000000;0.019862
9156.000000;0.020406
9155.000000;0.020977
9154.000000;0.021477
9153.000000;0.021911
9152.000000;0.022409
9151.000000;0.023079
9150.000000;0.023868
9149.000000;0.024608
9148.000000;0.025194
9147.000000;0.025669
9146.000000;0.026144
9145.000000;0.026678
9144.000000;0.027266
9143.000000;0.027910
9142.000000;0.028619
9141.000000;0.029363
9140.000000;0.030068
9139.000000;0.030688
9138.000000;0.031243
9137.000000;0.031772
9136.000000;0.032294
9135.000000;0.032804
9134.000000;0.033286
9133.000000;0.033739
9132.000000;0.034187
9131.000000;0.034668
9130.000000;0.035185
9129.000000;0.035676
9128.000000;0.036099
9127.000000;0.036512
9126.000000;0.037014
9125.000000;0.037612
9124.000000;0.038214
9123.000000;0.038740
9122.000000;0.039179
9121.000000;0.039519
9120.000000;0.039740
9119.000000;0.039901
9118.000000;0.040180
9117.000000;0.040715
9116.000000;0.041470
9115.000000;0.042294
9114.000000;0.043080
9113.000000;0.043811
9112.000000;0.044481
9111.000000;0.045076
9110.000000;0.045621
9109.000000;0.046168
9108.000000;0.046731
9107.000000;0.047264
9106.000000;0.047726
9105.000000;0.048126
9104.000000;0.048500
9103.000000;0.048867
9102.000000;0.049229
9101.000000;0.049588
9100.000000;0.049960
9099.000000;0.050367
9098.000000;0.050816
9097.000000;0.051285
9096.000000;0.051744
9095.000000;0.052202
9094.000000;0.052694
9093.000000;0.053208
9092.000000;0.053685
9091.000000;0.054104
9090.000000;0.054525
9089.000000;0.054978
9088.000000;0.055375
9087.000000;0.055609
9086.000000;0.055739
9085.000000;0.055971
9084.000000;0.056434
9083.000000;0.057038
9082.000000;0.057592
9081.000000;0.057993
9080.000000;0.058294
9079.000000;0.058614
9078.000000;0.059024
9077.000000;0.059496
9076.000000;0.059930
9075.000000;0.060262
9074.000000;0.060539
9073.000000;0.060870
9072.000000;0.061284
