Criado como novo conjunto de dados;"0307_DANIEL.spp","17643.0 Secs"
cm-1;Abs
10000.000000;0.913144
9999.000000;0.912205
9998.000000;0.911395
9997.000000;0.910687
9996.000000;0.909935
9995.000000;0.908966
9994.000000;0.907691
9993.000000;0.906234
9992.000000;0.904778
9991.000000;0.903374
9990.000000;0.901969
9989.000000;0.900601
9988.000000;0.899420
9987.000000;0.898477
9986.000000;0.897641
9985.000000;0.896737
9984.000000;0.895660
9983.000000;0.894337
9982.000000;0.892760
9981.000000;0.891119
9980.000000;0.889755
9979.000000;0.888820
9978.000000;0.888098
9977.000000;0.887259
9976.000000;0.886248
9975.000000;0.885256
9974.000000;0.884363
9973.000000;0.883377
9972.000000;0.882122
9971.000000;0.880733
9970.000000;0.879561
9969.000000;0.878765
9968.000000;0.878109
9967.000000;0.877200
9966.000000;0.875931
9965.000000;0.874564
9964.000000;0.873345
9963.000000;0.872163
9962.000000;0.870732
9961.000000;0.869057
9960.000000;0.867495
9959.000000;0.866301
9958.000000;0.865313
9957.000000;0.864174
9956.000000;0.862751
9955.000000;0.861199
9954.000000;0.859744
9953.000000;0.858517
9952.000000;0.857522
9951.000000;0.856620
9950.000000;0.855593
9949.000000;0.854354
9948.000000;0.853026
9947.000000;0.851737
9946.000000;0.850409
9945.000000;0.848904
9944.000000;0.847287
9943.000000;0.845789
9942.000000;0.844530
9941.000000;0.843424
9940.000000;0.842298
9939.000000;0.841018
9938.000000;0.839539
9937.000000;0.838000
9936.000000;0.836711
9935.000000;0.835854
9934.000000;0.835248
9933.000000;0.834568
9932.000000;0.833734
9931.000000;0.832840
9930.000000;0.831771
9929.000000;0.830229
9928.000000;0.828236
9927.000000;0.826284
9926.000000;0.824770
9925.000000;0.823545
9924.000000;0.822204
9923.000000;0.820661
9922.000000;0.819157
9921.000000;0.817838
9920.000000;0.816617
9919.000000;0.815436
9918.000000;0.814394
9917.000000;0.813547
9916.000000;0.812761
9915.000000;0.811823
9914.000000;0.810583
9913.000000;0.808983
9912.000000;0.807095
9911.000000;0.805206
9910.000000;0.803684
9909.000000;0.802626
9908.000000;0.801710
9907.000000;0.800530
9906.000000;0.799053
9905.000000;0.797609
9904.000000;0.796432
9903.000000;0.795359
9902.000000;0.794081
9901.000000;0.792577
9900.000000;0.791116
9899.000000;0.789836
9898.000000;0.788542
9897.000000;0.787033
9896.000000;0.785496
9895.000000;0.784318
9894.000000;0.783538
9893.000000;0.782699
9892.000000;0.781361
9891.000000;0.779584
9890.000000;0.777768
9889.000000;0.776148
9888.000000;0.774625
9887.000000;0.773042
9886.000000;0.771399
9885.000000;0.769779
9884.000000;0.768229
9883.000000;0.766804
9882.000000;0.765622
9881.000000;0.764733
9880.000000;0.763968
9879.000000;0.763022
9878.000000;0.761706
9877.000000;0.760073
9876.000000;0.758337
9875.000000;0.756726
9874.000000;0.755387
9873.000000;0.754283
9872.000000;0.753148
9871.000000;0.751625
9870.000000;0.749589
9869.000000;0.747327
9868.000000;0.745335
9867.000000;0.743915
9866.000000;0.742985
9865.000000;0.742223
9864.000000;0.741352
9863.000000;0.740299
9862.000000;0.739172
9861.000000;0.738126
9860.000000;0.737171
9859.000000;0.736093
9858.000000;0.734583
9857.000000;0.732536
9856.000000;0.730188
9855.000000;0.727965
9854.000000;0.726195
9853.000000;0.724945
9852.000000;0.724044
9851.000000;0.723168
9850.000000;0.721992
9849.000000;0.720358
9848.000000;0.718356
9847.000000;0.716228
9846.000000;0.714202
9845.000000;0.712420
9844.000000;0.710966
9843.000000;0.709859
9842.000000;0.708982
9841.000000;0.708084
9840.000000;0.706905
9839.000000;0.705351
9838.000000;0.703554
9837.000000;0.701759
9836.000000;0.700135
9835.000000;0.698701
9834.000000;0.697423
9833.000000;0.696312
9832.000000;0.695358
9831.000000;0.694408
9830.000000;0.693239
9829.000000;0.691743
9828.000000;0.689966
9827.000000;0.687963
9826.000000;0.685763
9825.000000;0.683516
9824.000000;0.681508
9823.000000;0.679907
9822.000000;0.678587
9821.000000;0.677317
9820.000000;0.676001
9819.000000;0.674617
9818.000000;0.673047
9817.000000;0.671195
9816.000000;0.669252
9815.000000;0.667628
9814.000000;0.666537
9813.000000;0.665785
9812.000000;0.664969
9811.000000;0.663801
9810.000000;0.662202
9809.000000;0.660242
9808.000000;0.658084
9807.000000;0.655929
9806.000000;0.653947
9805.000000;0.652254
9804.000000;0.650910
9803.000000;0.649851
9802.000000;0.648823
9801.000000;0.647517
9800.000000;0.645829
9799.000000;0.643902
9798.000000;0.641935
9797.000000;0.640034
9796.000000;0.638237
9795.000000;0.636549
9794.000000;0.634913
9793.000000;0.633266
9792.000000;0.631687
9791.000000;0.630373
9790.000000;0.629379
9789.000000;0.628462
9788.000000;0.627246
9787.000000;0.625533
9786.000000;0.623418
9785.000000;0.621196
9784.000000;0.619198
9783.000000;0.617619
9782.000000;0.616391
9781.000000;0.615251
9780.000000;0.613989
9779.000000;0.612602
9778.000000;0.611182
9777.000000;0.609734
9776.000000;0.608176
9775.000000;0.606461
9774.000000;0.604610
9773.000000;0.602668
9772.000000;0.600694
9771.000000;0.598760
9770.000000;0.596889
9769.000000;0.595031
9768.000000;0.593170
9767.000000;0.591391
9766.000000;0.589767
9765.000000;0.588207
9764.000000;0.586514
9763.000000;0.584630
9762.000000;0.582729
9761.000000;0.581020
9760.000000;0.579502
9759.000000;0.577958
9758.000000;0.576178
9757.000000;0.574193
9756.000000;0.572307
9755.000000;0.570869
9754.000000;0.569941
9753.000000;0.569130
9752.000000;0.567814
9751.000000;0.565639
9750.000000;0.562853
9749.000000;0.560134
9748.000000;0.558030
9747.000000;0.556558
9746.000000;0.555334
9745.000000;0.554034
9744.000000;0.552656
9743.000000;0.551334
9742.000000;0.550042
9741.000000;0.548559
9740.000000;0.546692
9739.000000;0.544440
9738.000000;0.541984
9737.000000;0.539608
9736.000000;0.537573
9735.000000;0.535939
9734.000000;0.534489
9733.000000;0.532925
9732.000000;0.531144
9731.000000;0.529257
9730.000000;0.527376
9729.000000;0.525532
9728.000000;0.523788
9727.000000;0.522231
9726.000000;0.520763
9725.000000;0.519087
9724.000000;0.517055
9723.000000;0.514920
9722.000000;0.513052
9721.000000;0.511493
9720.000000;0.509955
9719.000000;0.508237
9718.000000;0.506420
9717.000000;0.504636
9716.000000;0.502832
9715.000000;0.500862
9714.000000;0.498671
9713.000000;0.496311
9712.000000;0.493872
9711.000000;0.491512
9710.000000;0.489451
9709.000000;0.487783
9708.000000;0.486324
9707.000000;0.484770
9706.000000;0.483003
9705.000000;0.481149
9704.000000;0.479331
9703.000000;0.477466
9702.000000;0.475396
9701.000000;0.473149
9700.000000;0.470979
9699.000000;0.469126
9698.000000;0.467571
9697.000000;0.466049
9696.000000;0.464302
9695.000000;0.462304
9694.000000;0.460215
9693.000000;0.458121
9692.000000;0.455905
9691.000000;0.453459
9690.000000;0.450975
9689.000000;0.448868
9688.000000;0.447345
9687.000000;0.446108
9686.000000;0.444597
9685.000000;0.442514
9684.000000;0.440041
9683.000000;0.437588
9682.000000;0.435440
9681.000000;0.433638
9680.000000;0.432065
9679.000000;0.430535
9678.000000;0.428851
9677.000000;0.426915
9676.000000;0.424763
9675.000000;0.422469
9674.000000;0.420004
9673.000000;0.417297
9672.000000;0.414454
9671.000000;0.411816
9670.000000;0.409714
9669.000000;0.408155
9668.000000;0.406802
9667.000000;0.405255
9666.000000;0.403303
9665.000000;0.400959
9664.000000;0.398377
9663.000000;0.395817
9662.000000;0.393590
9661.000000;0.391852
9660.000000;0.390413
9659.000000;0.388853
9658.000000;0.386872
9657.000000;0.384516
9656.000000;0.382051
9655.000000;0.379713
9654.000000;0.377597
9653.000000;0.375659
9652.000000;0.373721
9651.000000;0.371536
9650.000000;0.369011
9649.000000;0.366344
9648.000000;0.363867
9647.000000;0.361738
9646.000000;0.359868
9645.000000;0.358119
9644.000000;0.356469
9643.000000;0.354929
9642.000000;0.353375
9641.000000;0.351569
9640.000000;0.349393
9639.000000;0.347022
9638.000000;0.344792
9637.000000;0.342836
9636.000000;0.340889
9635.000000;0.338584
9634.000000;0.335920
9633.000000;0.333286
9632.000000;0.330949
9631.000000;0.328735
9630.000000;0.326361
9629.000000;0.323915
9628.000000;0.321724
9627.000000;0.319836
9626.000000;0.317927
9625.000000;0.315737
9624.000000;0.313344
9623.000000;0.310946
9622.000000;0.308608
9621.000000;0.306354
9620.000000;0.304241
9619.000000;0.302208
9618.000000;0.300015
9617.000000;0.297523
9616.000000;0.294920
9615.000000;0.292506
9614.000000;0.290365
9613.000000;0.288374
9612.000000;0.286414
9611.000000;0.284430
9610.000000;0.282355
9609.000000;0.280175
9608.000000;0.277994
9607.000000;0.275878
9606.000000;0.273692
9605.000000;0.271265
9604.000000;0.268662
9603.000000;0.266114
9602.000000;0.263711
9601.000000;0.261328
9600.000000;0.258872
9599.000000;0.256409
9598.000000;0.254018
9597.000000;0.251666
9596.000000;0.249310
9595.000000;0.246997
9594.000000;0.244777
9593.000000;0.242598
9592.000000;0.240357
9591.000000;0.238032
9590.000000;0.235715
9589.000000;0.233516
9588.000000;0.231451
9587.000000;0.229407
9586.000000;0.227248
9585.000000;0.224958
9584.000000;0.222643
9583.000000;0.220341
9582.000000;0.217939
9581.000000;0.215363
9580.000000;0.212768
9579.000000;0.210400
9578.000000;0.208277
9577.000000;0.206158
9576.000000;0.203832
9575.000000;0.201332
9574.000000;0.198829
9573.000000;0.196442
9572.000000;0.194177
9571.000000;0.191973
9570.000000;0.189732
9569.000000;0.187387
9568.000000;0.184984
9567.000000;0.182646
9566.000000;0.180409
9565.000000;0.178154
9564.000000;0.175754
9563.000000;0.173235
9562.000000;0.170744
9561.000000;0.168397
9560.000000;0.166208
9559.000000;0.164117
9558.000000;0.162034
9557.000000;0.159869
9556.000000;0.157578
9555.000000;0.155226
9554.000000;0.152928
9553.000000;0.150709
9552.000000;0.148439
9551.000000;0.145974
9550.000000;0.143378
9549.000000;0.140921
9548.000000;0.138813
9547.000000;0.136969
9546.000000;0.135122
9545.000000;0.133122
9544.000000;0.131048
9543.000000;0.129003
9542.000000;0.126949
9541.000000;0.124782
9540.000000;0.122471
9539.000000;0.120039
9538.000000;0.117516
9537.000000;0.114985
9536.000000;0.112632
9535.000000;0.110599
9534.000000;0.108806
9533.000000;0.106987
9532.000000;0.104932
9531.000000;0.102657
9530.000000;0.100372
9529.000000;0.098290
9528.000000;0.096446
9527.000000;0.094656
9526.000000;0.092694
9525.000000;0.090520
9524.000000;0.088254
9523.000000;0.085949
9522.000000;0.083545
9521.000000;0.081122
9520.000000;0.079006
9519.000000;0.077423
9518.000000;0.076160
9517.000000;0.074771
9516.000000;0.073085
9515.000000;0.071286
9514.000000;0.069525
9513.000000;0.067703
9512.000000;0.065730
9511.000000;0.063732
9510.000000;0.061857
9509.000000;0.060007
9508.000000;0.057957
9507.000000;0.055657
9506.000000;0.053299
9505.000000;0.051103
9504.000000;0.049161
9503.000000;0.047466
9502.000000;0.045957
9501.000000;0.044516
9500.000000;0.043010
9499.000000;0.041385
9498.000000;0.039699
9497.000000;0.038057
9496.000000;0.036519
9495.000000;0.035059
9494.000000;0.033619
9493.000000;0.032193
9492.000000;0.030855
9491.000000;0.029657
9490.000000;0.028507
9489.000000;0.027232
9488.000000;0.025790
9487.000000;0.024369
9486.000000;0.023179
9485.000000;0.022204
9484.000000;0.021224
9483.000000;0.020063
9482.000000;0.018745
9481.000000;0.017415
9480.000000;0.016188
9479.000000;0.015111
9478.000000;0.014168
9477.000000;0.013260
9476.000000;0.012231
9475.000000;0.011002
9474.000000;0.009667
9473.000000;0.008417
9472.000000;0.007362
9471.000000;0.006474
9470.000000;0.005661
9469.000000;0.004822
9468.000000;0.003855
9467.000000;0.002720
9466.000000;0.001577
9465.000000;0.000737
9464.000000;0.000371
9463.000000;0.000277
9462.000000;0.000049
9461.000000;-0.000527
9460.000000;-0.001293
9459.000000;-0.001932
9458.000000;-0.002299
9457.000000;-0.002521
9456.000000;-0.002847
9455.000000;-0.003423
9454.000000;-0.004178
9453.000000;-0.004892
9452.000000;-0.005407
9451.000000;-0.005755
9450.000000;-0.006067
9449.000000;-0.006377
9448.000000;-0.006594
9447.000000;-0.006662
9446.000000;-0.006642
9445.000000;-0.006603
9444.000000;-0.006542
9443.000000;-0.006456
9442.000000;-0.006431
9441.000000;-0.006560
9440.000000;-0.006817
9439.000000;-0.007077
9438.000000;-0.007255
9437.000000;-0.007339
9436.000000;-0.007308
9435.000000;-0.007071
9434.000000;-0.006561
9433.000000;-0.005881
9432.000000;-0.005327
9431.000000;-0.005182
9430.000000;-0.005441
9429.000000;-0.005778
9428.000000;-0.005829
9427.000000;-0.005530
9426.000000;-0.005087
9425.000000;-0.004657
9424.000000;-0.004163
9423.000000;-0.003455
9422.000000;-0.002547
9421.000000;-0.001611
9420.000000;-0.000823
9419.000000;-0.000277
9418.000000;0.000012
9417.000000;0.000134
9416.000000;0.000286
9415.000000;0.000649
9414.000000;0.001254
9413.000000;0.001973
9412.000000;0.002656
9411.000000;0.003244
9410.000000;0.003795
9409.000000;0.004417
9408.000000;0.005152
9407.000000;0.005929
9406.000000;0.006657
9405.000000;0.007371
9404.000000;0.008196
9403.000000;0.009156
9402.000000;0.010119
9401.000000;0.010996
9400.000000;0.011868
9399.000000;0.012844
9398.000000;0.013864
9397.000000;0.014758
9396.000000;0.015469
9395.000000;0.016118
9394.000000;0.016864
9393.000000;0.017787
9392.000000;0.018868
9391.000000;0.020011
9390.000000;0.021100
9389.000000;0.022094
9388.000000;0.023048
9387.000000;0.024000
9386.000000;0.024912
9385.000000;0.025781
9384.000000;0.026729
9383.000000;0.027875
9382.000000;0.029140
9381.000000;0.030293
9380.000000;0.031183
9379.000000;0.031861
9378.000000;0.032505
9377.000000;0.033305
9376.000000;0.034388
9375.000000;0.035713
9374.000000;0.037071
9373.000000;0.038274
9372.000000;0.039361
9371.000000;0.040527
9370.000000;0.041859
9369.000000;0.043237
9368.000000;0.044499
9367.000000;0.045615
9366.000000;0.046664
9365.000000;0.047730
9364.000000;0.048847
9363.000000;0.049986
9362.000000;0.051081
9361.000000;0.052101
9360.000000;0.053114
9359.000000;0.054214
9358.000000;0.055405
9357.000000;0.056605
9356.000000;0.057771
9355.000000;0.058971
9354.000000;0.060313
9353.000000;0.061833
9352.000000;0.063414
9351.000000;0.064822
9350.000000;0.065881
9349.000000;0.066683
9348.000000;0.067547
9347.000000;0.068694
9346.000000;0.070041
9345.000000;0.071392
9344.000000;0.072741
9343.000000;0.074204
9342.000000;0.075718
9341.000000;0.077018
9340.000000;0.077962
9339.000000;0.078708
9338.000000;0.079531
9337.000000;0.080588
9336.000000;0.081888
9335.000000;0.083358
9334.000000;0.084844
9333.000000;0.086157
9332.000000;0.087214
9331.000000;0.088086
9330.000000;0.088895
9329.000000;0.089746
9328.000000;0.090744
9327.000000;0.091979
9326.000000;0.093423
9325.000000;0.094922
9324.000000;0.096352
9323.000000;0.097701
9322.000000;0.098973
9321.000000;0.100094
9320.000000;0.101005
9319.000000;0.101780
9318.000000;0.102587
9317.000000;0.103557
9316.000000;0.104708
9315.000000;0.105945
9314.000000;0.107125
9313.000000;0.108149
9312.000000;0.109041
9311.000000;0.109919
9310.000000;0.110921
9309.000000;0.112174
9308.000000;0.113759
9307.000000;0.115574
9306.000000;0.117281
9305.000000;0.118556
9304.000000;0.119413
9303.000000;0.120165
9302.000000;0.121064
9301.000000;0.122107
9300.000000;0.123214
9299.000000;0.124399
9298.000000;0.125682
9297.000000;0.126967
9296.000000;0.128156
9295.000000;0.129273
9294.000000;0.130371
9293.000000;0.131405
9292.000000;0.132319
9291.000000;0.133199
9290.000000;0.134194
9289.000000;0.135332
9288.000000;0.136499
9287.000000;0.137594
9286.000000;0.138598
9285.000000;0.139544
9284.000000;0.140510
9283.000000;0.141599
9282.000000;0.142849
9281.000000;0.144138
9280.000000;0.145280
9279.000000;0.146195
9278.000000;0.146958
9277.000000;0.147672
9276.000000;0.148395
9275.000000;0.149178
9274.000000;0.150109
9273.000000;0.151276
9272.000000;0.152679
9271.000000;0.154186
9270.000000;0.155588
9269.000000;0.156728
9268.000000;0.157627
9267.000000;0.158448
9266.000000;0.159319
9265.000000;0.160228
9264.000000;0.161106
9263.000000;0.161964
9262.000000;0.162903
9261.000000;0.163985
9260.000000;0.165139
9259.000000;0.166201
9258.000000;0.167051
9257.000000;0.167736
9256.000000;0.168450
9255.000000;0.169335
9254.000000;0.170331
9253.000000;0.171273
9252.000000;0.172135
9251.000000;0.173060
9250.000000;0.174146
9249.000000;0.175291
9248.000000;0.176325
9247.000000;0.177205
9246.000000;0.178007
9245.000000;0.178803
9244.000000;0.179635
9243.000000;0.180550
9242.000000;0.181556
9241.000000;0.182565
9240.000000;0.183465
9239.000000;0.184243
9238.000000;0.184972
9237.000000;0.185715
9236.000000;0.186492
9235.000000;0.187317
9234.000000;0.188185
9233.000000;0.189035
9232.000000;0.189825
9231.000000;0.190623
9230.000000;0.191556
9229.000000;0.192633
9228.000000;0.193709
9227.000000;0.194641
9226.000000;0.195440
9225.000000;0.196219
9224.000000;0.197059
9223.000000;0.197928
9222.000000;0.198734
9221.000000;0.199404
9220.000000;0.199939
9219.000000;0.200399
9218.000000;0.200867
9217.000000;0.201417
9216.000000;0.202110
9215.000000;0.202959
9214.000000;0.203891
9213.000000;0.204774
9212.000000;0.205538
9211.000000;0.206246
9210.000000;0.207016
9209.000000;0.207879
9208.000000;0.208771
9207.000000;0.209635
9206.000000;0.210466
9205.000000;0.211247
9204.000000;0.211947
9203.000000;0.212609
9202.000000;0.213362
9201.000000;0.214276
9200.000000;0.215237
9199.000000;0.216054
9198.000000;0.216674
9197.000000;0.217223
9196.000000;0.217836
9195.000000;0.218523
9194.000000;0.219215
9193.000000;0.219867
9192.000000;0.220483
9191.000000;0.221093
9190.000000;0.221750
9189.000000;0.222494
9188.000000;0.223260
9187.000000;0.223898
9186.000000;0.224364
9185.000000;0.224835
9184.000000;0.225532
9183.000000;0.226430
9182.000000;0.227306
9181.000000;0.228063
9180.000000;0.228852
9179.000000;0.229804
9178.000000;0.230761
9177.000000;0.231449
9176.000000;0.231843
9175.000000;0.232216
9174.000000;0.232823
9173.000000;0.233656
9172.000000;0.234530
9171.000000;0.235304
9170.000000;0.235948
9169.000000;0.236454
9168.000000;0.236806
9167.000000;0.237052
9166.000000;0.237346
9165.000000;0.237840
9164.000000;0.238522
9163.000000;0.239211
9162.000000;0.239757
9161.000000;0.240212
9160.000000;0.240737
9159.000000;0.241364
9158.000000;0.241955
9157.000000;0.242395
9156.000000;0.242723
9155.000000;0.243059
9154.000000;0.243492
9153.000000;0.244096
9152.000000;0.244914
9151.000000;0.245854
9150.000000;0.246681
9149.000000;0.247240
9148.000000;0.247601
9147.000000;0.247934
9146.000000;0.248313
9145.000000;0.248769
9144.000000;0.249409
9143.000000;0.250288
9142.000000;0.251224
9141.000000;0.251915
9140.000000;0.252276
9139.000000;0.252498
9138.000000;0.252802
9137.000000;0.253267
9136.000000;0.253878
9135.000000;0.254568
9134.000000;0.255161
9133.000000;0.255467
9132.000000;0.255521
9131.000000;0.255613
9130.000000;0.256003
9129.000000;0.256697
9128.000000;0.257533
9127.000000;0.258364
9126.000000;0.259089
9125.000000;0.259622
9124.000000;0.259956
9123.000000;0.260201
9122.000000;0.260472
9121.000000;0.260782
9120.000000;0.261111
9119.000000;0.261509
9118.000000;0.262030
9117.000000;0.262628
9116.000000;0.263194
9115.000000;0.263674
9114.000000;0.264104
9113.000000;0.264540
9112.000000;0.265005
9111.000000;0.265478
9110.000000;0.265886
9109.000000;0.266161
9108.000000;0.266356
9107.000000;0.266655
9106.000000;0.267218
9105.000000;0.268015
9104.000000;0.268846
9103.000000;0.269483
9102.000000;0.269792
9101.000000;0.269810
9100.000000;0.269759
9099.000000;0.269943
9098.000000;0.270506
9097.000000;0.271291
9096.000000;0.271987
9095.000000;0.272430
9094.000000;0.272706
9093.000000;0.272995
9092.000000;0.273350
9091.000000;0.273676
9090.000000;0.273872
9089.000000;0.273942
9088.000000;0.273989
9087.000000;0.274124
9086.000000;0.274394
9085.000000;0.274794
9084.000000;0.275305
9083.000000;0.275898
9082.000000;0.276503
9081.000000;0.277026
9080.000000;0.277405
9079.000000;0.277669
9078.000000;0.277929
9077.000000;0.278315
9076.000000;0.278878
9075.000000;0.279512
9074.000000;0.279997
9073.000000;0.280175
9072.000000;0.280101
9071.000000;0.280007
9070.000000;0.280108
9069.000000;0.280466
9068.000000;0.280982
9067.000000;0.281487
9066.000000;0.281839
9065.000000;0.282003
9064.000000;0.282071
9063.000000;0.282193
9062.000000;0.282480
9061.000000;0.282966
9060.000000;0.283606
9059.000000;0.284279
9058.000000;0.284837
9057.000000;0.285222
9056.000000;0.285508
9055.000000;0.285787
