Criado como novo conjunto de dados;"0307_DANIEL.spp","2701.9 Secs"
cm-1;Abs
10000.000000;0.242378
9999.000000;0.241358
9998.000000;0.240296
9997.000000;0.239143
9996.000000;0.237914
9995.000000;0.236705
9994.000000;0.235619
9993.000000;0.234659
9992.000000;0.233727
9991.000000;0.232714
9990.000000;0.231600
9989.000000;0.230455
9988.000000;0.229337
9987.000000;0.228222
9986.000000;0.227059
9985.000000;0.225884
9984.000000;0.224803
9983.000000;0.223850
9982.000000;0.222924
9981.000000;0.221898
9980.000000;0.220748
9979.000000;0.219534
9978.000000;0.218318
9977.000000;0.217123
9976.000000;0.215945
9975.000000;0.214759
9974.000000;0.213536
9973.000000;0.212291
9972.000000;0.211092
9971.000000;0.210010
9970.000000;0.209062
9969.000000;0.208208
9968.000000;0.207345
9967.000000;0.206318
9966.000000;0.205020
9965.000000;0.203546
9964.000000;0.202162
9963.000000;0.201066
9962.000000;0.200213
9961.000000;0.199399
9960.000000;0.198471
9959.000000;0.197406
9958.000000;0.196237
9957.000000;0.194998
9956.000000;0.193717
9955.000000;0.192425
9954.000000;0.191169
9953.000000;0.190006
9952.000000;0.188956
9951.000000;0.187940
9950.000000;0.186838
9949.000000;0.185632
9948.000000;0.184440
9947.000000;0.183367
9946.000000;0.182381
9945.000000;0.181380
9944.000000;0.180307
9943.000000;0.179148
9942.000000;0.177892
9941.000000;0.176558
9940.000000;0.175222
9939.000000;0.173949
9938.000000;0.172714
9937.000000;0.171464
9936.000000;0.170198
9935.000000;0.168942
9934.000000;0.167671
9933.000000;0.166352
9932.000000;0.165023
9931.000000;0.163774
9930.000000;0.162640
9929.000000;0.161573
9928.000000;0.160496
9927.000000;0.159385
9926.000000;0.158286
9925.000000;0.157265
9924.000000;0.156306
9923.000000;0.155277
9922.000000;0.154056
9921.000000;0.152699
9920.000000;0.151382
9919.000000;0.150170
9918.000000;0.148939
9917.000000;0.147585
9916.000000;0.146186
9915.000000;0.144880
9914.000000;0.143668
9913.000000;0.142453
9912.000000;0.141193
9911.000000;0.139926
9910.000000;0.138677
9909.000000;0.137434
9908.000000;0.136190
9907.000000;0.134937
9906.000000;0.133659
9905.000000;0.132407
9904.000000;0.131304
9903.000000;0.130381
9902.000000;0.129446
9901.000000;0.128256
9900.000000;0.126793
9899.000000;0.125284
9898.000000;0.123941
9897.000000;0.122790
9896.000000;0.121712
9895.000000;0.120566
9894.000000;0.119258
9893.000000;0.117789
9892.000000;0.116280
9891.000000;0.114867
9890.000000;0.113567
9889.000000;0.112285
9888.000000;0.110953
9887.000000;0.109590
9886.000000;0.108241
9885.000000;0.106916
9884.000000;0.105611
9883.000000;0.104330
9882.000000;0.103082
9881.000000;0.101879
9880.000000;0.100737
9879.000000;0.099629
9878.000000;0.098454
9877.000000;0.097108
9876.000000;0.095613
9875.000000;0.094121
9874.000000;0.092783
9873.000000;0.091635
9872.000000;0.090575
9871.000000;0.089438
9870.000000;0.088103
9869.000000;0.086594
9868.000000;0.085065
9867.000000;0.083639
9866.000000;0.082307
9865.000000;0.081009
9864.000000;0.079761
9863.000000;0.078621
9862.000000;0.077561
9861.000000;0.076449
9860.000000;0.075178
9859.000000;0.073748
9858.000000;0.072223
9857.000000;0.070669
9856.000000;0.069146
9855.000000;0.067698
9854.000000;0.066315
9853.000000;0.064931
9852.000000;0.063502
9851.000000;0.062049
9850.000000;0.060621
9849.000000;0.059221
9848.000000;0.057798
9847.000000;0.056316
9846.000000;0.054817
9845.000000;0.053392
9844.000000;0.052074
9843.000000;0.050796
9842.000000;0.049489
9841.000000;0.048198
9840.000000;0.047018
9839.000000;0.045936
9838.000000;0.044798
9837.000000;0.043474
9836.000000;0.041979
9835.000000;0.040395
9834.000000;0.038764
9833.000000;0.037107
9832.000000;0.035486
9831.000000;0.033970
9830.000000;0.032558
9829.000000;0.031201
9828.000000;0.029857
9827.000000;0.028482
9826.000000;0.027012
9825.000000;0.025423
9824.000000;0.023792
9823.000000;0.022248
9822.000000;0.020850
9821.000000;0.019557
9820.000000;0.018273
9819.000000;0.016909
9818.000000;0.015424
9817.000000;0.013868
9816.000000;0.012355
9815.000000;0.010952
9814.000000;0.009595
9813.000000;0.008163
9812.000000;0.006602
9811.000000;0.004983
9810.000000;0.003423
9809.000000;0.002001
9808.000000;0.000683
9807.000000;-0.000662
9806.000000;-0.002149
9805.000000;-0.003757
9804.000000;-0.005354
9803.000000;-0.006853
9802.000000;-0.008284
9801.000000;-0.009716
9800.000000;-0.011162
9799.000000;-0.012605
9798.000000;-0.014048
9797.000000;-0.015508
9796.000000;-0.016988
9795.000000;-0.018515
9794.000000;-0.020130
9793.000000;-0.021806
9792.000000;-0.023431
9791.000000;-0.024926
9790.000000;-0.026338
9789.000000;-0.027767
9788.000000;-0.029256
9787.000000;-0.030798
9786.000000;-0.032386
9785.000000;-0.033988
9784.000000;-0.035539
9783.000000;-0.037027
9782.000000;-0.038543
9781.000000;-0.040180
9780.000000;-0.041909
9779.000000;-0.043614
9778.000000;-0.045227
9777.000000;-0.046758
9776.000000;-0.048248
9775.000000;-0.049739
9774.000000;-0.051287
9773.000000;-0.052928
9772.000000;-0.054636
9771.000000;-0.056336
9770.000000;-0.057966
9769.000000;-0.059506
9768.000000;-0.061001
9767.000000;-0.062538
9766.000000;-0.064171
9765.000000;-0.065817
9764.000000;-0.067324
9763.000000;-0.068674
9762.000000;-0.070052
9761.000000;-0.071652
9760.000000;-0.073470
9759.000000;-0.075369
9758.000000;-0.077246
9757.000000;-0.079064
9756.000000;-0.080778
9755.000000;-0.082354
9754.000000;-0.083858
9753.000000;-0.085414
9752.000000;-0.087071
9751.000000;-0.088780
9750.000000;-0.090480
9749.000000;-0.092151
9748.000000;-0.093780
9747.000000;-0.095352
9746.000000;-0.096890
9745.000000;-0.098449
9744.000000;-0.100069
9743.000000;-0.101746
9742.000000;-0.103480
9741.000000;-0.105285
9740.000000;-0.107163
9739.000000;-0.109081
9738.000000;-0.110970
9737.000000;-0.112756
9736.000000;-0.114411
9735.000000;-0.115993
9734.000000;-0.117587
9733.000000;-0.119219
9732.000000;-0.120860
9731.000000;-0.122531
9730.000000;-0.124313
9729.000000;-0.126223
9728.000000;-0.128142
9727.000000;-0.129932
9726.000000;-0.131588
9725.000000;-0.133206
9724.000000;-0.134866
9723.000000;-0.136573
9722.000000;-0.138301
9721.000000;-0.140026
9720.000000;-0.141732
9719.000000;-0.143424
9718.000000;-0.145119
9717.000000;-0.146827
9716.000000;-0.148560
9715.000000;-0.150369
9714.000000;-0.152290
9713.000000;-0.154257
9712.000000;-0.156151
9711.000000;-0.157955
9710.000000;-0.159768
9709.000000;-0.161628
9708.000000;-0.163450
9707.000000;-0.165200
9706.000000;-0.167011
9705.000000;-0.169013
9704.000000;-0.171117
9703.000000;-0.173120
9702.000000;-0.174948
9701.000000;-0.176694
9700.000000;-0.178422
9699.000000;-0.180074
9698.000000;-0.181616
9697.000000;-0.183168
9696.000000;-0.184929
9695.000000;-0.186997
9694.000000;-0.189271
9693.000000;-0.191516
9692.000000;-0.193536
9691.000000;-0.195314
9690.000000;-0.196974
9689.000000;-0.198642
9688.000000;-0.200376
9687.000000;-0.202213
9686.000000;-0.204199
9685.000000;-0.206308
9684.000000;-0.208409
9683.000000;-0.210382
9682.000000;-0.212216
9681.000000;-0.213974
9680.000000;-0.215709
9679.000000;-0.217471
9678.000000;-0.219310
9677.000000;-0.221230
9676.000000;-0.223184
9675.000000;-0.225166
9674.000000;-0.227234
9673.000000;-0.229384
9672.000000;-0.231509
9671.000000;-0.233541
9670.000000;-0.235542
9669.000000;-0.237558
9668.000000;-0.239488
9667.000000;-0.241233
9666.000000;-0.242902
9665.000000;-0.244721
9664.000000;-0.246755
9663.000000;-0.248868
9662.000000;-0.250925
9661.000000;-0.252938
9660.000000;-0.254995
9659.000000;-0.257166
9658.000000;-0.259459
9657.000000;-0.261781
9656.000000;-0.263964
9655.000000;-0.265902
9654.000000;-0.267688
9653.000000;-0.269511
9652.000000;-0.271440
9651.000000;-0.273404
9650.000000;-0.275360
9649.000000;-0.277364
9648.000000;-0.279456
9647.000000;-0.281585
9646.000000;-0.283693
9645.000000;-0.285780
9644.000000;-0.287857
9643.000000;-0.289890
9642.000000;-0.291857
9641.000000;-0.293792
9640.000000;-0.295755
9639.000000;-0.297768
9638.000000;-0.299824
9637.000000;-0.301925
9636.000000;-0.304080
9635.000000;-0.306287
9634.000000;-0.308529
9633.000000;-0.310781
9632.000000;-0.313014
9631.000000;-0.315219
9630.000000;-0.317408
9629.000000;-0.319593
9628.000000;-0.321758
9627.000000;-0.323875
9626.000000;-0.325930
9625.000000;-0.327927
9624.000000;-0.329892
9623.000000;-0.331884
9622.000000;-0.333957
9621.000000;-0.336089
9620.000000;-0.338193
9619.000000;-0.340241
9618.000000;-0.342331
9617.000000;-0.344575
9616.000000;-0.346950
9615.000000;-0.349310
9614.000000;-0.351534
9613.000000;-0.353613
9612.000000;-0.355637
9611.000000;-0.357736
9610.000000;-0.359997
9609.000000;-0.362378
9608.000000;-0.364726
9607.000000;-0.366916
9606.000000;-0.368985
9605.000000;-0.371072
9604.000000;-0.373274
9603.000000;-0.375591
9602.000000;-0.377967
9601.000000;-0.380337
9600.000000;-0.382630
9599.000000;-0.384811
9598.000000;-0.386917
9597.000000;-0.389019
9596.000000;-0.391158
9595.000000;-0.393329
9594.000000;-0.395531
9593.000000;-0.397768
9592.000000;-0.400030
9591.000000;-0.402286
9590.000000;-0.404512
9589.000000;-0.406700
9588.000000;-0.408868
9587.000000;-0.411070
9586.000000;-0.413373
9585.000000;-0.415782
9584.000000;-0.418190
9583.000000;-0.420468
9582.000000;-0.422591
9581.000000;-0.424667
9580.000000;-0.426828
9579.000000;-0.429114
9578.000000;-0.431463
9577.000000;-0.433804
9576.000000;-0.436135
9575.000000;-0.438499
9574.000000;-0.440873
9573.000000;-0.443164
9572.000000;-0.445329
9571.000000;-0.447460
9570.000000;-0.449676
9569.000000;-0.451977
9568.000000;-0.454277
9567.000000;-0.456537
9566.000000;-0.458776
9565.000000;-0.460953
9564.000000;-0.462998
9563.000000;-0.464978
9562.000000;-0.467081
9561.000000;-0.469394
9560.000000;-0.471810
9559.000000;-0.474193
9558.000000;-0.476521
9557.000000;-0.478793
9556.000000;-0.480950
9555.000000;-0.482972
9554.000000;-0.484973
9553.000000;-0.487070
9552.000000;-0.489235
9551.000000;-0.491387
9550.000000;-0.493553
9549.000000;-0.495822
9548.000000;-0.498181
9547.000000;-0.500499
9546.000000;-0.502670
9545.000000;-0.504676
9544.000000;-0.506558
9543.000000;-0.508415
9542.000000;-0.510385
9541.000000;-0.512544
9540.000000;-0.514822
9539.000000;-0.517089
9538.000000;-0.519302
9537.000000;-0.521507
9536.000000;-0.523731
9535.000000;-0.525945
9534.000000;-0.528106
9533.000000;-0.530159
9532.000000;-0.532060
9531.000000;-0.533869
9530.000000;-0.535746
9529.000000;-0.537778
9528.000000;-0.539845
9527.000000;-0.541772
9526.000000;-0.543567
9525.000000;-0.545408
9524.000000;-0.547414
9523.000000;-0.549534
9522.000000;-0.551668
9521.000000;-0.553749
9520.000000;-0.555723
9519.000000;-0.557548
9518.000000;-0.559272
9517.000000;-0.561018
9516.000000;-0.562841
9515.000000;-0.564662
9514.000000;-0.566377
9513.000000;-0.568001
9512.000000;-0.569658
9511.000000;-0.571461
9510.000000;-0.573414
9509.000000;-0.575407
9508.000000;-0.577291
9507.000000;-0.578980
9506.000000;-0.580505
9505.000000;-0.581979
9504.000000;-0.583515
9503.000000;-0.585161
9502.000000;-0.586881
9501.000000;-0.588573
9500.000000;-0.590162
9499.000000;-0.591697
9498.000000;-0.593299
9497.000000;-0.594990
9496.000000;-0.596638
9495.000000;-0.598126
9494.000000;-0.599498
9493.000000;-0.600876
9492.000000;-0.602275
9491.000000;-0.603621
9490.000000;-0.604889
9489.000000;-0.606138
9488.000000;-0.607395
9487.000000;-0.608617
9486.000000;-0.609778
9485.000000;-0.610901
9484.000000;-0.611999
9483.000000;-0.613050
9482.000000;-0.614054
9481.000000;-0.615053
9480.000000;-0.616052
9479.000000;-0.616998
9478.000000;-0.617868
9477.000000;-0.618728
9476.000000;-0.619696
9475.000000;-0.620845
9474.000000;-0.622153
9473.000000;-0.623485
9472.000000;-0.624646
9471.000000;-0.625499
9470.000000;-0.626089
9469.000000;-0.626617
9468.000000;-0.627295
9467.000000;-0.628190
9466.000000;-0.629198
9465.000000;-0.630109
9464.000000;-0.630734
9463.000000;-0.631055
9462.000000;-0.631259
9461.000000;-0.631573
9460.000000;-0.632058
9459.000000;-0.632593
9458.000000;-0.633082
9457.000000;-0.633582
9456.000000;-0.634199
9455.000000;-0.634895
9454.000000;-0.635480
9453.000000;-0.635783
9452.000000;-0.635801
9451.000000;-0.635696
9450.000000;-0.635677
9449.000000;-0.635866
9448.000000;-0.636215
9447.000000;-0.636540
9446.000000;-0.636658
9445.000000;-0.636542
9444.000000;-0.636337
9443.000000;-0.636228
9442.000000;-0.636286
9441.000000;-0.636420
9440.000000;-0.636467
9439.000000;-0.636331
9438.000000;-0.636047
9437.000000;-0.635750
9436.000000;-0.635546
9435.000000;-0.635426
9434.000000;-0.635272
9433.000000;-0.634988
9432.000000;-0.634603
9431.000000;-0.634243
9430.000000;-0.633995
9429.000000;-0.633821
9428.000000;-0.633610
9427.000000;-0.633284
9426.000000;-0.632836
9425.000000;-0.632291
9424.000000;-0.631682
9423.000000;-0.631070
9422.000000;-0.630528
9421.000000;-0.630083
9420.000000;-0.629671
9419.000000;-0.629178
9418.000000;-0.628525
9417.000000;-0.627749
9416.000000;-0.626980
9415.000000;-0.626334
9414.000000;-0.625801
9413.000000;-0.625274
9412.000000;-0.624677
9411.000000;-0.624025
9410.000000;-0.623336
9409.000000;-0.622562
9408.000000;-0.621667
9407.000000;-0.620733
9406.000000;-0.619873
9405.000000;-0.619075
9404.000000;-0.618232
9403.000000;-0.617330
9402.000000;-0.616473
9401.000000;-0.615694
9400.000000;-0.614874
9399.000000;-0.613903
9398.000000;-0.612860
9397.000000;-0.611911
9396.000000;-0.611085
9395.000000;-0.610254
9394.000000;-0.609307
9393.000000;-0.608262
9392.000000;-0.607196
9391.000000;-0.606154
9390.000000;-0.605132
9389.000000;-0.604112
9388.000000;-0.603074
9387.000000;-0.602003
9386.000000;-0.600897
9385.000000;-0.599757
9384.000000;-0.598571
9383.000000;-0.597328
9382.000000;-0.596043
9381.000000;-0.594763
9380.000000;-0.593550
9379.000000;-0.592454
9378.000000;-0.591464
9377.000000;-0.590487
9376.000000;-0.589403
9375.000000;-0.588185
9374.000000;-0.586913
9373.000000;-0.585654
9372.000000;-0.584369
9371.000000;-0.582989
9370.000000;-0.581568
9369.000000;-0.580274
9368.000000;-0.579216
9367.000000;-0.578326
9366.000000;-0.577418
9365.000000;-0.576350
9364.000000;-0.575097
9363.000000;-0.573721
9362.000000;-0.572294
9361.000000;-0.570853
9360.000000;-0.569421
9359.000000;-0.568037
9358.000000;-0.566762
9357.000000;-0.565634
9356.000000;-0.564613
9355.000000;-0.563574
9354.000000;-0.562380
9353.000000;-0.560975
9352.000000;-0.559444
9351.000000;-0.557950
9350.000000;-0.556598
9349.000000;-0.555377
9348.000000;-0.554228
9347.000000;-0.553134
9346.000000;-0.552087
9345.000000;-0.550995
9344.000000;-0.549731
9343.000000;-0.548291
9342.000000;-0.546839
9341.000000;-0.545526
9340.000000;-0.544339
9339.000000;-0.543156
9338.000000;-0.541907
9337.000000;-0.540638
9336.000000;-0.539417
9335.000000;-0.538237
9334.000000;-0.537017
9333.000000;-0.535685
9332.000000;-0.534269
9331.000000;-0.532900
9330.000000;-0.531692
9329.000000;-0.530611
9328.000000;-0.529509
9327.000000;-0.528297
9326.000000;-0.527030
9325.000000;-0.525788
9324.000000;-0.524548
9323.000000;-0.523251
9322.000000;-0.521925
9321.000000;-0.520678
9320.000000;-0.519559
9319.000000;-0.518507
9318.000000;-0.517416
9317.000000;-0.516218
9316.000000;-0.514905
9315.000000;-0.513530
9314.000000;-0.512196
9313.000000;-0.510987
9312.000000;-0.509898
9311.000000;-0.508849
9310.000000;-0.507757
9309.000000;-0.506584
9308.000000;-0.505310
9307.000000;-0.503948
9306.000000;-0.502560
9305.000000;-0.501230
9304.000000;-0.499988
9303.000000;-0.498787
9302.000000;-0.497573
9301.000000;-0.496361
9300.000000;-0.495202
9299.000000;-0.494114
9298.000000;-0.493046
9297.000000;-0.491935
9296.000000;-0.490769
9295.000000;-0.489582
9294.000000;-0.488394
9293.000000;-0.487180
9292.000000;-0.485932
9291.000000;-0.484712
9290.000000;-0.483606
9289.000000;-0.482603
9288.000000;-0.481590
9287.000000;-0.480486
9286.000000;-0.479326
9285.000000;-0.478174
9284.000000;-0.477012
9283.000000;-0.475769
9282.000000;-0.474454
9281.000000;-0.473172
9280.000000;-0.472006
9279.000000;-0.470927
9278.000000;-0.469869
9277.000000;-0.468826
9276.000000;-0.467837
9275.000000;-0.466880
9274.000000;-0.465839
9273.000000;-0.464617
9272.000000;-0.463255
9271.000000;-0.461909
9270.000000;-0.460708
9269.000000;-0.459661
9268.000000;-0.458707
9267.000000;-0.457794
9266.000000;-0.456888
9265.000000;-0.455946
9264.000000;-0.454943
9263.000000;-0.453915
9262.000000;-0.452905
9261.000000;-0.451881
9260.000000;-0.450789
9259.000000;-0.449669
9258.000000;-0.448654
9257.000000;-0.447802
9256.000000;-0.447009
9255.000000;-0.446124
9254.000000;-0.445111
9253.000000;-0.444062
9252.000000;-0.443067
9251.000000;-0.442135
9250.000000;-0.441210
9249.000000;-0.440237
9248.000000;-0.439207
9247.000000;-0.438162
9246.000000;-0.437146
9245.000000;-0.436167
9244.000000;-0.435213
9243.000000;-0.434291
9242.000000;-0.433413
9241.000000;-0.432534
9240.000000;-0.431573
9239.000000;-0.430515
9238.000000;-0.429443
9237.000000;-0.428434
9236.000000;-0.427472
9235.000000;-0.426508
9234.000000;-0.425569
9233.000000;-0.424722
9232.000000;-0.423967
9231.000000;-0.423190
9230.000000;-0.422262
9229.000000;-0.421157
9228.000000;-0.419996
9227.000000;-0.418964
9226.000000;-0.418169
9225.000000;-0.417542
9224.000000;-0.416899
9223.000000;-0.416099
9222.000000;-0.415149
9221.000000;-0.414151
9220.000000;-0.413190
9219.000000;-0.412294
9218.000000;-0.411442
9217.000000;-0.410596
9216.000000;-0.409726
9215.000000;-0.408846
9214.000000;-0.407990
9213.000000;-0.407166
9212.000000;-0.406352
9211.000000;-0.405531
9210.000000;-0.404700
9209.000000;-0.403835
9208.000000;-0.402911
9207.000000;-0.401963
9206.000000;-0.401072
9205.000000;-0.400270
9204.000000;-0.399499
9203.000000;-0.398699
9202.000000;-0.397871
9201.000000;-0.397050
9200.000000;-0.396254
9199.000000;-0.395508
9198.000000;-0.394844
9197.000000;-0.394239
9196.000000;-0.393588
9195.000000;-0.392804
9194.000000;-0.391915
9193.000000;-0.391020
9192.000000;-0.390194
9191.000000;-0.389448
9190.000000;-0.388764
9189.000000;-0.388104
9188.000000;-0.387426
9187.000000;-0.386709
9186.000000;-0.385962
9185.000000;-0.385179
9184.000000;-0.384336
9183.000000;-0.383456
9182.000000;-0.382621
9181.000000;-0.381883
9180.000000;-0.381201
9179.000000;-0.380515
9178.000000;-0.379849
9177.000000;-0.379261
9176.000000;-0.378737
9175.000000;-0.378181
9174.000000;-0.377514
9173.000000;-0.376737
9172.000000;-0.375893
9171.000000;-0.375026
9170.000000;-0.374162
9169.000000;-0.373314
9168.000000;-0.372511
9167.000000;-0.371806
9166.000000;-0.371244
9165.000000;-0.370785
9164.000000;-0.370324
9163.000000;-0.369782
9162.000000;-0.369166
9161.000000;-0.368508
9160.000000;-0.367813
9159.000000;-0.367083
9158.000000;-0.366344
9157.000000;-0.365619
9156.000000;-0.364896
9155.000000;-0.364192
9154.000000;-0.363570
9153.000000;-0.363066
9152.000000;-0.362611
9151.000000;-0.362094
9150.000000;-0.361475
9149.000000;-0.360812
9148.000000;-0.360186
9147.000000;-0.359635
9146.000000;-0.359119
9145.000000;-0.358545
9144.000000;-0.357850
9143.000000;-0.357086
9142.000000;-0.356386
9141.000000;-0.355811
9140.000000;-0.355296
9139.000000;-0.354759
9138.000000;-0.354200
9137.000000;-0.353639
9136.000000;-0.353048
9135.000000;-0.352408
9134.000000;-0.351788
9133.000000;-0.351266
9132.000000;-0.350821
9131.000000;-0.350363
9130.000000;-0.349843
9129.000000;-0.349263
9128.000000;-0.348614
9127.000000;-0.347910
9126.000000;-0.347249
9125.000000;-0.346756
9124.000000;-0.346422
9123.000000;-0.346096
9122.000000;-0.345635
9121.000000;-0.345033
9120.000000;-0.344395
9119.000000;-0.343828
9118.000000;-0.343375
9117.000000;-0.342991
9116.000000;-0.342581
9115.000000;-0.342097
9114.000000;-0.341576
9113.000000;-0.341068
9112.000000;-0.340549
9111.000000;-0.339970
9110.000000;-0.339360
9109.000000;-0.338807
9108.000000;-0.338333
9107.000000;-0.337875
9106.000000;-0.337382
9105.000000;-0.336877
9104.000000;-0.336392
9103.000000;-0.335916
9102.000000;-0.335441
9101.000000;-0.335006
9100.000000;-0.334633
9099.000000;-0.334263
9098.000000;-0.333810
9097.000000;-0.333265
9096.000000;-0.332717
9095.000000;-0.332246
9094.000000;-0.331831
9093.000000;-0.331393
9092.000000;-0.330907
9091.000000;-0.330429
9090.000000;-0.330020
9089.000000;-0.329666
9088.000000;-0.329315
9087.000000;-0.328957
