Criado como novo conjunto de dados;"0307_DANIEL.spp","37624.0 Secs"
cm-1;Abs
10000.000000;1.019901
9999.000000;1.018596
9998.000000;1.017295
9997.000000;1.015997
9996.000000;1.014703
9995.000000;1.013416
9994.000000;1.012124
9993.000000;1.010853
9992.000000;1.009555
9991.000000;1.008317
9990.000000;1.006970
9989.000000;1.006077
9988.000000;1.005518
9987.000000;1.004559
9986.000000;1.003493
9985.000000;1.002799
9984.000000;1.002479
9983.000000;1.001870
9982.000000;1.000558
9981.000000;0.998846
9980.000000;0.997276
9979.000000;0.995960
9978.000000;0.994649
9977.000000;0.993267
9976.000000;0.992058
9975.000000;0.991172
9974.000000;0.990341
9973.000000;0.989109
9972.000000;0.987377
9971.000000;0.985588
9970.000000;0.984273
9969.000000;0.983443
9968.000000;0.982581
9967.000000;0.981226
9966.000000;0.979419
9965.000000;0.977530
9964.000000;0.975913
9963.000000;0.974829
9962.000000;0.974398
9961.000000;0.974350
9960.000000;0.974039
9959.000000;0.973046
9958.000000;0.971659
9957.000000;0.970424
9956.000000;0.969370
9955.000000;0.968019
9954.000000;0.966089
9953.000000;0.963806
9952.000000;0.961546
9951.000000;0.959580
9950.000000;0.958146
9949.000000;0.957348
9948.000000;0.956855
9947.000000;0.956110
9946.000000;0.954966
9945.000000;0.953809
9944.000000;0.952899
9943.000000;0.951976
9942.000000;0.950728
9941.000000;0.949298
9940.000000;0.948005
9939.000000;0.946782
9938.000000;0.945263
9937.000000;0.943344
9936.000000;0.941394
9935.000000;0.939898
9934.000000;0.939022
9933.000000;0.938522
9932.000000;0.937911
9931.000000;0.936797
9930.000000;0.935169
9929.000000;0.933375
9928.000000;0.931773
9927.000000;0.930430
9926.000000;0.929188
9925.000000;0.927961
9924.000000;0.926920
9923.000000;0.926342
9922.000000;0.926244
9921.000000;0.926133
9920.000000;0.925273
9919.000000;0.923378
9918.000000;0.920968
9917.000000;0.918872
9916.000000;0.917466
9915.000000;0.916517
9914.000000;0.915598
9913.000000;0.914388
9912.000000;0.912666
9911.000000;0.910396
9910.000000;0.907899
9909.000000;0.905668
9908.000000;0.903931
9907.000000;0.902582
9906.000000;0.901519
9905.000000;0.900734
9904.000000;0.900041
9903.000000;0.899042
9902.000000;0.897560
9901.000000;0.895880
9900.000000;0.894396
9899.000000;0.893186
9898.000000;0.892064
9897.000000;0.890868
9896.000000;0.889574
9895.000000;0.888253
9894.000000;0.887012
9893.000000;0.885877
9892.000000;0.884701
9891.000000;0.883332
9890.000000;0.881863
9889.000000;0.880540
9888.000000;0.879399
9887.000000;0.878238
9886.000000;0.876936
9885.000000;0.875558
9884.000000;0.874130
9883.000000;0.872619
9882.000000;0.871180
9881.000000;0.870085
9880.000000;0.869283
9879.000000;0.868335
9878.000000;0.866943
9877.000000;0.865286
9876.000000;0.863663
9875.000000;0.862126
9874.000000;0.860642
9873.000000;0.859305
9872.000000;0.858110
9871.000000;0.856766
9870.000000;0.855059
9869.000000;0.853219
9868.000000;0.851646
9867.000000;0.850402
9866.000000;0.849248
9865.000000;0.848051
9864.000000;0.846861
9863.000000;0.845640
9862.000000;0.844217
9861.000000;0.842566
9860.000000;0.840870
9859.000000;0.839273
9858.000000;0.837718
9857.000000;0.836059
9856.000000;0.834250
9855.000000;0.832393
9854.000000;0.830667
9853.000000;0.829159
9852.000000;0.827736
9851.000000;0.826163
9850.000000;0.824411
9849.000000;0.822766
9848.000000;0.821500
9847.000000;0.820518
9846.000000;0.819437
9845.000000;0.817995
9844.000000;0.816301
9843.000000;0.814704
9842.000000;0.813485
9841.000000;0.812618
9840.000000;0.811769
9839.000000;0.810559
9838.000000;0.808886
9837.000000;0.806937
9836.000000;0.804900
9835.000000;0.802791
9834.000000;0.800625
9833.000000;0.798622
9832.000000;0.797077
9831.000000;0.796036
9830.000000;0.795185
9829.000000;0.794087
9828.000000;0.792524
9827.000000;0.790623
9826.000000;0.788646
9825.000000;0.786706
9824.000000;0.784752
9823.000000;0.782842
9822.000000;0.781229
9821.000000;0.780067
9820.000000;0.779179
9819.000000;0.778312
9818.000000;0.777474
9817.000000;0.776739
9816.000000;0.775835
9815.000000;0.774328
9814.000000;0.772236
9813.000000;0.770081
9812.000000;0.768235
9811.000000;0.766549
9810.000000;0.764781
9809.000000;0.763044
9808.000000;0.761567
9807.000000;0.760243
9806.000000;0.758722
9805.000000;0.756852
9804.000000;0.754810
9803.000000;0.752846
9802.000000;0.751076
9801.000000;0.749479
9800.000000;0.747964
9799.000000;0.746466
9798.000000;0.745052
9797.000000;0.743872
9796.000000;0.742947
9795.000000;0.742090
9794.000000;0.741070
9793.000000;0.739772
9792.000000;0.738148
9791.000000;0.736184
9790.000000;0.734007
9789.000000;0.731879
9788.000000;0.729981
9787.000000;0.728279
9786.000000;0.726686
9785.000000;0.725224
9784.000000;0.723902
9783.000000;0.722544
9782.000000;0.720881
9781.000000;0.718802
9780.000000;0.716474
9779.000000;0.714240
9778.000000;0.712407
9777.000000;0.710995
9776.000000;0.709659
9775.000000;0.708010
9774.000000;0.706059
9773.000000;0.704214
9772.000000;0.702774
9771.000000;0.701589
9770.000000;0.700287
9769.000000;0.698693
9768.000000;0.696899
9767.000000;0.695065
9766.000000;0.693269
9765.000000;0.691504
9764.000000;0.689722
9763.000000;0.687908
9762.000000;0.686132
9761.000000;0.684458
9760.000000;0.682823
9759.000000;0.681133
9758.000000;0.679457
9757.000000;0.677966
9756.000000;0.676642
9755.000000;0.675221
9754.000000;0.673496
9753.000000;0.671530
9752.000000;0.669530
9751.000000;0.667680
9750.000000;0.666122
9749.000000;0.664844
9748.000000;0.663535
9747.000000;0.661758
9746.000000;0.659454
9745.000000;0.657088
9744.000000;0.655145
9743.000000;0.653622
9742.000000;0.652125
9741.000000;0.650318
9740.000000;0.648143
9739.000000;0.645767
9738.000000;0.643483
9737.000000;0.641575
9736.000000;0.640073
9735.000000;0.638686
9734.000000;0.637103
9733.000000;0.635292
9732.000000;0.633425
9731.000000;0.631615
9730.000000;0.629832
9729.000000;0.627986
9728.000000;0.625980
9727.000000;0.623771
9726.000000;0.621486
9725.000000;0.619388
9724.000000;0.617596
9723.000000;0.615919
9722.000000;0.614067
9721.000000;0.611985
9720.000000;0.609881
9719.000000;0.607967
9718.000000;0.606262
9717.000000;0.604599
9716.000000;0.602768
9715.000000;0.600681
9714.000000;0.598456
9713.000000;0.596323
9712.000000;0.594420
9711.000000;0.592744
9710.000000;0.591259
9709.000000;0.589896
9708.000000;0.588446
9707.000000;0.586654
9706.000000;0.584513
9705.000000;0.582333
9704.000000;0.580409
9703.000000;0.578740
9702.000000;0.577108
9701.000000;0.575331
9700.000000;0.573333
9699.000000;0.571103
9698.000000;0.568737
9697.000000;0.566473
9696.000000;0.564562
9695.000000;0.563050
9694.000000;0.561689
9693.000000;0.560051
9692.000000;0.557825
9691.000000;0.555103
9690.000000;0.552360
9689.000000;0.550017
9688.000000;0.548067
9687.000000;0.546196
9686.000000;0.544219
9685.000000;0.542203
9684.000000;0.540243
9683.000000;0.538374
9682.000000;0.536689
9681.000000;0.535251
9680.000000;0.533836
9679.000000;0.532031
9678.000000;0.529707
9677.000000;0.527152
9676.000000;0.524657
9675.000000;0.522248
9674.000000;0.519937
9673.000000;0.517906
9672.000000;0.516225
9671.000000;0.514625
9670.000000;0.512808
9669.000000;0.510796
9668.000000;0.508754
9667.000000;0.506634
9666.000000;0.504295
9665.000000;0.501826
9664.000000;0.499500
9663.000000;0.497432
9662.000000;0.495509
9661.000000;0.493608
9660.000000;0.491678
9659.000000;0.489671
9658.000000;0.487554
9657.000000;0.485367
9656.000000;0.483135
9655.000000;0.480806
9654.000000;0.478414
9653.000000;0.476180
9652.000000;0.474254
9651.000000;0.472466
9650.000000;0.470518
9649.000000;0.468321
9648.000000;0.465946
9647.000000;0.463378
9646.000000;0.460630
9645.000000;0.458008
9644.000000;0.455908
9643.000000;0.454277
9642.000000;0.452590
9641.000000;0.450467
9640.000000;0.448100
9639.000000;0.445911
9638.000000;0.444032
9637.000000;0.442293
9636.000000;0.440520
9635.000000;0.438585
9634.000000;0.436290
9633.000000;0.433522
9632.000000;0.430558
9631.000000;0.427953
9630.000000;0.425984
9629.000000;0.424326
9628.000000;0.422399
9627.000000;0.419984
9626.000000;0.417343
9625.000000;0.414838
9624.000000;0.412612
9623.000000;0.410657
9622.000000;0.408937
9621.000000;0.407330
9620.000000;0.405562
9619.000000;0.403400
9618.000000;0.400872
9617.000000;0.398187
9616.000000;0.395505
9615.000000;0.392894
9614.000000;0.390447
9613.000000;0.388250
9612.000000;0.386213
9611.000000;0.384094
9610.000000;0.381751
9609.000000;0.379270
9608.000000;0.376826
9607.000000;0.374522
9606.000000;0.372356
9605.000000;0.370236
9604.000000;0.368004
9603.000000;0.365557
9602.000000;0.362988
9601.000000;0.360534
9600.000000;0.358339
9599.000000;0.356308
9598.000000;0.354176
9597.000000;0.351713
9596.000000;0.348952
9595.000000;0.346269
9594.000000;0.344117
9593.000000;0.342516
9592.000000;0.340886
9591.000000;0.338620
9590.000000;0.335744
9589.000000;0.332814
9588.000000;0.330243
9587.000000;0.327996
9586.000000;0.325895
9585.000000;0.323858
9584.000000;0.321752
9583.000000;0.319373
9582.000000;0.316752
9581.000000;0.314211
9580.000000;0.311956
9579.000000;0.309796
9578.000000;0.307434
9577.000000;0.304832
9576.000000;0.302167
9575.000000;0.299599
9574.000000;0.297259
9573.000000;0.295246
9572.000000;0.293413
9571.000000;0.291334
9570.000000;0.288739
9569.000000;0.285881
9568.000000;0.283262
9567.000000;0.281092
9566.000000;0.279179
9565.000000;0.277241
9564.000000;0.275089
9563.000000;0.272608
9562.000000;0.269841
9561.000000;0.267103
9560.000000;0.264766
9559.000000;0.262877
9558.000000;0.261122
9557.000000;0.259189
9556.000000;0.257026
9555.000000;0.254725
9554.000000;0.252314
9553.000000;0.249758
9552.000000;0.247082
9551.000000;0.244391
9550.000000;0.241783
9549.000000;0.239280
9548.000000;0.236862
9547.000000;0.234547
9546.000000;0.232413
9545.000000;0.230488
9544.000000;0.228642
9543.000000;0.226671
9542.000000;0.224510
9541.000000;0.222271
9540.000000;0.220063
9539.000000;0.217856
9538.000000;0.215577
9537.000000;0.213227
9536.000000;0.210822
9535.000000;0.208341
9534.000000;0.205822
9533.000000;0.203439
9532.000000;0.201366
9531.000000;0.199585
9530.000000;0.197917
9529.000000;0.196193
9528.000000;0.194335
9527.000000;0.192292
9526.000000;0.190029
9525.000000;0.187581
9524.000000;0.185074
9523.000000;0.182681
9522.000000;0.180557
9521.000000;0.178747
9520.000000;0.177136
9519.000000;0.175522
9518.000000;0.173799
9517.000000;0.172030
9516.000000;0.170318
9515.000000;0.168641
9514.000000;0.166839
9513.000000;0.164761
9512.000000;0.162447
9511.000000;0.160159
9510.000000;0.158199
9509.000000;0.156630
9508.000000;0.155189
9507.000000;0.153557
9506.000000;0.151640
9505.000000;0.149547
9504.000000;0.147383
9503.000000;0.145254
9502.000000;0.143365
9501.000000;0.141863
9500.000000;0.140557
9499.000000;0.139055
9498.000000;0.137269
9497.000000;0.135570
9496.000000;0.134298
9495.000000;0.133314
9494.000000;0.132192
9493.000000;0.130705
9492.000000;0.128956
9491.000000;0.127123
9490.000000;0.125299
9489.000000;0.123540
9488.000000;0.121910
9487.000000;0.120433
9486.000000;0.119097
9485.000000;0.117911
9484.000000;0.116887
9483.000000;0.115970
9482.000000;0.115042
9481.000000;0.114015
9480.000000;0.112910
9479.000000;0.111837
9478.000000;0.110885
9477.000000;0.110014
9476.000000;0.109077
9475.000000;0.108006
9474.000000;0.106942
9473.000000;0.106069
9472.000000;0.105358
9471.000000;0.104602
9470.000000;0.103710
9469.000000;0.102800
9468.000000;0.101958
9467.000000;0.101067
9466.000000;0.099964
9465.000000;0.098695
9464.000000;0.097513
9463.000000;0.096666
9462.000000;0.096214
9461.000000;0.095987
9460.000000;0.095705
9459.000000;0.095207
9458.000000;0.094589
9457.000000;0.094036
9456.000000;0.093539
9455.000000;0.092930
9454.000000;0.092198
9453.000000;0.091581
9452.000000;0.091258
9451.000000;0.091085
9450.000000;0.090779
9449.000000;0.090281
9448.000000;0.089833
9447.000000;0.089709
9446.000000;0.089956
9445.000000;0.090372
9444.000000;0.090689
9443.000000;0.090765
9442.000000;0.090614
9441.000000;0.090272
9440.000000;0.089732
9439.000000;0.089085
9438.000000;0.088598
9437.000000;0.088498
9436.000000;0.088729
9435.000000;0.089082
9434.000000;0.089508
9433.000000;0.090069
9432.000000;0.090611
9431.000000;0.090785
9430.000000;0.090501
9429.000000;0.090142
9428.000000;0.090155
9427.000000;0.090585
9426.000000;0.091147
9425.000000;0.091628
9424.000000;0.092067
9423.000000;0.092613
9422.000000;0.093338
9421.000000;0.094158
9420.000000;0.094892
9419.000000;0.095441
9418.000000;0.095923
9417.000000;0.096487
9416.000000;0.097025
9415.000000;0.097250
9414.000000;0.097154
9413.000000;0.097156
9412.000000;0.097669
9411.000000;0.098644
9410.000000;0.099723
9409.000000;0.100681
9408.000000;0.101546
9407.000000;0.102376
9406.000000;0.103156
9405.000000;0.103903
9404.000000;0.104692
9403.000000;0.105532
9402.000000;0.106345
9401.000000;0.107080
9400.000000;0.107773
9399.000000;0.108484
9398.000000;0.109227
9397.000000;0.109981
9396.000000;0.110731
9395.000000;0.111498
9394.000000;0.112320
9393.000000;0.113192
9392.000000;0.114031
9391.000000;0.114794
9390.000000;0.115590
9389.000000;0.116581
9388.000000;0.117738
9387.000000;0.118852
9386.000000;0.119818
9385.000000;0.120787
9384.000000;0.121927
9383.000000;0.123160
9382.000000;0.124260
9381.000000;0.125126
9380.000000;0.125839
9379.000000;0.126527
9378.000000;0.127304
9377.000000;0.128280
9376.000000;0.129490
9375.000000;0.130816
9374.000000;0.132086
9373.000000;0.133254
9372.000000;0.134402
9371.000000;0.135579
9370.000000;0.136731
9369.000000;0.137810
9368.000000;0.138872
9367.000000;0.140024
9366.000000;0.141322
9365.000000;0.142734
9364.000000;0.144192
9363.000000;0.145658
9362.000000;0.147134
9361.000000;0.148618
9360.000000;0.150052
9359.000000;0.151350
9358.000000;0.152466
9357.000000;0.153405
9356.000000;0.154196
9355.000000;0.154928
9354.000000;0.155775
9353.000000;0.156880
9352.000000;0.158168
9351.000000;0.159377
9350.000000;0.160330
9349.000000;0.161120
9348.000000;0.161988
9347.000000;0.163091
9346.000000;0.164405
9345.000000;0.165789
9344.000000;0.167078
9343.000000;0.168203
9342.000000;0.169283
9341.000000;0.170542
9340.000000;0.172053
9339.000000;0.173634
9338.000000;0.175049
9337.000000;0.176262
9336.000000;0.177412
9335.000000;0.178590
9334.000000;0.179777
9333.000000;0.180945
9332.000000;0.182086
9331.000000;0.183135
9330.000000;0.183959
9329.000000;0.184519
9328.000000;0.184966
9327.000000;0.185527
9326.000000;0.186330
9325.000000;0.187369
9324.000000;0.188606
9323.000000;0.190012
9322.000000;0.191516
9321.000000;0.192970
9320.000000;0.194234
9319.000000;0.195295
9318.000000;0.196263
9317.000000;0.197273
9316.000000;0.198414
9315.000000;0.199734
9314.000000;0.201244
9313.000000;0.202859
9312.000000;0.204384
9311.000000;0.205646
9310.000000;0.206637
9309.000000;0.207532
9308.000000;0.208562
9307.000000;0.209865
9306.000000;0.211416
9305.000000;0.213049
9304.000000;0.214562
9303.000000;0.215834
9302.000000;0.216874
9301.000000;0.217746
9300.000000;0.218504
9299.000000;0.219207
9298.000000;0.219932
9297.000000;0.220731
9296.000000;0.221596
9295.000000;0.222523
9294.000000;0.223581
9293.000000;0.224874
9292.000000;0.226402
9291.000000;0.227982
9290.000000;0.229291
9289.000000;0.230063
9288.000000;0.230351
9287.000000;0.230590
9286.000000;0.231294
9285.000000;0.232608
9284.000000;0.234205
9283.000000;0.235667
9282.000000;0.236855
9281.000000;0.237912
9280.000000;0.239020
9279.000000;0.240247
9278.000000;0.241536
9277.000000;0.242707
9276.000000;0.243584
9275.000000;0.244222
9274.000000;0.244931
9273.000000;0.245955
9272.000000;0.247196
9271.000000;0.248383
9270.000000;0.249415
9269.000000;0.250380
9268.000000;0.251329
9267.000000;0.252224
9266.000000;0.253091
9265.000000;0.254001
9264.000000;0.254905
9263.000000;0.255689
9262.000000;0.256434
9261.000000;0.257427
9260.000000;0.258780
9259.000000;0.260193
9258.000000;0.261237
9257.000000;0.261823
9256.000000;0.262266
9255.000000;0.262919
9254.000000;0.263846
9253.000000;0.264869
9252.000000;0.265846
9251.000000;0.266808
9250.000000;0.267811
9249.000000;0.268748
9248.000000;0.269447
9247.000000;0.269944
9246.000000;0.270514
9245.000000;0.271353
9244.000000;0.272354
9243.000000;0.273288
9242.000000;0.274073
9241.000000;0.274768
9240.000000;0.275411
9239.000000;0.276063
9238.000000;0.276899
9237.000000;0.278056
9236.000000;0.279394
9235.000000;0.280585
9234.000000;0.281454
9233.000000;0.282109
9232.000000;0.282757
9231.000000;0.283538
9230.000000;0.284521
9229.000000;0.285689
9228.000000;0.286890
9227.000000;0.287952
9226.000000;0.288860
9225.000000;0.289729
9224.000000;0.290601
9223.000000;0.291387
9222.000000;0.292023
9221.000000;0.292540
9220.000000;0.292980
9219.000000;0.293392
9218.000000;0.293928
9217.000000;0.294774
9216.000000;0.295901
9215.000000;0.296995
9214.000000;0.297732
9213.000000;0.298077
9212.000000;0.298311
9211.000000;0.298812
9210.000000;0.299791
9209.000000;0.301118
9208.000000;0.302390
9207.000000;0.303272
9206.000000;0.303787
9205.000000;0.304204
9204.000000;0.304691
9203.000000;0.305221
9202.000000;0.305771
9201.000000;0.306429
9200.000000;0.307240
9199.000000;0.308100
9198.000000;0.308871
9197.000000;0.309516
9196.000000;0.310088
9195.000000;0.310678
9194.000000;0.311374
9193.000000;0.312173
9192.000000;0.312931
9191.000000;0.313534
9190.000000;0.314080
9189.000000;0.314757
9188.000000;0.315543
9187.000000;0.316238
9186.000000;0.316804
9185.000000;0.317458
9184.000000;0.318339
9183.000000;0.319281
9182.000000;0.320053
9181.000000;0.320676
9180.000000;0.321331
9179.000000;0.322056
9178.000000;0.322700
9177.000000;0.323143
9176.000000;0.323443
9175.000000;0.323785
9174.000000;0.324354
9173.000000;0.325217
9172.000000;0.326238
9171.000000;0.327161
9170.000000;0.327801
9169.000000;0.328178
9168.000000;0.328432
9167.000000;0.328694
9166.000000;0.329047
9165.000000;0.329522
9164.000000;0.330092
9163.000000;0.330718
9162.000000;0.331419
9161.000000;0.332213
9160.000000;0.333006
9159.000000;0.333652
9158.000000;0.334152
9157.000000;0.334675
9156.000000;0.335304
9155.000000;0.335891
9154.000000;0.336252
9153.000000;0.336405
9152.000000;0.336552
9151.000000;0.336889
9150.000000;0.337503
9149.000000;0.338370
9148.000000;0.339342
9147.000000;0.340201
9146.000000;0.340801
9145.000000;0.341174
9144.000000;0.341464
9143.000000;0.341811
9142.000000;0.342316
9141.000000;0.343042
9140.000000;0.343939
9139.000000;0.344822
9138.000000;0.345497
9137.000000;0.345913
9136.000000;0.346164
9135.000000;0.346375
9134.000000;0.346604
9133.000000;0.346827
9132.000000;0.346993
9131.000000;0.347121
9130.000000;0.347368
9129.000000;0.347909
9128.000000;0.348729
9127.000000;0.349576
9126.000000;0.350174
9125.000000;0.350473
9124.000000;0.350665
9123.000000;0.350993
9122.000000;0.351546
9121.000000;0.352205
9120.000000;0.352755
9119.000000;0.353091
9118.000000;0.353325
9117.000000;0.353675
9116.000000;0.354249
9115.000000;0.354944
9114.000000;0.355556
9113.000000;0.355936
9112.000000;0.356081
9111.000000;0.356150
9110.000000;0.356350
9109.000000;0.356767
9108.000000;0.357312
9107.000000;0.357869
9106.000000;0.358436
9105.000000;0.359058
9104.000000;0.359688
9103.000000;0.360249
9102.000000;0.360771
9101.000000;0.361321
9100.000000;0.361826
9099.000000;0.362133
9098.000000;0.362255
9097.000000;0.362405
9096.000000;0.362740
9095.000000;0.363210
9094.000000;0.363695
9093.000000;0.364145
9092.000000;0.364537
9091.000000;0.364839
9090.000000;0.365107
9089.000000;0.365474
9088.000000;0.365944
9087.000000;0.366298
9086.000000;0.366334
9085.000000;0.366137
9084.000000;0.365998
9083.000000;0.366147
9082.000000;0.366617
9081.000000;0.367316
9080.000000;0.368061
9079.000000;0.368598
9078.000000;0.368764
9077.000000;0.368687
9076.000000;0.368738
9075.000000;0.369200
9074.000000;0.369980
9073.000000;0.370691
9072.000000;0.371020
9071.000000;0.370999
9070.000000;0.370907
9069.000000;0.370971
9068.000000;0.371204
9067.000000;0.371519
9066.000000;0.371861
9065.000000;0.372189
9064.000000;0.372447
9063.000000;0.372645
9062.000000;0.372902
9061.000000;0.373305
9060.000000;0.373774
9059.000000;0.374187
9058.000000;0.374572
9057.000000;0.375027
9056.000000;0.375492
9055.000000;0.375767
9054.000000;0.375784
9053.000000;0.375708
