Criado como novo conjunto de dados;"0307_DANIEL.spp","63365.6 Secs"
cm-1;Abs
10000.000000;0.569240
9999.000000;0.569044
9998.000000;0.568677
9997.000000;0.568125
9996.000000;0.567423
9995.000000;0.566541
9994.000000;0.565408
9993.000000;0.563990
9992.000000;0.562490
9991.000000;0.561298
9990.000000;0.560678
9989.000000;0.560491
9988.000000;0.560365
9987.000000;0.560072
9986.000000;0.559628
9985.000000;0.559053
9984.000000;0.558228
9983.000000;0.557042
9982.000000;0.555563
9981.000000;0.554005
9980.000000;0.552600
9979.000000;0.551537
9978.000000;0.550887
9977.000000;0.550503
9976.000000;0.550098
9975.000000;0.549502
9974.000000;0.548792
9973.000000;0.548105
9972.000000;0.547409
9971.000000;0.546565
9970.000000;0.545562
9969.000000;0.544537
9968.000000;0.543583
9967.000000;0.542650
9966.000000;0.541676
9965.000000;0.540750
9964.000000;0.540063
9963.000000;0.539733
9962.000000;0.539671
9961.000000;0.539595
9960.000000;0.539177
9959.000000;0.538264
9958.000000;0.537016
9957.000000;0.535784
9956.000000;0.534775
9955.000000;0.533833
9954.000000;0.532648
9953.000000;0.531192
9952.000000;0.529843
9951.000000;0.528959
9950.000000;0.528416
9949.000000;0.527740
9948.000000;0.526723
9947.000000;0.525678
9946.000000;0.525002
9945.000000;0.524639
9944.000000;0.524189
9943.000000;0.523472
9942.000000;0.522733
9941.000000;0.522262
9940.000000;0.521968
9939.000000;0.521476
9938.000000;0.520530
9937.000000;0.519208
9936.000000;0.517767
9935.000000;0.516390
9934.000000;0.515099
9933.000000;0.513862
9932.000000;0.512731
9931.000000;0.511848
9930.000000;0.511268
9929.000000;0.510834
9928.000000;0.510294
9927.000000;0.509565
9926.000000;0.508800
9925.000000;0.508163
9924.000000;0.507611
9923.000000;0.506923
9922.000000;0.505906
9921.000000;0.504512
9920.000000;0.502862
9919.000000;0.501225
9918.000000;0.499936
9917.000000;0.499175
9916.000000;0.498794
9915.000000;0.498402
9914.000000;0.497682
9913.000000;0.496640
9912.000000;0.495535
9911.000000;0.494582
9910.000000;0.493746
9909.000000;0.492823
9908.000000;0.491682
9907.000000;0.490392
9906.000000;0.489109
9905.000000;0.487919
9904.000000;0.486846
9903.000000;0.485937
9902.000000;0.485204
9901.000000;0.484476
9900.000000;0.483455
9899.000000;0.482044
9898.000000;0.480572
9897.000000;0.479554
9896.000000;0.479204
9895.000000;0.479219
9894.000000;0.479066
9893.000000;0.478420
9892.000000;0.477301
9891.000000;0.475884
9890.000000;0.474299
9889.000000;0.472639
9888.000000;0.471066
9887.000000;0.469801
9886.000000;0.468996
9885.000000;0.468616
9884.000000;0.468421
9883.000000;0.468084
9882.000000;0.467394
9881.000000;0.466397
9880.000000;0.465314
9879.000000;0.464259
9878.000000;0.463099
9877.000000;0.461646
9876.000000;0.459951
9875.000000;0.458263
9874.000000;0.456766
9873.000000;0.455503
9872.000000;0.454544
9871.000000;0.453986
9870.000000;0.453678
9869.000000;0.453179
9868.000000;0.452180
9867.000000;0.450863
9866.000000;0.449631
9865.000000;0.448598
9864.000000;0.447580
9863.000000;0.446516
9862.000000;0.445612
9861.000000;0.444986
9860.000000;0.444428
9859.000000;0.443639
9858.000000;0.442547
9857.000000;0.441274
9856.000000;0.439917
9855.000000;0.438523
9854.000000;0.437173
9853.000000;0.435950
9852.000000;0.434854
9851.000000;0.433841
9850.000000;0.432865
9849.000000;0.431821
9848.000000;0.430532
9847.000000;0.428965
9846.000000;0.427417
9845.000000;0.426316
9844.000000;0.425777
9843.000000;0.425428
9842.000000;0.424741
9841.000000;0.423524
9840.000000;0.422018
9839.000000;0.420566
9838.000000;0.419260
9837.000000;0.417952
9836.000000;0.416555
9835.000000;0.415231
9834.000000;0.414220
9833.000000;0.413528
9832.000000;0.412874
9831.000000;0.411964
9830.000000;0.410757
9829.000000;0.409435
9828.000000;0.408185
9827.000000;0.407067
9826.000000;0.406013
9825.000000;0.404894
9824.000000;0.403623
9823.000000;0.402290
9822.000000;0.401131
9821.000000;0.400275
9820.000000;0.399516
9819.000000;0.398470
9818.000000;0.397004
9817.000000;0.395424
9816.000000;0.394156
9815.000000;0.393259
9814.000000;0.392363
9813.000000;0.391104
9812.000000;0.389526
9811.000000;0.387986
9810.000000;0.386710
9809.000000;0.385566
9808.000000;0.384308
9807.000000;0.382910
9806.000000;0.381541
9805.000000;0.380300
9804.000000;0.379111
9803.000000;0.377909
9802.000000;0.376770
9801.000000;0.375784
9800.000000;0.374873
9799.000000;0.373851
9798.000000;0.372619
9797.000000;0.371245
9796.000000;0.369844
9795.000000;0.368458
9794.000000;0.367063
9793.000000;0.365644
9792.000000;0.364261
9791.000000;0.363032
9790.000000;0.362046
9789.000000;0.361263
9788.000000;0.360515
9787.000000;0.359668
9786.000000;0.358722
9785.000000;0.357735
9784.000000;0.356647
9783.000000;0.355293
9782.000000;0.353602
9781.000000;0.351729
9780.000000;0.349936
9779.000000;0.348380
9778.000000;0.347056
9777.000000;0.345899
9776.000000;0.344841
9775.000000;0.343771
9774.000000;0.342528
9773.000000;0.341056
9772.000000;0.339536
9771.000000;0.338248
9770.000000;0.337258
9769.000000;0.336292
9768.000000;0.334987
9767.000000;0.333252
9766.000000;0.331337
9765.000000;0.329590
9764.000000;0.328194
9763.000000;0.327118
9762.000000;0.326203
9761.000000;0.325245
9760.000000;0.324065
9759.000000;0.322574
9758.000000;0.320835
9757.000000;0.319044
9756.000000;0.317433
9755.000000;0.316122
9754.000000;0.315027
9753.000000;0.313919
9752.000000;0.312621
9751.000000;0.311140
9750.000000;0.309606
9749.000000;0.308106
9748.000000;0.306665
9747.000000;0.305332
9746.000000;0.304158
9745.000000;0.303047
9744.000000;0.301756
9743.000000;0.300142
9742.000000;0.298380
9741.000000;0.296811
9740.000000;0.295594
9739.000000;0.294569
9738.000000;0.293451
9737.000000;0.292088
9736.000000;0.290533
9735.000000;0.288936
9734.000000;0.287414
9733.000000;0.285966
9732.000000;0.284508
9731.000000;0.282972
9730.000000;0.281382
9729.000000;0.279801
9728.000000;0.278231
9727.000000;0.276635
9726.000000;0.275040
9725.000000;0.273551
9724.000000;0.272222
9723.000000;0.270969
9722.000000;0.269644
9721.000000;0.268169
9720.000000;0.266574
9719.000000;0.264961
9718.000000;0.263479
9717.000000;0.262246
9716.000000;0.261219
9715.000000;0.260150
9714.000000;0.258760
9713.000000;0.256979
9712.000000;0.254961
9711.000000;0.252886
9710.000000;0.250831
9709.000000;0.248851
9708.000000;0.247070
9707.000000;0.245577
9706.000000;0.244274
9705.000000;0.242927
9704.000000;0.241402
9703.000000;0.239801
9702.000000;0.238328
9701.000000;0.237045
9700.000000;0.235786
9699.000000;0.234339
9698.000000;0.232681
9697.000000;0.231000
9696.000000;0.229436
9695.000000;0.227872
9694.000000;0.226073
9693.000000;0.224039
9692.000000;0.222086
9691.000000;0.220496
9690.000000;0.219180
9689.000000;0.217786
9688.000000;0.216095
9687.000000;0.214193
9686.000000;0.212283
9685.000000;0.210458
9684.000000;0.208695
9683.000000;0.206955
9682.000000;0.205237
9681.000000;0.203582
9680.000000;0.202036
9679.000000;0.200584
9678.000000;0.199132
9677.000000;0.197590
9676.000000;0.195957
9675.000000;0.194272
9674.000000;0.192527
9673.000000;0.190704
9672.000000;0.188884
9671.000000;0.187176
9670.000000;0.185542
9669.000000;0.183789
9668.000000;0.181800
9667.000000;0.179688
9666.000000;0.177692
9665.000000;0.175979
9664.000000;0.174569
9663.000000;0.173337
9662.000000;0.172063
9661.000000;0.170554
9660.000000;0.168796
9659.000000;0.166901
9658.000000;0.164913
9657.000000;0.162784
9656.000000;0.160557
9655.000000;0.158412
9654.000000;0.156462
9653.000000;0.154646
9652.000000;0.152917
9651.000000;0.151355
9650.000000;0.149952
9649.000000;0.148434
9648.000000;0.146488
9647.000000;0.144128
9646.000000;0.141674
9645.000000;0.139430
9644.000000;0.137509
9643.000000;0.135868
9642.000000;0.134336
9641.000000;0.132690
9640.000000;0.130891
9639.000000;0.129206
9638.000000;0.127861
9637.000000;0.126645
9636.000000;0.125077
9635.000000;0.122985
9634.000000;0.120665
9633.000000;0.118451
9632.000000;0.116398
9631.000000;0.114480
9630.000000;0.112805
9629.000000;0.111429
9628.000000;0.110123
9627.000000;0.108570
9626.000000;0.106718
9625.000000;0.104759
9624.000000;0.102810
9623.000000;0.100782
9622.000000;0.098574
9621.000000;0.096272
9620.000000;0.094125
9619.000000;0.092356
9618.000000;0.090945
9617.000000;0.089576
9616.000000;0.087886
9615.000000;0.085837
9614.000000;0.083745
9613.000000;0.081837
9612.000000;0.079903
9611.000000;0.077558
9610.000000;0.074809
9609.000000;0.072142
9608.000000;0.070012
9607.000000;0.068421
9606.000000;0.067028
9605.000000;0.065522
9604.000000;0.063802
9603.000000;0.061895
9602.000000;0.059825
9601.000000;0.057580
9600.000000;0.055133
9599.000000;0.052518
9598.000000;0.049944
9597.000000;0.047754
9596.000000;0.046152
9595.000000;0.044963
9594.000000;0.043737
9593.000000;0.042179
9592.000000;0.040388
9591.000000;0.038618
9590.000000;0.036860
9589.000000;0.034834
9588.000000;0.032390
9587.000000;0.029769
9586.000000;0.027347
9585.000000;0.025230
9584.000000;0.023219
9583.000000;0.021135
9582.000000;0.019005
9581.000000;0.016919
9580.000000;0.014887
9579.000000;0.012904
9578.000000;0.011043
9577.000000;0.009348
9576.000000;0.007707
9575.000000;0.005937
9574.000000;0.003993
9573.000000;0.001990
9572.000000;0.000040
9571.000000;-0.001864
9570.000000;-0.003817
9569.000000;-0.005924
9568.000000;-0.008265
9567.000000;-0.010823
9566.000000;-0.013428
9565.000000;-0.015821
9564.000000;-0.017829
9563.000000;-0.019503
9562.000000;-0.021070
9561.000000;-0.022793
9560.000000;-0.024827
9559.000000;-0.027139
9558.000000;-0.029519
9557.000000;-0.031722
9556.000000;-0.033642
9555.000000;-0.035357
9554.000000;-0.037010
9553.000000;-0.038684
9552.000000;-0.040428
9551.000000;-0.042331
9550.000000;-0.044482
9549.000000;-0.046832
9548.000000;-0.049150
9547.000000;-0.051186
9546.000000;-0.052869
9545.000000;-0.054341
9544.000000;-0.055837
9543.000000;-0.057572
9542.000000;-0.059689
9541.000000;-0.062201
9540.000000;-0.064913
9539.000000;-0.067467
9538.000000;-0.069575
9537.000000;-0.071239
9536.000000;-0.072712
9535.000000;-0.074253
9534.000000;-0.075955
9533.000000;-0.077797
9532.000000;-0.079743
9531.000000;-0.081716
9530.000000;-0.083535
9529.000000;-0.085002
9528.000000;-0.086142
9527.000000;-0.087270
9526.000000;-0.088746
9525.000000;-0.090653
9524.000000;-0.092761
9523.000000;-0.094799
9522.000000;-0.096675
9521.000000;-0.098410
9520.000000;-0.099985
9519.000000;-0.101398
9518.000000;-0.102807
9517.000000;-0.104444
9516.000000;-0.106333
9515.000000;-0.108238
9514.000000;-0.109956
9513.000000;-0.111545
9512.000000;-0.113141
9511.000000;-0.114705
9510.000000;-0.116113
9509.000000;-0.117458
9508.000000;-0.119012
9507.000000;-0.120838
9506.000000;-0.122631
9505.000000;-0.124059
9504.000000;-0.125154
9503.000000;-0.126259
9502.000000;-0.127639
9501.000000;-0.129275
9500.000000;-0.130979
9499.000000;-0.132606
9498.000000;-0.134113
9497.000000;-0.135524
9496.000000;-0.136875
9495.000000;-0.138200
9494.000000;-0.139512
9493.000000;-0.140790
9492.000000;-0.141979
9491.000000;-0.143014
9490.000000;-0.143864
9489.000000;-0.144559
9488.000000;-0.145168
9487.000000;-0.145788
9486.000000;-0.146538
9485.000000;-0.147509
9484.000000;-0.148656
9483.000000;-0.149785
9482.000000;-0.150743
9481.000000;-0.151586
9480.000000;-0.152492
9479.000000;-0.153496
9478.000000;-0.154450
9477.000000;-0.155250
9476.000000;-0.155984
9475.000000;-0.156774
9474.000000;-0.157569
9473.000000;-0.158210
9472.000000;-0.158642
9471.000000;-0.158985
9470.000000;-0.159404
9469.000000;-0.159990
9468.000000;-0.160731
9467.000000;-0.161529
9466.000000;-0.162229
9465.000000;-0.162722
9464.000000;-0.163039
9463.000000;-0.163359
9462.000000;-0.163886
9461.000000;-0.164660
9460.000000;-0.165445
9459.000000;-0.165852
9458.000000;-0.165699
9457.000000;-0.165282
9456.000000;-0.165169
9455.000000;-0.165636
9454.000000;-0.166380
9453.000000;-0.166860
9452.000000;-0.166847
9451.000000;-0.166567
9450.000000;-0.166359
9449.000000;-0.166328
9448.000000;-0.166324
9447.000000;-0.166142
9446.000000;-0.165731
9445.000000;-0.165243
9444.000000;-0.164938
9443.000000;-0.164977
9442.000000;-0.165290
9441.000000;-0.165603
9440.000000;-0.165586
9439.000000;-0.165038
9438.000000;-0.164044
9437.000000;-0.162977
9436.000000;-0.162253
9435.000000;-0.161999
9434.000000;-0.162026
9433.000000;-0.162097
9432.000000;-0.162124
9431.000000;-0.162053
9430.000000;-0.161743
9429.000000;-0.161104
9428.000000;-0.160264
9427.000000;-0.159434
9426.000000;-0.158679
9425.000000;-0.157939
9424.000000;-0.157242
9423.000000;-0.156697
9422.000000;-0.156286
9421.000000;-0.155808
9420.000000;-0.155080
9419.000000;-0.154126
9418.000000;-0.153141
9417.000000;-0.152326
9416.000000;-0.151731
9415.000000;-0.151174
9414.000000;-0.150380
9413.000000;-0.149322
9412.000000;-0.148351
9411.000000;-0.147793
9410.000000;-0.147443
9409.000000;-0.146725
9408.000000;-0.145400
9407.000000;-0.143888
9406.000000;-0.142744
9405.000000;-0.142005
9404.000000;-0.141265
9403.000000;-0.140255
9402.000000;-0.139078
9401.000000;-0.137889
9400.000000;-0.136632
9399.000000;-0.135197
9398.000000;-0.133692
9397.000000;-0.132367
9396.000000;-0.131296
9395.000000;-0.130265
9394.000000;-0.129024
9393.000000;-0.127569
9392.000000;-0.126125
9391.000000;-0.124882
9390.000000;-0.123844
9389.000000;-0.122947
9388.000000;-0.122202
9387.000000;-0.121602
9386.000000;-0.120938
9385.000000;-0.119878
9384.000000;-0.118290
9383.000000;-0.116415
9382.000000;-0.114638
9381.000000;-0.113131
9380.000000;-0.111788
9379.000000;-0.110436
9378.000000;-0.109015
9377.000000;-0.107579
9376.000000;-0.106214
9375.000000;-0.104986
9374.000000;-0.103910
9373.000000;-0.102917
9372.000000;-0.101870
9371.000000;-0.100650
9370.000000;-0.099248
9369.000000;-0.097765
9368.000000;-0.096301
9367.000000;-0.094843
9366.000000;-0.093272
9365.000000;-0.091529
9364.000000;-0.089728
9363.000000;-0.088062
9362.000000;-0.086572
9361.000000;-0.085098
9360.000000;-0.083508
9359.000000;-0.081911
9358.000000;-0.080568
9357.000000;-0.079578
9356.000000;-0.078731
9355.000000;-0.077685
9354.000000;-0.076250
9353.000000;-0.074512
9352.000000;-0.072728
9351.000000;-0.071141
9350.000000;-0.069850
9349.000000;-0.068796
9348.000000;-0.067818
9347.000000;-0.066713
9346.000000;-0.065292
9345.000000;-0.063468
9344.000000;-0.061357
9343.000000;-0.059253
9342.000000;-0.057471
9341.000000;-0.056144
9340.000000;-0.055156
9339.000000;-0.054230
9338.000000;-0.053109
9337.000000;-0.051718
9336.000000;-0.050196
9335.000000;-0.048753
9334.000000;-0.047454
9333.000000;-0.046208
9332.000000;-0.044970
9331.000000;-0.043864
9330.000000;-0.042984
9329.000000;-0.042164
9328.000000;-0.041072
9327.000000;-0.039556
9326.000000;-0.037761
9325.000000;-0.035888
9324.000000;-0.034002
9323.000000;-0.032139
9322.000000;-0.030468
9321.000000;-0.029182
9320.000000;-0.028260
9319.000000;-0.027445
9318.000000;-0.026444
9317.000000;-0.025077
9316.000000;-0.023326
9315.000000;-0.021364
9314.000000;-0.019541
9313.000000;-0.018157
9312.000000;-0.017174
9311.000000;-0.016243
9310.000000;-0.015033
9309.000000;-0.013496
9308.000000;-0.011777
9307.000000;-0.010016
9306.000000;-0.008316
9305.000000;-0.006810
9304.000000;-0.005616
9303.000000;-0.004714
9302.000000;-0.003929
9301.000000;-0.003033
9300.000000;-0.001840
9299.000000;-0.000271
9298.000000;0.001554
9297.000000;0.003300
9296.000000;0.004653
9295.000000;0.005648
9294.000000;0.006692
9293.000000;0.008160
9292.000000;0.010005
9291.000000;0.011814
9290.000000;0.013257
9289.000000;0.014370
9288.000000;0.015388
9287.000000;0.016394
9286.000000;0.017289
9285.000000;0.018081
9284.000000;0.019042
9283.000000;0.020452
9282.000000;0.022260
9281.000000;0.024104
9280.000000;0.025677
9279.000000;0.026984
9278.000000;0.028222
9277.000000;0.029514
9276.000000;0.030815
9275.000000;0.032002
9274.000000;0.032978
9273.000000;0.033759
9272.000000;0.034501
9271.000000;0.035416
9270.000000;0.036589
9269.000000;0.037923
9268.000000;0.039290
9267.000000;0.040684
9266.000000;0.042134
9265.000000;0.043553
9264.000000;0.044831
9263.000000;0.046032
9262.000000;0.047351
9261.000000;0.048822
9260.000000;0.050203
9259.000000;0.051239
9258.000000;0.051956
9257.000000;0.052614
9256.000000;0.053454
9255.000000;0.054550
9254.000000;0.055829
9253.000000;0.057133
9252.000000;0.058317
9251.000000;0.059376
9250.000000;0.060462
9249.000000;0.061669
9248.000000;0.062865
9247.000000;0.063834
9246.000000;0.064580
9245.000000;0.065349
9244.000000;0.066348
9243.000000;0.067557
9242.000000;0.068855
9241.000000;0.070190
9240.000000;0.071525
9239.000000;0.072723
9238.000000;0.073627
9237.000000;0.074230
9236.000000;0.074670
9235.000000;0.075102
9234.000000;0.075670
9233.000000;0.076572
9232.000000;0.077998
9231.000000;0.079907
9230.000000;0.081945
9229.000000;0.083671
9228.000000;0.084873
9227.000000;0.085659
9226.000000;0.086285
9225.000000;0.086951
9224.000000;0.087734
9223.000000;0.088645
9222.000000;0.089702
9221.000000;0.090913
9220.000000;0.092191
9219.000000;0.093348
9218.000000;0.094267
9217.000000;0.095058
9216.000000;0.095958
9215.000000;0.097045
9214.000000;0.098121
9213.000000;0.098949
9212.000000;0.099540
9211.000000;0.100125
9210.000000;0.100885
9209.000000;0.101791
9208.000000;0.102703
9207.000000;0.103550
9206.000000;0.104367
9205.000000;0.105225
9204.000000;0.106169
9203.000000;0.107195
9202.000000;0.108261
9201.000000;0.109303
9200.000000;0.110245
9199.000000;0.111037
9198.000000;0.111729
9197.000000;0.112485
9196.000000;0.113468
9195.000000;0.114667
9194.000000;0.115875
9193.000000;0.116880
9192.000000;0.117635
9191.000000;0.118247
9190.000000;0.118850
9189.000000;0.119564
9188.000000;0.120471
9187.000000;0.121555
9186.000000;0.122660
9185.000000;0.123608
9184.000000;0.124353
9183.000000;0.124997
9182.000000;0.125697
9181.000000;0.126592
9180.000000;0.127731
9179.000000;0.128964
9178.000000;0.129970
9177.000000;0.130567
9176.000000;0.130969
9175.000000;0.131584
9174.000000;0.132516
9173.000000;0.133434
9172.000000;0.133999
9171.000000;0.134292
9170.000000;0.134707
9169.000000;0.135504
9168.000000;0.136577
9167.000000;0.137626
9166.000000;0.138457
9165.000000;0.139123
9164.000000;0.139824
9163.000000;0.140668
9162.000000;0.141581
9161.000000;0.142477
9160.000000;0.143455
9159.000000;0.144668
9158.000000;0.145978
9157.000000;0.146944
9156.000000;0.147308
9155.000000;0.147371
9154.000000;0.147689
9153.000000;0.148447
9152.000000;0.149307
9151.000000;0.149871
9150.000000;0.150143
9149.000000;0.150477
9148.000000;0.151193
9147.000000;0.152318
9146.000000;0.153645
9145.000000;0.154931
9144.000000;0.156034
9143.000000;0.156902
9142.000000;0.157527
9141.000000;0.157980
9140.000000;0.158448
9139.000000;0.159102
9138.000000;0.159896
9137.000000;0.160593
9136.000000;0.161090
9135.000000;0.161589
9134.000000;0.162314
9133.000000;0.163138
9132.000000;0.163712
9131.000000;0.163945
9130.000000;0.164182
9129.000000;0.164810
9128.000000;0.165839
9127.000000;0.166939
9126.000000;0.167780
9125.000000;0.168250
9124.000000;0.168447
9123.000000;0.168629
9122.000000;0.169109
9121.000000;0.170031
9120.000000;0.171175
9119.000000;0.172075
9118.000000;0.172429
9117.000000;0.172406
9116.000000;0.172501
9115.000000;0.173073
9114.000000;0.174026
9113.000000;0.174950
9112.000000;0.175587
9111.000000;0.176108
9110.000000;0.176895
9109.000000;0.178051
9108.000000;0.179222
9107.000000;0.179932
9106.000000;0.180066
9105.000000;0.179951
9104.000000;0.180011
9103.000000;0.180402
9102.000000;0.180974
9101.000000;0.181523
9100.000000;0.182012
9099.000000;0.182566
9098.000000;0.183294
9097.000000;0.184168
9096.000000;0.185058
9095.000000;0.185869
9094.000000;0.186585
9093.000000;0.187220
9092.000000;0.187781
9091.000000;0.188285
9090.000000;0.188758
9089.000000;0.189192
9088.000000;0.189554
9087.000000;0.189869
9086.000000;0.190227
9085.000000;0.190661
9084.000000;0.191080
9083.000000;0.191392
9082.000000;0.191653
9081.000000;0.191999
9080.000000;0.192452
9079.000000;0.192909
9078.000000;0.193324
9077.000000;0.193783
9076.000000;0.194354
9075.000000;0.194949
9074.000000;0.195436
9073.000000;0.195806
9072.000000;0.196167
9071.000000;0.196617
9070.000000;0.197206
9069.000000;0.197942
9068.000000;0.198741
9067.000000;0.199413
9066.000000;0.199830
