Criado como novo conjunto de dados;"0307_DANIEL.spp","27903.2 Secs"
cm-1;Abs
10000.000000;1.156132
9999.000000;1.154793
9998.000000;1.153794
9997.000000;1.153043
9996.000000;1.152364
9995.000000;1.151527
9994.000000;1.150320
9993.000000;1.148701
9992.000000;1.146940
9991.000000;1.145510
9990.000000;1.144709
9989.000000;1.144412
9988.000000;1.144248
9987.000000;1.143929
9986.000000;1.143339
9985.000000;1.142447
9984.000000;1.141273
9983.000000;1.139890
9982.000000;1.138378
9981.000000;1.136825
9980.000000;1.135423
9979.000000;1.134353
9978.000000;1.133487
9977.000000;1.132389
9976.000000;1.130796
9975.000000;1.128961
9974.000000;1.127337
9973.000000;1.126062
9972.000000;1.124977
9971.000000;1.123998
9970.000000;1.123121
9969.000000;1.122119
9968.000000;1.120658
9967.000000;1.118821
9966.000000;1.117191
9965.000000;1.116195
9964.000000;1.115564
9963.000000;1.114642
9962.000000;1.113138
9961.000000;1.111356
9960.000000;1.109734
9959.000000;1.108403
9958.000000;1.107280
9957.000000;1.106374
9956.000000;1.105719
9955.000000;1.105027
9954.000000;1.103764
9953.000000;1.101759
9952.000000;1.099549
9951.000000;1.097808
9950.000000;1.096536
9949.000000;1.095142
9948.000000;1.093328
9947.000000;1.091556
9946.000000;1.090497
9945.000000;1.090317
9944.000000;1.090626
9943.000000;1.090858
9942.000000;1.090486
9941.000000;1.089137
9940.000000;1.086849
9939.000000;1.084152
9938.000000;1.081667
9937.000000;1.079651
9936.000000;1.078012
9935.000000;1.076577
9934.000000;1.075165
9933.000000;1.073588
9932.000000;1.071904
9931.000000;1.070592
9930.000000;1.070158
9929.000000;1.070495
9928.000000;1.070780
9927.000000;1.070093
9926.000000;1.068128
9925.000000;1.065385
9924.000000;1.062779
9923.000000;1.060966
9922.000000;1.059861
9921.000000;1.058835
9920.000000;1.057497
9919.000000;1.056157
9918.000000;1.055317
9917.000000;1.054834
9916.000000;1.053918
9915.000000;1.052023
9914.000000;1.049495
9913.000000;1.047226
9912.000000;1.045830
9911.000000;1.045231
9910.000000;1.044910
9909.000000;1.044416
9908.000000;1.043724
9907.000000;1.043110
9906.000000;1.042693
9905.000000;1.042166
9904.000000;1.041073
9903.000000;1.039286
9902.000000;1.037087
9901.000000;1.034826
9900.000000;1.032656
9899.000000;1.030572
9898.000000;1.028526
9897.000000;1.026504
9896.000000;1.024637
9895.000000;1.023244
9894.000000;1.022600
9893.000000;1.022554
9892.000000;1.022518
9891.000000;1.021935
9890.000000;1.020720
9889.000000;1.019166
9888.000000;1.017519
9887.000000;1.015784
9886.000000;1.013920
9885.000000;1.012074
9884.000000;1.010492
9883.000000;1.009236
9882.000000;1.008058
9881.000000;1.006605
9880.000000;1.004733
9879.000000;1.002643
9878.000000;1.000744
9877.000000;0.999392
9876.000000;0.998594
9875.000000;0.997959
9874.000000;0.997025
9873.000000;0.995711
9872.000000;0.994318
9871.000000;0.993013
9870.000000;0.991508
9869.000000;0.989510
9868.000000;0.987312
9867.000000;0.985558
9866.000000;0.984382
9865.000000;0.983201
9864.000000;0.981514
9863.000000;0.979594
9862.000000;0.978038
9861.000000;0.976883
9860.000000;0.975588
9859.000000;0.973882
9858.000000;0.972241
9857.000000;0.971358
9856.000000;0.971278
9855.000000;0.971238
9854.000000;0.970358
9853.000000;0.968443
9852.000000;0.966056
9851.000000;0.963876
9850.000000;0.962070
9849.000000;0.960358
9848.000000;0.958536
9847.000000;0.956678
9846.000000;0.954866
9845.000000;0.953028
9844.000000;0.951151
9843.000000;0.949459
9842.000000;0.948183
9841.000000;0.947248
9840.000000;0.946324
9839.000000;0.945132
9838.000000;0.943589
9837.000000;0.941785
9836.000000;0.939961
9835.000000;0.938423
9834.000000;0.937286
9833.000000;0.936321
9832.000000;0.935184
9831.000000;0.933789
9830.000000;0.932335
9829.000000;0.930993
9828.000000;0.929713
9827.000000;0.928363
9826.000000;0.926923
9825.000000;0.925471
9824.000000;0.924002
9823.000000;0.922409
9822.000000;0.920672
9821.000000;0.918996
9820.000000;0.917575
9819.000000;0.916232
9818.000000;0.914543
9817.000000;0.912435
9816.000000;0.910457
9815.000000;0.909185
9814.000000;0.908474
9813.000000;0.907617
9812.000000;0.906186
9811.000000;0.904362
9810.000000;0.902480
9809.000000;0.900664
9808.000000;0.898988
9807.000000;0.897585
9806.000000;0.896376
9805.000000;0.895017
9804.000000;0.893330
9803.000000;0.891529
9802.000000;0.889785
9801.000000;0.887904
9800.000000;0.885749
9799.000000;0.883694
9798.000000;0.882250
9797.000000;0.881361
9796.000000;0.880484
9795.000000;0.879267
9794.000000;0.877810
9793.000000;0.876268
9792.000000;0.874549
9791.000000;0.872492
9790.000000;0.870116
9789.000000;0.867600
9788.000000;0.865199
9787.000000;0.863182
9786.000000;0.861655
9785.000000;0.860368
9784.000000;0.858875
9783.000000;0.856966
9782.000000;0.854839
9781.000000;0.852843
9780.000000;0.851175
9779.000000;0.849823
9778.000000;0.848658
9777.000000;0.847521
9776.000000;0.846299
9775.000000;0.844935
9774.000000;0.843354
9773.000000;0.841464
9772.000000;0.839312
9771.000000;0.837154
9770.000000;0.835211
9769.000000;0.833404
9768.000000;0.831452
9767.000000;0.829192
9766.000000;0.826718
9765.000000;0.824303
9764.000000;0.822327
9763.000000;0.821155
9762.000000;0.820778
9761.000000;0.820570
9760.000000;0.819683
9759.000000;0.817847
9758.000000;0.815636
9757.000000;0.813811
9756.000000;0.812540
9755.000000;0.811332
9754.000000;0.809618
9753.000000;0.807260
9752.000000;0.804589
9751.000000;0.802092
9750.000000;0.800086
9749.000000;0.798585
9748.000000;0.797366
9747.000000;0.796105
9746.000000;0.794491
9745.000000;0.792358
9744.000000;0.789872
9743.000000;0.787546
9742.000000;0.785890
9741.000000;0.784917
9740.000000;0.784073
9739.000000;0.782718
9738.000000;0.780676
9737.000000;0.778286
9736.000000;0.776014
9735.000000;0.774104
9734.000000;0.772543
9733.000000;0.771191
9732.000000;0.769837
9731.000000;0.768230
9730.000000;0.766233
9729.000000;0.763984
9728.000000;0.761839
9727.000000;0.760058
9726.000000;0.758591
9725.000000;0.757193
9724.000000;0.755649
9723.000000;0.753808
9722.000000;0.751524
9721.000000;0.748764
9720.000000;0.745797
9719.000000;0.743121
9718.000000;0.741101
9717.000000;0.739717
9716.000000;0.738655
9715.000000;0.737543
9714.000000;0.736100
9713.000000;0.734220
9712.000000;0.732005
9711.000000;0.729636
9710.000000;0.727172
9709.000000;0.724572
9708.000000;0.721961
9707.000000;0.719715
9706.000000;0.718096
9705.000000;0.716875
9704.000000;0.715466
9703.000000;0.713487
9702.000000;0.711121
9701.000000;0.708895
9700.000000;0.707160
9699.000000;0.705791
9698.000000;0.704335
9697.000000;0.702397
9696.000000;0.699939
9695.000000;0.697294
9694.000000;0.694919
9693.000000;0.693082
9692.000000;0.691697
9691.000000;0.690405
9690.000000;0.688871
9689.000000;0.687023
9688.000000;0.684996
9687.000000;0.682909
9686.000000;0.680807
9685.000000;0.678800
9684.000000;0.677043
9683.000000;0.675451
9682.000000;0.673609
9681.000000;0.671181
9680.000000;0.668349
9679.000000;0.665662
9678.000000;0.663470
9677.000000;0.661673
9676.000000;0.659991
9675.000000;0.658263
9674.000000;0.656425
9673.000000;0.654421
9672.000000;0.652266
9671.000000;0.650109
9670.000000;0.648079
9669.000000;0.646096
9668.000000;0.643918
9667.000000;0.641425
9666.000000;0.638806
9665.000000;0.636414
9664.000000;0.634414
9663.000000;0.632636
9662.000000;0.630846
9661.000000;0.629083
9660.000000;0.627513
9659.000000;0.625990
9658.000000;0.624058
9657.000000;0.621535
9656.000000;0.618808
9655.000000;0.616339
9654.000000;0.614121
9653.000000;0.611878
9652.000000;0.609587
9651.000000;0.607465
9650.000000;0.605578
9649.000000;0.603836
9648.000000;0.602243
9647.000000;0.600744
9646.000000;0.598920
9645.000000;0.596350
9644.000000;0.593312
9643.000000;0.590641
9642.000000;0.588734
9641.000000;0.587124
9640.000000;0.585206
9639.000000;0.582958
9638.000000;0.580665
9637.000000;0.578342
9636.000000;0.575820
9635.000000;0.573179
9634.000000;0.570699
9633.000000;0.568447
9632.000000;0.566219
9631.000000;0.563870
9630.000000;0.561503
9629.000000;0.559342
9628.000000;0.557513
9627.000000;0.555885
9626.000000;0.554051
9625.000000;0.551618
9624.000000;0.548646
9623.000000;0.545675
9622.000000;0.543195
9621.000000;0.541235
9620.000000;0.539533
9619.000000;0.537883
9618.000000;0.536139
9617.000000;0.534081
9616.000000;0.531575
9615.000000;0.528819
9614.000000;0.526217
9613.000000;0.523998
9612.000000;0.522052
9611.000000;0.520081
9610.000000;0.517841
9609.000000;0.515311
9608.000000;0.512739
9607.000000;0.510403
9606.000000;0.508277
9605.000000;0.506062
9604.000000;0.503617
9603.000000;0.501171
9602.000000;0.498944
9601.000000;0.496732
9600.000000;0.494113
9599.000000;0.491023
9598.000000;0.487910
9597.000000;0.485330
9596.000000;0.483478
9595.000000;0.482064
9594.000000;0.480543
9593.000000;0.478514
9592.000000;0.476040
9591.000000;0.473511
9590.000000;0.471188
9589.000000;0.468959
9588.000000;0.466602
9587.000000;0.464110
9586.000000;0.461640
9585.000000;0.459268
9584.000000;0.456955
9583.000000;0.454677
9582.000000;0.452432
9581.000000;0.450188
9580.000000;0.447932
9579.000000;0.445699
9578.000000;0.443443
9577.000000;0.440997
9576.000000;0.438292
9575.000000;0.435519
9574.000000;0.432934
9573.000000;0.430563
9572.000000;0.428253
9571.000000;0.425914
9570.000000;0.423561
9569.000000;0.421168
9568.000000;0.418680
9567.000000;0.416161
9566.000000;0.413807
9565.000000;0.411754
9564.000000;0.409947
9563.000000;0.408168
9562.000000;0.406184
9561.000000;0.403910
9560.000000;0.401504
9559.000000;0.399228
9558.000000;0.397169
9557.000000;0.395147
9556.000000;0.392943
9555.000000;0.390511
9554.000000;0.387926
9553.000000;0.385258
9552.000000;0.382601
9551.000000;0.380116
9550.000000;0.377911
9549.000000;0.375898
9548.000000;0.373813
9547.000000;0.371358
9546.000000;0.368393
9545.000000;0.365170
9544.000000;0.362342
9543.000000;0.360483
9542.000000;0.359448
9541.000000;0.358428
9540.000000;0.356759
9539.000000;0.354488
9538.000000;0.352019
9537.000000;0.349493
9536.000000;0.346827
9535.000000;0.344148
9534.000000;0.341778
9533.000000;0.339782
9532.000000;0.337831
9531.000000;0.335580
9530.000000;0.333028
9529.000000;0.330468
9528.000000;0.328201
9527.000000;0.326270
9526.000000;0.324380
9525.000000;0.322155
9524.000000;0.319626
9523.000000;0.317327
9522.000000;0.315709
9521.000000;0.314536
9520.000000;0.313098
9519.000000;0.311009
9518.000000;0.308555
9517.000000;0.306267
9516.000000;0.304404
9515.000000;0.302893
9514.000000;0.301519
9513.000000;0.300042
9512.000000;0.298308
9511.000000;0.296377
9510.000000;0.294468
9509.000000;0.292692
9508.000000;0.290955
9507.000000;0.289164
9506.000000;0.287396
9505.000000;0.285737
9504.000000;0.284058
9503.000000;0.282108
9502.000000;0.279865
9501.000000;0.277648
9500.000000;0.275825
9499.000000;0.274412
9498.000000;0.273075
9497.000000;0.271537
9496.000000;0.269875
9495.000000;0.268315
9494.000000;0.266832
9493.000000;0.265171
9492.000000;0.263265
9491.000000;0.261400
9490.000000;0.259863
9489.000000;0.258621
9488.000000;0.257485
9487.000000;0.256393
9486.000000;0.255343
9485.000000;0.254183
9484.000000;0.252740
9483.000000;0.251093
9482.000000;0.249514
9481.000000;0.248175
9480.000000;0.247108
9479.000000;0.246348
9478.000000;0.245882
9477.000000;0.245451
9476.000000;0.244689
9475.000000;0.243536
9474.000000;0.242315
9473.000000;0.241351
9472.000000;0.240667
9471.000000;0.240096
9470.000000;0.239442
9469.000000;0.238465
9468.000000;0.236948
9467.000000;0.234985
9466.000000;0.233082
9465.000000;0.231803
9464.000000;0.231335
9463.000000;0.231446
9462.000000;0.231755
9461.000000;0.231928
9460.000000;0.231751
9459.000000;0.231164
9458.000000;0.230272
9457.000000;0.229250
9456.000000;0.228255
9455.000000;0.227443
9454.000000;0.226967
9453.000000;0.226834
9452.000000;0.226812
9451.000000;0.226596
9450.000000;0.226077
9449.000000;0.225421
9448.000000;0.224882
9447.000000;0.224590
9446.000000;0.224487
9445.000000;0.224401
9444.000000;0.224179
9443.000000;0.223798
9442.000000;0.223387
9441.000000;0.223152
9440.000000;0.223240
9439.000000;0.223607
9438.000000;0.223986
9437.000000;0.224049
9436.000000;0.223729
9435.000000;0.223344
9434.000000;0.223303
9433.000000;0.223676
9432.000000;0.224182
9431.000000;0.224598
9430.000000;0.225005
9429.000000;0.225556
9428.000000;0.226192
9427.000000;0.226734
9426.000000;0.227132
9425.000000;0.227434
9424.000000;0.227587
9423.000000;0.227521
9422.000000;0.227411
9421.000000;0.227631
9420.000000;0.228359
9419.000000;0.229382
9418.000000;0.230404
9417.000000;0.231352
9416.000000;0.232265
9415.000000;0.233051
9414.000000;0.233580
9413.000000;0.233946
9412.000000;0.234397
9411.000000;0.234998
9410.000000;0.235565
9409.000000;0.235985
9408.000000;0.236388
9407.000000;0.236929
9406.000000;0.237568
9405.000000;0.238178
9404.000000;0.238740
9403.000000;0.239308
9402.000000;0.239897
9401.000000;0.240515
9400.000000;0.241233
9399.000000;0.242079
9398.000000;0.242952
9397.000000;0.243796
9396.000000;0.244778
9395.000000;0.246088
9394.000000;0.247590
9393.000000;0.248862
9392.000000;0.249644
9391.000000;0.250104
9390.000000;0.250626
9389.000000;0.251456
9388.000000;0.252568
9387.000000;0.253761
9386.000000;0.254803
9385.000000;0.255603
9384.000000;0.256275
9383.000000;0.257017
9382.000000;0.257931
9381.000000;0.259025
9380.000000;0.260327
9379.000000;0.261831
9378.000000;0.263329
9377.000000;0.264525
9376.000000;0.265397
9375.000000;0.266275
9374.000000;0.267448
9373.000000;0.268853
9372.000000;0.270246
9371.000000;0.271517
9370.000000;0.272684
9369.000000;0.273695
9368.000000;0.274474
9367.000000;0.275146
9366.000000;0.276010
9365.000000;0.277223
9364.000000;0.278626
9363.000000;0.279936
9362.000000;0.281052
9361.000000;0.282132
9360.000000;0.283366
9359.000000;0.284727
9358.000000;0.285953
9357.000000;0.286845
9356.000000;0.287558
9355.000000;0.288484
9354.000000;0.289824
9353.000000;0.291353
9352.000000;0.292705
9351.000000;0.293793
9350.000000;0.294834
9349.000000;0.296025
9348.000000;0.297339
9347.000000;0.298656
9346.000000;0.299950
9345.000000;0.301281
9344.000000;0.302657
9343.000000;0.303969
9342.000000;0.305068
9341.000000;0.305863
9340.000000;0.306398
9339.000000;0.306832
9338.000000;0.307370
9337.000000;0.308166
9336.000000;0.309270
9335.000000;0.310645
9334.000000;0.312211
9333.000000;0.313884
9332.000000;0.315571
9331.000000;0.317153
9330.000000;0.318514
9329.000000;0.319615
9328.000000;0.320515
9327.000000;0.321304
9326.000000;0.322040
9325.000000;0.322803
9324.000000;0.323740
9323.000000;0.324955
9322.000000;0.326320
9321.000000;0.327528
9320.000000;0.328410
9319.000000;0.329158
9318.000000;0.330170
9317.000000;0.331665
9316.000000;0.333455
9315.000000;0.335096
9314.000000;0.336276
9313.000000;0.337065
9312.000000;0.337801
9311.000000;0.338767
9310.000000;0.340021
9309.000000;0.341503
9308.000000;0.343138
9307.000000;0.344765
9306.000000;0.346104
9305.000000;0.346999
9304.000000;0.347654
9303.000000;0.348474
9302.000000;0.349646
9301.000000;0.351014
9300.000000;0.352321
9299.000000;0.353453
9298.000000;0.354437
9297.000000;0.355344
9296.000000;0.356277
9295.000000;0.357291
9294.000000;0.358293
9293.000000;0.359109
9292.000000;0.359720
9291.000000;0.360354
9290.000000;0.361286
9289.000000;0.362593
9288.000000;0.364133
9287.000000;0.365641
9286.000000;0.366833
9285.000000;0.367554
9284.000000;0.367923
9283.000000;0.368299
9282.000000;0.369019
9281.000000;0.370195
9280.000000;0.371746
9279.000000;0.373513
9278.000000;0.375300
9277.000000;0.376924
9276.000000;0.378297
9275.000000;0.379446
9274.000000;0.380418
9273.000000;0.381235
9272.000000;0.381940
9271.000000;0.382592
9270.000000;0.383194
9269.000000;0.383729
9268.000000;0.384300
9267.000000;0.385128
9266.000000;0.386303
9265.000000;0.387645
9264.000000;0.388869
9263.000000;0.389850
9262.000000;0.390655
9261.000000;0.391387
9260.000000;0.392083
9259.000000;0.392738
9258.000000;0.393384
9257.000000;0.394115
9256.000000;0.395032
9255.000000;0.396122
9254.000000;0.397238
9253.000000;0.398276
9252.000000;0.399327
9251.000000;0.400545
9250.000000;0.401858
9249.000000;0.402952
9248.000000;0.403599
9247.000000;0.403894
9246.000000;0.404147
9245.000000;0.404638
9244.000000;0.405500
9243.000000;0.406697
9242.000000;0.408032
9241.000000;0.409283
9240.000000;0.410377
9239.000000;0.411380
9238.000000;0.412320
9237.000000;0.413155
9236.000000;0.413945
9235.000000;0.414862
9234.000000;0.415954
9233.000000;0.417021
9232.000000;0.417858
9231.000000;0.418503
9230.000000;0.419131
9229.000000;0.419807
9228.000000;0.420484
9227.000000;0.421157
9226.000000;0.421868
9225.000000;0.422601
9224.000000;0.423309
9223.000000;0.424023
9222.000000;0.424821
9221.000000;0.425696
9220.000000;0.426558
9219.000000;0.427370
9218.000000;0.428198
9217.000000;0.429096
9216.000000;0.430003
9215.000000;0.430804
9214.000000;0.431452
9213.000000;0.432026
9212.000000;0.432641
9211.000000;0.433313
9210.000000;0.433951
9209.000000;0.434501
9208.000000;0.435045
9207.000000;0.435688
9206.000000;0.436389
9205.000000;0.437021
9204.000000;0.437589
9203.000000;0.438274
9202.000000;0.439227
9201.000000;0.440374
9200.000000;0.441464
9199.000000;0.442257
9198.000000;0.442665
9197.000000;0.442828
9196.000000;0.443049
9195.000000;0.443581
9194.000000;0.444435
9193.000000;0.445444
9192.000000;0.446479
9191.000000;0.447504
9190.000000;0.448444
9189.000000;0.449162
9188.000000;0.449628
9187.000000;0.449986
9186.000000;0.450420
9185.000000;0.451015
9184.000000;0.451754
9183.000000;0.452537
9182.000000;0.453207
9181.000000;0.453723
9180.000000;0.454297
9179.000000;0.455190
9178.000000;0.456336
9177.000000;0.457332
9176.000000;0.457899
9175.000000;0.458167
9174.000000;0.458458
9173.000000;0.458941
9172.000000;0.459605
9171.000000;0.460372
9170.000000;0.461091
9169.000000;0.461576
9168.000000;0.461820
9167.000000;0.462083
9166.000000;0.462620
9165.000000;0.463382
9164.000000;0.464109
9163.000000;0.464612
9162.000000;0.464868
9161.000000;0.464941
9160.000000;0.464970
9159.000000;0.465162
9158.000000;0.465641
9157.000000;0.466334
9156.000000;0.467123
9155.000000;0.467996
9154.000000;0.468946
9153.000000;0.469807
9152.000000;0.470385
9151.000000;0.470712
9150.000000;0.471013
9149.000000;0.471417
9148.000000;0.471872
9147.000000;0.472327
9146.000000;0.472838
9145.000000;0.473453
9144.000000;0.474121
9143.000000;0.474762
9142.000000;0.475373
9141.000000;0.475965
9140.000000;0.476484
9139.000000;0.476833
9138.000000;0.477005
9137.000000;0.477160
9136.000000;0.477543
9135.000000;0.478254
9134.000000;0.479118
9133.000000;0.479844
9132.000000;0.480334
9131.000000;0.480767
9130.000000;0.481361
9129.000000;0.482136
9128.000000;0.482959
9127.000000;0.483687
9126.000000;0.484220
9125.000000;0.484515
9124.000000;0.484695
9123.000000;0.485037
9122.000000;0.485703
9121.000000;0.486487
9120.000000;0.486984
9119.000000;0.487025
9118.000000;0.486853
9117.000000;0.486860
9116.000000;0.487216
9115.000000;0.487764
9114.000000;0.488238
9113.000000;0.488513
9112.000000;0.488684
9111.000000;0.488942
9110.000000;0.489400
9109.000000;0.490050
9108.000000;0.490825
9107.000000;0.491616
9106.000000;0.492252
9105.000000;0.492592
9104.000000;0.492695
9103.000000;0.492812
9102.000000;0.493149
9101.000000;0.493678
9100.000000;0.494219
9099.000000;0.494620
9098.000000;0.494831
9097.000000;0.494901
9096.000000;0.494967
9095.000000;0.495160
9094.000000;0.495478
9093.000000;0.495819
9092.000000;0.496196
9091.000000;0.496766
9090.000000;0.497564
9089.000000;0.498330
9088.000000;0.498782
9087.000000;0.498965
9086.000000;0.499178
9085.000000;0.499584
9084.000000;0.500077
9083.000000;0.500494
9082.000000;0.500797
9081.000000;0.501016
9080.000000;0.501177
9079.000000;0.501362
9078.000000;0.501710
9077.000000;0.502274
9076.000000;0.502942
9075.000000;0.503562
9074.000000;0.504082
9073.000000;0.504504
9072.000000;0.504771
9071.000000;0.504797
9070.000000;0.504633
9069.000000;0.504508
9068.000000;0.504642
9067.000000;0.505041
9066.000000;0.505499
9065.000000;0.505816
9064.000000;0.505958
9063.000000;0.506025
9062.000000;0.506128
9061.000000;0.506340
9060.000000;0.506694
9059.000000;0.507155
9058.000000;0.507608
9057.000000;0.507955
9056.000000;0.508221
9055.000000;0.508491
9054.000000;0.508772
9053.000000;0.509001
