Criado como novo conjunto de dados;"0307_DANIEL.spp","20883.2 Secs"
cm-1;Abs
10000.000000;1.015355
9999.000000;1.014322
9998.000000;1.013291
9997.000000;1.012263
9996.000000;1.011237
9995.000000;1.010213
9994.000000;1.009193
9993.000000;1.008172
9992.000000;1.007159
9991.000000;1.006139
9990.000000;1.005142
9989.000000;1.004043
9988.000000;1.002794
9987.000000;1.001681
9986.000000;1.000944
9985.000000;1.000540
9984.000000;1.000214
9983.000000;0.999694
9982.000000;0.998741
9981.000000;0.997224
9980.000000;0.995248
9979.000000;0.993107
9978.000000;0.991067
9977.000000;0.989270
9976.000000;0.987792
9975.000000;0.986620
9974.000000;0.985612
9973.000000;0.984607
9972.000000;0.983536
9971.000000;0.982356
9970.000000;0.981007
9969.000000;0.979612
9968.000000;0.978530
9967.000000;0.977953
9966.000000;0.977563
9965.000000;0.976827
9964.000000;0.975565
9963.000000;0.973963
9962.000000;0.972175
9961.000000;0.970277
9960.000000;0.968562
9959.000000;0.967446
9958.000000;0.966962
9957.000000;0.966603
9956.000000;0.965781
9955.000000;0.964328
9954.000000;0.962506
9953.000000;0.960704
9952.000000;0.959185
9951.000000;0.957967
9950.000000;0.956906
9949.000000;0.955899
9948.000000;0.954920
9947.000000;0.953840
9946.000000;0.952438
9945.000000;0.950737
9944.000000;0.949087
9943.000000;0.947713
9942.000000;0.946408
9941.000000;0.944953
9940.000000;0.943586
9939.000000;0.942673
9938.000000;0.942085
9937.000000;0.941303
9936.000000;0.940108
9935.000000;0.938766
9934.000000;0.937549
9933.000000;0.936419
9932.000000;0.935222
9931.000000;0.933873
9930.000000;0.932325
9929.000000;0.930632
9928.000000;0.929050
9927.000000;0.927830
9926.000000;0.926874
9925.000000;0.925802
9924.000000;0.924376
9923.000000;0.922700
9922.000000;0.921083
9921.000000;0.919855
9920.000000;0.919153
9919.000000;0.918639
9918.000000;0.917609
9917.000000;0.915704
9916.000000;0.913396
9915.000000;0.911468
9914.000000;0.910151
9913.000000;0.909080
9912.000000;0.907920
9911.000000;0.906631
9910.000000;0.905231
9909.000000;0.903761
9908.000000;0.902453
9907.000000;0.901563
9906.000000;0.900981
9905.000000;0.900345
9904.000000;0.899497
9903.000000;0.898518
9902.000000;0.897393
9901.000000;0.896038
9900.000000;0.894647
9899.000000;0.893538
9898.000000;0.892637
9897.000000;0.891488
9896.000000;0.889848
9895.000000;0.887902
9894.000000;0.885892
9893.000000;0.883921
9892.000000;0.882149
9891.000000;0.880778
9890.000000;0.879703
9889.000000;0.878559
9888.000000;0.877193
9887.000000;0.875786
9886.000000;0.874427
9885.000000;0.872954
9884.000000;0.871275
9883.000000;0.869507
9882.000000;0.867716
9881.000000;0.865896
9880.000000;0.864272
9879.000000;0.863182
9878.000000;0.862513
9877.000000;0.861647
9876.000000;0.860211
9875.000000;0.858519
9874.000000;0.857053
9873.000000;0.855822
9872.000000;0.854505
9871.000000;0.852941
9870.000000;0.851211
9869.000000;0.849475
9868.000000;0.847969
9867.000000;0.846940
9866.000000;0.846299
9865.000000;0.845493
9864.000000;0.844010
9863.000000;0.841957
9862.000000;0.839932
9861.000000;0.838419
9860.000000;0.837470
9859.000000;0.836828
9858.000000;0.836091
9857.000000;0.834794
9856.000000;0.832638
9855.000000;0.829818
9854.000000;0.827053
9853.000000;0.825137
9852.000000;0.824334
9851.000000;0.824178
9850.000000;0.823882
9849.000000;0.822989
9848.000000;0.821580
9847.000000;0.819904
9846.000000;0.818059
9845.000000;0.816150
9844.000000;0.814485
9843.000000;0.813307
9842.000000;0.812425
9841.000000;0.811370
9840.000000;0.809899
9839.000000;0.808127
9838.000000;0.806262
9837.000000;0.804447
9836.000000;0.802809
9835.000000;0.801370
9834.000000;0.799908
9833.000000;0.798186
9832.000000;0.796302
9831.000000;0.794573
9830.000000;0.793081
9829.000000;0.791624
9828.000000;0.790123
9827.000000;0.788753
9826.000000;0.787578
9825.000000;0.786343
9824.000000;0.784789
9823.000000;0.782997
9822.000000;0.781276
9821.000000;0.779814
9820.000000;0.778574
9819.000000;0.777412
9818.000000;0.776215
9817.000000;0.774947
9816.000000;0.773564
9815.000000;0.771934
9814.000000;0.769986
9813.000000;0.767991
9812.000000;0.766441
9811.000000;0.765461
9810.000000;0.764530
9809.000000;0.763037
9808.000000;0.761000
9807.000000;0.758937
9806.000000;0.757141
9805.000000;0.755457
9804.000000;0.753708
9803.000000;0.751952
9802.000000;0.750286
9801.000000;0.748703
9800.000000;0.747199
9799.000000;0.745777
9798.000000;0.744329
9797.000000;0.742740
9796.000000;0.741086
9795.000000;0.739493
9794.000000;0.737845
9793.000000;0.735940
9792.000000;0.733891
9791.000000;0.732034
9790.000000;0.730465
9789.000000;0.728987
9788.000000;0.727521
9787.000000;0.726176
9786.000000;0.724893
9785.000000;0.723431
9784.000000;0.721799
9783.000000;0.720281
9782.000000;0.718899
9781.000000;0.717237
9780.000000;0.715031
9779.000000;0.712613
9778.000000;0.710522
9777.000000;0.708925
9776.000000;0.707646
9775.000000;0.706522
9774.000000;0.705456
9773.000000;0.704288
9772.000000;0.702855
9771.000000;0.701143
9770.000000;0.699267
9769.000000;0.697383
9768.000000;0.695640
9767.000000;0.694047
9766.000000;0.692361
9765.000000;0.690316
9764.000000;0.688049
9763.000000;0.686031
9762.000000;0.684479
9761.000000;0.683093
9760.000000;0.681516
9759.000000;0.679766
9758.000000;0.678035
9757.000000;0.676303
9756.000000;0.674466
9755.000000;0.672660
9754.000000;0.671123
9753.000000;0.669792
9752.000000;0.668317
9751.000000;0.666508
9750.000000;0.664549
9749.000000;0.662710
9748.000000;0.661005
9747.000000;0.659211
9746.000000;0.657186
9745.000000;0.655084
9744.000000;0.653221
9743.000000;0.651711
9742.000000;0.650280
9741.000000;0.648541
9740.000000;0.646427
9739.000000;0.644248
9738.000000;0.642313
9737.000000;0.640636
9736.000000;0.639036
9735.000000;0.637386
9734.000000;0.635670
9733.000000;0.633884
9732.000000;0.632007
9731.000000;0.630069
9730.000000;0.628187
9729.000000;0.626475
9728.000000;0.624903
9727.000000;0.623270
9726.000000;0.621416
9725.000000;0.619460
9724.000000;0.617703
9723.000000;0.616208
9722.000000;0.614655
9721.000000;0.612709
9720.000000;0.610399
9719.000000;0.607961
9718.000000;0.605509
9717.000000;0.603090
9716.000000;0.600906
9715.000000;0.599160
9714.000000;0.597691
9713.000000;0.596094
9712.000000;0.594215
9711.000000;0.592283
9710.000000;0.590504
9709.000000;0.588800
9708.000000;0.587004
9707.000000;0.585068
9706.000000;0.582998
9705.000000;0.580827
9704.000000;0.578756
9703.000000;0.577088
9702.000000;0.575854
9701.000000;0.574669
9700.000000;0.573117
9699.000000;0.571166
9698.000000;0.569052
9697.000000;0.566922
9696.000000;0.564737
9695.000000;0.562481
9694.000000;0.560273
9693.000000;0.558254
9692.000000;0.556468
9691.000000;0.554832
9690.000000;0.553198
9689.000000;0.551423
9688.000000;0.549426
9687.000000;0.547227
9686.000000;0.544943
9685.000000;0.542739
9684.000000;0.540698
9683.000000;0.538730
9682.000000;0.536671
9681.000000;0.534494
9680.000000;0.532316
9679.000000;0.530173
9678.000000;0.527973
9677.000000;0.525748
9676.000000;0.523754
9675.000000;0.522115
9674.000000;0.520540
9673.000000;0.518606
9672.000000;0.516229
9671.000000;0.513655
9670.000000;0.511090
9669.000000;0.508609
9668.000000;0.506334
9667.000000;0.504420
9666.000000;0.502853
9665.000000;0.501482
9664.000000;0.500211
9663.000000;0.498946
9662.000000;0.497408
9661.000000;0.495312
9660.000000;0.492781
9659.000000;0.490302
9658.000000;0.488181
9657.000000;0.486249
9656.000000;0.484151
9655.000000;0.481727
9654.000000;0.479059
9653.000000;0.476358
9652.000000;0.473893
9651.000000;0.471851
9650.000000;0.470179
9649.000000;0.468646
9648.000000;0.467085
9647.000000;0.465427
9646.000000;0.463527
9645.000000;0.461210
9644.000000;0.458541
9643.000000;0.455839
9642.000000;0.453315
9641.000000;0.450902
9640.000000;0.448540
9639.000000;0.446415
9638.000000;0.444720
9637.000000;0.443312
9636.000000;0.441775
9635.000000;0.439787
9634.000000;0.437358
9633.000000;0.434721
9632.000000;0.432097
9631.000000;0.429536
9630.000000;0.426967
9629.000000;0.424403
9628.000000;0.422008
9627.000000;0.419884
9626.000000;0.417848
9625.000000;0.415603
9624.000000;0.413152
9623.000000;0.410840
9622.000000;0.408925
9621.000000;0.407227
9620.000000;0.405301
9619.000000;0.402873
9618.000000;0.400041
9617.000000;0.397111
9616.000000;0.394332
9615.000000;0.391794
9614.000000;0.389499
9613.000000;0.387462
9612.000000;0.385654
9611.000000;0.383871
9610.000000;0.381815
9609.000000;0.379427
9608.000000;0.377030
9607.000000;0.374984
9606.000000;0.373239
9605.000000;0.371403
9604.000000;0.369212
9603.000000;0.366760
9602.000000;0.364243
9601.000000;0.361663
9600.000000;0.358901
9599.000000;0.355993
9598.000000;0.353216
9597.000000;0.350884
9596.000000;0.349041
9595.000000;0.347381
9594.000000;0.345495
9593.000000;0.343230
9592.000000;0.340732
9591.000000;0.338172
9590.000000;0.335597
9589.000000;0.333111
9588.000000;0.330960
9587.000000;0.329254
9586.000000;0.327704
9585.000000;0.325862
9584.000000;0.323583
9583.000000;0.321067
9582.000000;0.318527
9581.000000;0.316017
9580.000000;0.313575
9579.000000;0.311273
9578.000000;0.309086
9577.000000;0.306847
9576.000000;0.304434
9575.000000;0.301920
9574.000000;0.299485
9573.000000;0.297254
9572.000000;0.295204
9571.000000;0.293174
9570.000000;0.290962
9569.000000;0.288460
9568.000000;0.285696
9567.000000;0.282775
9566.000000;0.279885
9565.000000;0.277333
9564.000000;0.275353
9563.000000;0.273756
9562.000000;0.271962
9561.000000;0.269553
9560.000000;0.266675
9559.000000;0.263750
9558.000000;0.260987
9557.000000;0.258397
9556.000000;0.256089
9555.000000;0.254189
9554.000000;0.252509
9553.000000;0.250610
9552.000000;0.248278
9551.000000;0.245725
9550.000000;0.243289
9549.000000;0.241113
9548.000000;0.239128
9547.000000;0.237165
9546.000000;0.235059
9545.000000;0.232806
9544.000000;0.230640
9543.000000;0.228797
9542.000000;0.227203
9541.000000;0.225503
9540.000000;0.223412
9539.000000;0.220916
9538.000000;0.218151
9537.000000;0.215273
9536.000000;0.212453
9535.000000;0.209861
9534.000000;0.207574
9533.000000;0.205530
9532.000000;0.203577
9531.000000;0.201554
9530.000000;0.199384
9529.000000;0.197169
9528.000000;0.195103
9527.000000;0.193214
9526.000000;0.191301
9525.000000;0.189237
9524.000000;0.187171
9523.000000;0.185281
9522.000000;0.183471
9521.000000;0.181527
9520.000000;0.179474
9519.000000;0.177533
9518.000000;0.175784
9517.000000;0.174102
9516.000000;0.172393
9515.000000;0.170673
9514.000000;0.168893
9513.000000;0.166929
9512.000000;0.164788
9511.000000;0.162637
9510.000000;0.160597
9509.000000;0.158631
9508.000000;0.156684
9507.000000;0.154778
9506.000000;0.152941
9505.000000;0.151164
9504.000000;0.149460
9503.000000;0.147885
9502.000000;0.146461
9501.000000;0.145116
9500.000000;0.143682
9499.000000;0.141956
9498.000000;0.139864
9497.000000;0.137638
9496.000000;0.135699
9495.000000;0.134256
9494.000000;0.133129
9493.000000;0.132029
9492.000000;0.130852
9491.000000;0.129574
9490.000000;0.128117
9489.000000;0.126519
9488.000000;0.125044
9487.000000;0.123853
9486.000000;0.122714
9485.000000;0.121331
9484.000000;0.119788
9483.000000;0.118356
9482.000000;0.116998
9481.000000;0.115485
9480.000000;0.113953
9479.000000;0.112883
9478.000000;0.112436
9477.000000;0.112174
9476.000000;0.111590
9475.000000;0.110636
9474.000000;0.109565
9473.000000;0.108508
9472.000000;0.107441
9471.000000;0.106378
9470.000000;0.105395
9469.000000;0.104517
9468.000000;0.103708
9467.000000;0.102921
9466.000000;0.102115
9465.000000;0.101284
9464.000000;0.100479
9463.000000;0.099732
9462.000000;0.098998
9461.000000;0.098286
9460.000000;0.097771
9459.000000;0.097568
9458.000000;0.097426
9457.000000;0.096909
9456.000000;0.095927
9455.000000;0.094894
9454.000000;0.094260
9453.000000;0.094109
9452.000000;0.094229
9451.000000;0.094378
9450.000000;0.094345
9449.000000;0.093991
9448.000000;0.093396
9447.000000;0.092858
9446.000000;0.092571
9445.000000;0.092441
9444.000000;0.092333
9443.000000;0.092334
9442.000000;0.092559
9441.000000;0.092798
9440.000000;0.092638
9439.000000;0.091996
9438.000000;0.091321
9437.000000;0.091120
9436.000000;0.091420
9435.000000;0.091842
9434.000000;0.092157
9433.000000;0.092543
9432.000000;0.093229
9431.000000;0.094058
9430.000000;0.094619
9429.000000;0.094740
9428.000000;0.094619
9427.000000;0.094475
9426.000000;0.094326
9425.000000;0.094219
9424.000000;0.094394
9423.000000;0.095022
9422.000000;0.095909
9421.000000;0.096694
9420.000000;0.097281
9419.000000;0.097872
9418.000000;0.098627
9417.000000;0.099458
9416.000000;0.100182
9415.000000;0.100725
9414.000000;0.101170
9413.000000;0.101696
9412.000000;0.102458
9411.000000;0.103427
9410.000000;0.104381
9409.000000;0.105104
9408.000000;0.105559
9407.000000;0.105821
9406.000000;0.105982
9405.000000;0.106200
9404.000000;0.106693
9403.000000;0.107518
9402.000000;0.108455
9401.000000;0.109269
9400.000000;0.109987
9399.000000;0.110767
9398.000000;0.111607
9397.000000;0.112395
9396.000000;0.113149
9395.000000;0.113992
9394.000000;0.114943
9393.000000;0.115934
9392.000000;0.116996
9391.000000;0.118201
9390.000000;0.119458
9389.000000;0.120541
9388.000000;0.121363
9387.000000;0.122059
9386.000000;0.122828
9385.000000;0.123812
9384.000000;0.125066
9383.000000;0.126461
9382.000000;0.127699
9381.000000;0.128589
9380.000000;0.129284
9379.000000;0.130087
9378.000000;0.131109
9377.000000;0.132299
9376.000000;0.133688
9375.000000;0.135312
9374.000000;0.136938
9373.000000;0.138175
9372.000000;0.138912
9371.000000;0.139442
9370.000000;0.140122
9369.000000;0.141097
9368.000000;0.142364
9367.000000;0.143852
9366.000000;0.145412
9365.000000;0.146898
9364.000000;0.148333
9363.000000;0.149810
9362.000000;0.151264
9361.000000;0.152532
9360.000000;0.153638
9359.000000;0.154769
9358.000000;0.155967
9357.000000;0.157068
9356.000000;0.157997
9355.000000;0.158899
9354.000000;0.159890
9353.000000;0.160908
9352.000000;0.161896
9351.000000;0.162941
9350.000000;0.164129
9349.000000;0.165406
9348.000000;0.166671
9347.000000;0.167864
9346.000000;0.168925
9345.000000;0.169829
9344.000000;0.170717
9343.000000;0.171814
9342.000000;0.173146
9341.000000;0.174490
9340.000000;0.175689
9339.000000;0.176854
9338.000000;0.178141
9337.000000;0.179496
9336.000000;0.180742
9335.000000;0.181818
9334.000000;0.182811
9333.000000;0.183829
9332.000000;0.184950
9331.000000;0.186245
9330.000000;0.187740
9329.000000;0.189335
9328.000000;0.190808
9327.000000;0.191924
9326.000000;0.192605
9325.000000;0.193037
9324.000000;0.193576
9323.000000;0.194469
9322.000000;0.195684
9321.000000;0.197065
9320.000000;0.198545
9319.000000;0.200117
9318.000000;0.201686
9317.000000;0.203118
9316.000000;0.204396
9315.000000;0.205574
9314.000000;0.206643
9313.000000;0.207599
9312.000000;0.208590
9311.000000;0.209796
9310.000000;0.211168
9309.000000;0.212494
9308.000000;0.213688
9307.000000;0.214851
9306.000000;0.216046
9305.000000;0.217214
9304.000000;0.218323
9303.000000;0.219415
9302.000000;0.220478
9301.000000;0.221474
9300.000000;0.222503
9299.000000;0.223750
9298.000000;0.225196
9297.000000;0.226550
9296.000000;0.227544
9295.000000;0.228163
9294.000000;0.228578
9293.000000;0.229030
9292.000000;0.229789
9291.000000;0.231023
9290.000000;0.232617
9289.000000;0.234259
9288.000000;0.235745
9287.000000;0.237057
9286.000000;0.238160
9285.000000;0.238966
9284.000000;0.239568
9283.000000;0.240270
9282.000000;0.241248
9281.000000;0.242335
9280.000000;0.243293
9279.000000;0.244149
9278.000000;0.245125
9277.000000;0.246334
9276.000000;0.247676
9275.000000;0.248971
9274.000000;0.250098
9273.000000;0.251042
9272.000000;0.251906
9271.000000;0.252827
9270.000000;0.253857
9269.000000;0.254944
9268.000000;0.256017
9267.000000;0.257010
9266.000000;0.257846
9265.000000;0.258504
9264.000000;0.259128
9263.000000;0.259935
9262.000000;0.260987
9261.000000;0.262137
9260.000000;0.263235
9259.000000;0.264249
9258.000000;0.265211
9257.000000;0.266142
9256.000000;0.267080
9255.000000;0.268044
9254.000000;0.268952
9253.000000;0.269670
9252.000000;0.270203
9251.000000;0.270725
9250.000000;0.271432
9249.000000;0.272412
9248.000000;0.273647
9247.000000;0.274981
9246.000000;0.276127
9245.000000;0.276878
9244.000000;0.277364
9243.000000;0.277963
9242.000000;0.278920
9241.000000;0.280141
9240.000000;0.281388
9239.000000;0.282510
9238.000000;0.283479
9237.000000;0.284346
9236.000000;0.285237
9235.000000;0.286261
9234.000000;0.287348
9233.000000;0.288285
9232.000000;0.288974
9231.000000;0.289565
9230.000000;0.290274
9229.000000;0.291167
9228.000000;0.292145
9227.000000;0.293050
9226.000000;0.293749
9225.000000;0.294215
9224.000000;0.294587
9223.000000;0.295069
9222.000000;0.295760
9221.000000;0.296629
9220.000000;0.297629
9219.000000;0.298700
9218.000000;0.299672
9217.000000;0.300349
9216.000000;0.300755
9215.000000;0.301174
9214.000000;0.301862
9213.000000;0.302777
9212.000000;0.303644
9211.000000;0.304234
9210.000000;0.304589
9209.000000;0.305015
9208.000000;0.305847
9207.000000;0.307125
9206.000000;0.308521
9205.000000;0.309656
9204.000000;0.310452
9203.000000;0.311094
9202.000000;0.311725
9201.000000;0.312352
9200.000000;0.312972
9199.000000;0.313614
9198.000000;0.314231
9197.000000;0.314754
9196.000000;0.315271
9195.000000;0.315977
9194.000000;0.316931
9193.000000;0.317989
9192.000000;0.318999
9191.000000;0.319906
9190.000000;0.320649
9189.000000;0.321184
9188.000000;0.321655
9187.000000;0.322346
9186.000000;0.323331
9185.000000;0.324342
9184.000000;0.325079
9183.000000;0.325528
9182.000000;0.325886
9181.000000;0.326297
9180.000000;0.326788
9179.000000;0.327347
9178.000000;0.327942
9177.000000;0.328515
9176.000000;0.329063
9175.000000;0.329676
9174.000000;0.330426
9173.000000;0.331266
9172.000000;0.332101
9171.000000;0.332895
9170.000000;0.333657
9169.000000;0.334357
9168.000000;0.334931
9167.000000;0.335354
9166.000000;0.335668
9165.000000;0.335955
9164.000000;0.336295
9163.000000;0.336719
9162.000000;0.337186
9161.000000;0.337638
9160.000000;0.338055
9159.000000;0.338466
9158.000000;0.338927
9157.000000;0.339524
9156.000000;0.340327
9155.000000;0.341283
9154.000000;0.342217
9153.000000;0.342990
9152.000000;0.343599
9151.000000;0.344082
9150.000000;0.344419
9149.000000;0.344647
9148.000000;0.344940
9147.000000;0.345419
9146.000000;0.345981
9145.000000;0.346460
9144.000000;0.346892
9143.000000;0.347436
9142.000000;0.348104
9141.000000;0.348780
9140.000000;0.349456
9139.000000;0.350193
9138.000000;0.350864
9137.000000;0.351218
9136.000000;0.351270
9135.000000;0.351396
9134.000000;0.351914
9133.000000;0.352742
9132.000000;0.353576
9131.000000;0.354229
9130.000000;0.354705
9129.000000;0.355069
9128.000000;0.355398
9127.000000;0.355773
9126.000000;0.356224
9125.000000;0.356709
9124.000000;0.357215
9123.000000;0.357774
9122.000000;0.358341
9121.000000;0.358772
9120.000000;0.358993
9119.000000;0.359114
9118.000000;0.359308
9117.000000;0.359657
9116.000000;0.360164
9115.000000;0.360823
9114.000000;0.361582
9113.000000;0.362305
9112.000000;0.362869
9111.000000;0.363282
9110.000000;0.363662
9109.000000;0.364114
9108.000000;0.364652
9107.000000;0.365200
9106.000000;0.365661
9105.000000;0.366019
9104.000000;0.366354
9103.000000;0.366721
9102.000000;0.367043
9101.000000;0.367211
9100.000000;0.367281
9099.000000;0.367446
9098.000000;0.367808
9097.000000;0.368271
9096.000000;0.368696
9095.000000;0.369061
9094.000000;0.369441
9093.000000;0.369894
9092.000000;0.370419
9091.000000;0.370973
9090.000000;0.371472
9089.000000;0.371820
9088.000000;0.371953
9087.000000;0.371897
9086.000000;0.371781
9085.000000;0.371817
9084.000000;0.372184
9083.000000;0.372861
9082.000000;0.373610
9081.000000;0.374169
9080.000000;0.374465
9079.000000;0.374612
9078.000000;0.374794
9077.000000;0.375176
9076.000000;0.375825
9075.000000;0.376595
9074.000000;0.377183
9073.000000;0.377422
9072.000000;0.377475
9071.000000;0.377627
9070.000000;0.377960
9069.000000;0.378352
9068.000000;0.378707
9067.000000;0.379027
9066.000000;0.379293
9065.000000;0.379476
9064.000000;0.379667
9063.000000;0.380035
9062.000000;0.380617
9061.000000;0.381251
9060.000000;0.381751
9059.000000;0.382022
9058.000000;0.382048
9057.000000;0.381875
9056.000000;0.381640
9055.000000;0.381516
9054.000000;0.381596
9053.000000;0.381872
