Criado como novo conjunto de dados;"0307_DANIEL.spp","12782.7 Secs"
cm-1;Abs
10000.000000;0.818821
9999.000000;0.817402
9998.000000;0.815988
9997.000000;0.814578
9996.000000;0.813173
9995.000000;0.811773
9994.000000;0.810376
9993.000000;0.808985
9992.000000;0.807597
9991.000000;0.806217
9990.000000;0.804832
9989.000000;0.803512
9988.000000;0.802415
9987.000000;0.801547
9986.000000;0.800737
9985.000000;0.799827
9984.000000;0.798779
9983.000000;0.797606
9982.000000;0.796281
9981.000000;0.794768
9980.000000;0.793130
9979.000000;0.791551
9978.000000;0.790203
9977.000000;0.789097
9976.000000;0.788078
9975.000000;0.786988
9974.000000;0.785834
9973.000000;0.784766
9972.000000;0.783876
9971.000000;0.783032
9970.000000;0.781967
9969.000000;0.780550
9968.000000;0.778942
9967.000000;0.777468
9966.000000;0.776343
9965.000000;0.775506
9964.000000;0.774706
9963.000000;0.773700
9962.000000;0.772395
9961.000000;0.770854
9960.000000;0.769229
9959.000000;0.767672
9958.000000;0.766292
9957.000000;0.765163
9956.000000;0.764354
9955.000000;0.763856
9954.000000;0.763450
9953.000000;0.762736
9952.000000;0.761446
9951.000000;0.759744
9950.000000;0.758079
9949.000000;0.756712
9948.000000;0.755491
9947.000000;0.754190
9946.000000;0.752895
9945.000000;0.751884
9944.000000;0.751183
9943.000000;0.750463
9942.000000;0.749413
9941.000000;0.748040
9940.000000;0.746536
9939.000000;0.744999
9938.000000;0.743437
9937.000000;0.741923
9936.000000;0.740583
9935.000000;0.739448
9934.000000;0.738442
9933.000000;0.737477
9932.000000;0.736457
9931.000000;0.735211
9930.000000;0.733598
9929.000000;0.731713
9928.000000;0.729866
9927.000000;0.728313
9926.000000;0.727086
9925.000000;0.726113
9924.000000;0.725346
9923.000000;0.724670
9922.000000;0.723849
9921.000000;0.722721
9920.000000;0.721416
9919.000000;0.720197
9918.000000;0.719120
9917.000000;0.717983
9916.000000;0.716631
9915.000000;0.715151
9914.000000;0.713707
9913.000000;0.712334
9912.000000;0.710963
9911.000000;0.709552
9910.000000;0.708071
9909.000000;0.706453
9908.000000;0.704687
9907.000000;0.702937
9906.000000;0.701427
9905.000000;0.700209
9904.000000;0.699132
9903.000000;0.698037
9902.000000;0.696880
9901.000000;0.695651
9900.000000;0.694311
9899.000000;0.692873
9898.000000;0.691452
9897.000000;0.690135
9896.000000;0.688874
9895.000000;0.687604
9894.000000;0.686410
9893.000000;0.685445
9892.000000;0.684672
9891.000000;0.683813
9890.000000;0.682622
9889.000000;0.681128
9888.000000;0.679537
9887.000000;0.677973
9886.000000;0.676380
9885.000000;0.674672
9884.000000;0.672869
9883.000000;0.671083
9882.000000;0.669469
9881.000000;0.668196
9880.000000;0.667363
9879.000000;0.666851
9878.000000;0.666295
9877.000000;0.665310
9876.000000;0.663775
9875.000000;0.661861
9874.000000;0.659830
9873.000000;0.657871
9872.000000;0.656117
9871.000000;0.654682
9870.000000;0.653590
9869.000000;0.652686
9868.000000;0.651680
9867.000000;0.650322
9866.000000;0.648568
9865.000000;0.646599
9864.000000;0.644713
9863.000000;0.643143
9862.000000;0.641938
9861.000000;0.641011
9860.000000;0.640265
9859.000000;0.639629
9858.000000;0.638952
9857.000000;0.637976
9856.000000;0.636510
9855.000000;0.634639
9854.000000;0.632681
9853.000000;0.630940
9852.000000;0.629491
9851.000000;0.628185
9850.000000;0.626820
9849.000000;0.625315
9848.000000;0.623759
9847.000000;0.622296
9846.000000;0.620928
9845.000000;0.619450
9844.000000;0.617624
9843.000000;0.615449
9842.000000;0.613235
9841.000000;0.611395
9840.000000;0.610132
9839.000000;0.609287
9838.000000;0.608452
9837.000000;0.607286
9836.000000;0.605783
9835.000000;0.604237
9834.000000;0.602910
9833.000000;0.601727
9832.000000;0.600346
9831.000000;0.598520
9830.000000;0.596367
9829.000000;0.594290
9828.000000;0.592653
9827.000000;0.591555
9826.000000;0.590804
9825.000000;0.590082
9824.000000;0.589152
9823.000000;0.587953
9822.000000;0.586528
9821.000000;0.584892
9820.000000;0.583033
9819.000000;0.581021
9818.000000;0.579035
9817.000000;0.577214
9816.000000;0.575537
9815.000000;0.573895
9814.000000;0.572222
9813.000000;0.570499
9812.000000;0.568691
9811.000000;0.566797
9810.000000;0.564970
9809.000000;0.563445
9808.000000;0.562269
9807.000000;0.561187
9806.000000;0.559906
9805.000000;0.558428
9804.000000;0.557009
9803.000000;0.555778
9802.000000;0.554532
9801.000000;0.552945
9800.000000;0.550931
9799.000000;0.548741
9798.000000;0.546752
9797.000000;0.545201
9796.000000;0.544060
9795.000000;0.543090
9794.000000;0.542029
9793.000000;0.540778
9792.000000;0.539384
9791.000000;0.537864
9790.000000;0.536150
9789.000000;0.534265
9788.000000;0.532437
9787.000000;0.530901
9786.000000;0.529604
9785.000000;0.528249
9784.000000;0.526610
9783.000000;0.524694
9782.000000;0.522628
9781.000000;0.520528
9780.000000;0.518516
9779.000000;0.516691
9778.000000;0.515021
9777.000000;0.513372
9776.000000;0.511700
9775.000000;0.510118
9774.000000;0.508695
9773.000000;0.507331
9772.000000;0.505913
9771.000000;0.504486
9770.000000;0.503152
9769.000000;0.501875
9768.000000;0.500503
9767.000000;0.498923
9766.000000;0.497101
9765.000000;0.495058
9764.000000;0.492917
9763.000000;0.490906
9762.000000;0.489181
9761.000000;0.487656
9760.000000;0.486116
9759.000000;0.484451
9758.000000;0.482662
9757.000000;0.480723
9756.000000;0.478627
9755.000000;0.476547
9754.000000;0.474754
9753.000000;0.473290
9752.000000;0.471872
9751.000000;0.470201
9750.000000;0.468272
9749.000000;0.466299
9748.000000;0.464450
9747.000000;0.462741
9746.000000;0.461133
9745.000000;0.459621
9744.000000;0.458205
9743.000000;0.456822
9742.000000;0.455326
9741.000000;0.453580
9740.000000;0.451593
9739.000000;0.449549
9738.000000;0.447617
9737.000000;0.445774
9736.000000;0.443860
9735.000000;0.441813
9734.000000;0.439764
9733.000000;0.437899
9732.000000;0.436290
9731.000000;0.434838
9730.000000;0.433306
9729.000000;0.431445
9728.000000;0.429216
9727.000000;0.426921
9726.000000;0.424982
9725.000000;0.423533
9724.000000;0.422300
9723.000000;0.420909
9722.000000;0.419218
9721.000000;0.417316
9720.000000;0.415323
9719.000000;0.413320
9718.000000;0.411385
9717.000000;0.409584
9716.000000;0.407909
9715.000000;0.406265
9714.000000;0.404505
9713.000000;0.402509
9712.000000;0.400283
9711.000000;0.398015
9710.000000;0.395922
9709.000000;0.394026
9708.000000;0.392150
9707.000000;0.390197
9706.000000;0.388286
9705.000000;0.386560
9704.000000;0.384962
9703.000000;0.383343
9702.000000;0.381673
9701.000000;0.380004
9700.000000;0.378281
9699.000000;0.376379
9698.000000;0.374307
9697.000000;0.372210
9696.000000;0.370166
9695.000000;0.368115
9694.000000;0.366034
9693.000000;0.364019
9692.000000;0.362125
9691.000000;0.360257
9690.000000;0.358331
9689.000000;0.356431
9688.000000;0.354665
9687.000000;0.352912
9686.000000;0.350902
9685.000000;0.348569
9684.000000;0.346197
9683.000000;0.344108
9682.000000;0.342299
9681.000000;0.340488
9680.000000;0.338495
9679.000000;0.336430
9678.000000;0.334491
9677.000000;0.332664
9676.000000;0.330739
9675.000000;0.328588
9674.000000;0.326339
9673.000000;0.324232
9672.000000;0.322364
9671.000000;0.320609
9670.000000;0.318772
9669.000000;0.316775
9668.000000;0.314690
9667.000000;0.312626
9666.000000;0.310616
9665.000000;0.308606
9664.000000;0.306525
9663.000000;0.304352
9662.000000;0.302152
9661.000000;0.300062
9660.000000;0.298183
9659.000000;0.296427
9658.000000;0.294525
9657.000000;0.292273
9656.000000;0.289789
9655.000000;0.287424
9654.000000;0.285384
9653.000000;0.283552
9652.000000;0.281696
9651.000000;0.279734
9650.000000;0.277695
9649.000000;0.275552
9648.000000;0.273272
9647.000000;0.270955
9646.000000;0.268759
9645.000000;0.266676
9644.000000;0.264538
9643.000000;0.262250
9642.000000;0.259898
9641.000000;0.257592
9640.000000;0.255344
9639.000000;0.253121
9638.000000;0.250916
9637.000000;0.248722
9636.000000;0.246554
9635.000000;0.244502
9634.000000;0.242650
9633.000000;0.240906
9632.000000;0.239026
9631.000000;0.236879
9630.000000;0.234586
9629.000000;0.232324
9628.000000;0.230132
9627.000000;0.227963
9626.000000;0.225813
9625.000000;0.223699
9624.000000;0.221579
9623.000000;0.219394
9622.000000;0.217112
9621.000000;0.214691
9620.000000;0.212117
9619.000000;0.209523
9618.000000;0.207156
9617.000000;0.205077
9616.000000;0.203051
9615.000000;0.200853
9614.000000;0.198576
9613.000000;0.196458
9612.000000;0.194494
9611.000000;0.192457
9610.000000;0.190240
9609.000000;0.187961
9608.000000;0.185703
9607.000000;0.183388
9606.000000;0.180975
9605.000000;0.178594
9604.000000;0.176351
9603.000000;0.174148
9602.000000;0.171795
9601.000000;0.169254
9600.000000;0.166653
9599.000000;0.164123
9598.000000;0.161694
9597.000000;0.159328
9596.000000;0.156990
9595.000000;0.154695
9594.000000;0.152508
9593.000000;0.150467
9592.000000;0.148520
9591.000000;0.146556
9590.000000;0.144515
9589.000000;0.142393
9588.000000;0.140168
9587.000000;0.137791
9586.000000;0.135296
9585.000000;0.132793
9584.000000;0.130348
9583.000000;0.127930
9582.000000;0.125518
9581.000000;0.123147
9580.000000;0.120809
9579.000000;0.118422
9578.000000;0.115979
9577.000000;0.113633
9576.000000;0.111504
9575.000000;0.109477
9574.000000;0.107301
9573.000000;0.104884
9572.000000;0.102374
9571.000000;0.099949
9570.000000;0.097628
9569.000000;0.095304
9568.000000;0.092871
9567.000000;0.090329
9566.000000;0.087834
9565.000000;0.085640
9564.000000;0.083867
9563.000000;0.082299
9562.000000;0.080507
9561.000000;0.078250
9560.000000;0.075694
9559.000000;0.073187
9558.000000;0.070868
9557.000000;0.068607
9556.000000;0.066249
9555.000000;0.063813
9554.000000;0.061401
9553.000000;0.059021
9552.000000;0.056577
9551.000000;0.054042
9550.000000;0.051580
9549.000000;0.049436
9548.000000;0.047675
9547.000000;0.046059
9546.000000;0.044260
9545.000000;0.042188
9544.000000;0.040046
9543.000000;0.038021
9542.000000;0.036010
9541.000000;0.033742
9540.000000;0.031128
9539.000000;0.028389
9538.000000;0.025824
9537.000000;0.023561
9536.000000;0.021543
9535.000000;0.019656
9534.000000;0.017788
9533.000000;0.015845
9532.000000;0.013783
9531.000000;0.011637
9530.000000;0.009480
9529.000000;0.007358
9528.000000;0.005288
9527.000000;0.003274
9526.000000;0.001286
9525.000000;-0.000743
9524.000000;-0.002853
9523.000000;-0.005018
9522.000000;-0.007183
9521.000000;-0.009318
9520.000000;-0.011407
9519.000000;-0.013423
9518.000000;-0.015353
9517.000000;-0.017202
9516.000000;-0.018960
9515.000000;-0.020608
9514.000000;-0.022210
9513.000000;-0.023898
9512.000000;-0.025715
9511.000000;-0.027542
9510.000000;-0.029274
9509.000000;-0.030992
9508.000000;-0.032845
9507.000000;-0.034808
9506.000000;-0.036692
9505.000000;-0.038398
9504.000000;-0.040035
9503.000000;-0.041746
9502.000000;-0.043547
9501.000000;-0.045362
9500.000000;-0.047126
9499.000000;-0.048792
9498.000000;-0.050322
9497.000000;-0.051714
9496.000000;-0.053007
9495.000000;-0.054248
9494.000000;-0.055528
9493.000000;-0.057019
9492.000000;-0.058845
9491.000000;-0.060858
9490.000000;-0.062682
9489.000000;-0.064058
9488.000000;-0.065088
9487.000000;-0.066072
9486.000000;-0.067173
9485.000000;-0.068335
9484.000000;-0.069461
9483.000000;-0.070569
9482.000000;-0.071775
9481.000000;-0.073148
9480.000000;-0.074602
9479.000000;-0.075910
9478.000000;-0.076897
9477.000000;-0.077620
9476.000000;-0.078316
9475.000000;-0.079176
9474.000000;-0.080231
9473.000000;-0.081436
9472.000000;-0.082755
9471.000000;-0.084100
9470.000000;-0.085316
9469.000000;-0.086299
9468.000000;-0.087087
9467.000000;-0.087773
9466.000000;-0.088398
9465.000000;-0.088951
9464.000000;-0.089422
9463.000000;-0.089801
9462.000000;-0.090131
9461.000000;-0.090588
9460.000000;-0.091376
9459.000000;-0.092464
9458.000000;-0.093531
9457.000000;-0.094283
9456.000000;-0.094732
9455.000000;-0.095074
9454.000000;-0.095402
9453.000000;-0.095665
9452.000000;-0.095830
9451.000000;-0.095912
9450.000000;-0.095896
9449.000000;-0.095779
9448.000000;-0.095670
9447.000000;-0.095695
9446.000000;-0.095832
9445.000000;-0.095951
9444.000000;-0.096042
9443.000000;-0.096247
9442.000000;-0.096655
9441.000000;-0.097164
9440.000000;-0.097577
9439.000000;-0.097748
9438.000000;-0.097636
9437.000000;-0.097306
9436.000000;-0.096912
9435.000000;-0.096604
9434.000000;-0.096409
9433.000000;-0.096237
9432.000000;-0.096015
9431.000000;-0.095746
9430.000000;-0.095480
9429.000000;-0.095266
9428.000000;-0.095134
9427.000000;-0.095045
9426.000000;-0.094851
9425.000000;-0.094387
9424.000000;-0.093630
9423.000000;-0.092748
9422.000000;-0.091997
9421.000000;-0.091558
9420.000000;-0.091407
9419.000000;-0.091291
9418.000000;-0.090910
9417.000000;-0.090208
9416.000000;-0.089419
9415.000000;-0.088768
9414.000000;-0.088217
9413.000000;-0.087624
9412.000000;-0.087026
9411.000000;-0.086553
9410.000000;-0.086110
9409.000000;-0.085427
9408.000000;-0.084457
9407.000000;-0.083485
9406.000000;-0.082728
9405.000000;-0.082045
9404.000000;-0.081199
9403.000000;-0.080230
9402.000000;-0.079348
9401.000000;-0.078567
9400.000000;-0.077717
9399.000000;-0.076773
9398.000000;-0.075928
9397.000000;-0.075264
9396.000000;-0.074573
9395.000000;-0.073661
9394.000000;-0.072662
9393.000000;-0.071861
9392.000000;-0.071257
9391.000000;-0.070510
9390.000000;-0.069372
9389.000000;-0.067995
9388.000000;-0.066716
9387.000000;-0.065649
9386.000000;-0.064626
9385.000000;-0.063503
9384.000000;-0.062347
9383.000000;-0.061283
9382.000000;-0.060298
9381.000000;-0.059296
9380.000000;-0.058251
9379.000000;-0.057228
9378.000000;-0.056251
9377.000000;-0.055244
9376.000000;-0.054104
9375.000000;-0.052827
9374.000000;-0.051542
9373.000000;-0.050408
9372.000000;-0.049444
9371.000000;-0.048473
9370.000000;-0.047315
9369.000000;-0.046043
9368.000000;-0.044937
9367.000000;-0.044133
9366.000000;-0.043418
9365.000000;-0.042453
9364.000000;-0.041147
9363.000000;-0.039691
9362.000000;-0.038288
9361.000000;-0.036985
9360.000000;-0.035737
9359.000000;-0.034492
9358.000000;-0.033196
9357.000000;-0.031816
9356.000000;-0.030423
9355.000000;-0.029148
9354.000000;-0.028014
9353.000000;-0.026887
9352.000000;-0.025640
9351.000000;-0.024298
9350.000000;-0.022982
9349.000000;-0.021750
9348.000000;-0.020574
9347.000000;-0.019428
9346.000000;-0.018299
9345.000000;-0.017135
9344.000000;-0.015863
9343.000000;-0.014499
9342.000000;-0.013183
9341.000000;-0.012047
9340.000000;-0.011075
9339.000000;-0.010123
9338.000000;-0.009082
9337.000000;-0.007962
9336.000000;-0.006813
9335.000000;-0.005632
9334.000000;-0.004394
9333.000000;-0.003122
9332.000000;-0.001868
9331.000000;-0.000646
9330.000000;0.000558
9329.000000;0.001720
9328.000000;0.002792
9327.000000;0.003792
9326.000000;0.004807
9325.000000;0.005913
9324.000000;0.007118
9323.000000;0.008419
9322.000000;0.009804
9321.000000;0.011185
9320.000000;0.012418
9319.000000;0.013443
9318.000000;0.014372
9317.000000;0.015379
9316.000000;0.016537
9315.000000;0.017792
9314.000000;0.019048
9313.000000;0.020215
9312.000000;0.021239
9311.000000;0.022168
9310.000000;0.023158
9309.000000;0.024353
9308.000000;0.025743
9307.000000;0.027182
9306.000000;0.028519
9305.000000;0.029715
9304.000000;0.030847
9303.000000;0.032034
9302.000000;0.033318
9301.000000;0.034595
9300.000000;0.035707
9299.000000;0.036630
9298.000000;0.037537
9297.000000;0.038624
9296.000000;0.039922
9295.000000;0.041294
9294.000000;0.042573
9293.000000;0.043656
9292.000000;0.044532
9291.000000;0.045310
9290.000000;0.046187
9289.000000;0.047305
9288.000000;0.048615
9287.000000;0.049943
9286.000000;0.051152
9285.000000;0.052228
9284.000000;0.053232
9283.000000;0.054218
9282.000000;0.055187
9281.000000;0.056090
9280.000000;0.056903
9279.000000;0.057712
9278.000000;0.058659
9277.000000;0.059776
9276.000000;0.060948
9275.000000;0.062081
9274.000000;0.063207
9273.000000;0.064362
9272.000000;0.065464
9271.000000;0.066441
9270.000000;0.067390
9269.000000;0.068458
9268.000000;0.069584
9267.000000;0.070543
9266.000000;0.071251
9265.000000;0.071899
9264.000000;0.072724
9263.000000;0.073778
9262.000000;0.074959
9261.000000;0.076147
9260.000000;0.077230
9259.000000;0.078125
9258.000000;0.078877
9257.000000;0.079699
9256.000000;0.080795
9255.000000;0.082135
9254.000000;0.083453
9253.000000;0.084497
9252.000000;0.085232
9251.000000;0.085815
9250.000000;0.086425
9249.000000;0.087159
9248.000000;0.088035
9247.000000;0.089049
9246.000000;0.090168
9245.000000;0.091316
9244.000000;0.092385
9243.000000;0.093303
9242.000000;0.094074
9241.000000;0.094784
9240.000000;0.095571
9239.000000;0.096560
9238.000000;0.097745
9237.000000;0.098929
9236.000000;0.099871
9235.000000;0.100526
9234.000000;0.101087
9233.000000;0.101770
9232.000000;0.102623
9231.000000;0.103592
9230.000000;0.104651
9229.000000;0.105772
9228.000000;0.106849
9227.000000;0.107782
9226.000000;0.108619
9225.000000;0.109474
9224.000000;0.110338
9223.000000;0.111083
9222.000000;0.111686
9221.000000;0.112275
9220.000000;0.112947
9219.000000;0.113647
9218.000000;0.114314
9217.000000;0.115023
9216.000000;0.115884
9215.000000;0.116853
9214.000000;0.117778
9213.000000;0.118577
9212.000000;0.119295
9211.000000;0.119989
9210.000000;0.120669
9209.000000;0.121352
9208.000000;0.122100
9207.000000;0.122928
9206.000000;0.123741
9205.000000;0.124401
9204.000000;0.124882
9203.000000;0.125311
9202.000000;0.125857
9201.000000;0.126568
9200.000000;0.127359
9199.000000;0.128130
9198.000000;0.128889
9197.000000;0.129708
9196.000000;0.130602
9195.000000;0.131490
9194.000000;0.132310
9193.000000;0.133113
9192.000000;0.133991
9191.000000;0.134930
9190.000000;0.135806
9189.000000;0.136536
9188.000000;0.137174
9187.000000;0.137821
9186.000000;0.138475
9185.000000;0.139057
9184.000000;0.139558
9183.000000;0.140090
9182.000000;0.140753
9181.000000;0.141507
9180.000000;0.142220
9179.000000;0.142817
9178.000000;0.143336
9177.000000;0.143871
9176.000000;0.144511
9175.000000;0.145295
9174.000000;0.146167
9173.000000;0.146973
9172.000000;0.147588
9171.000000;0.148049
9170.000000;0.148515
9169.000000;0.149080
9168.000000;0.149706
9167.000000;0.150328
9166.000000;0.150931
9165.000000;0.151494
9164.000000;0.151967
9163.000000;0.152378
9162.000000;0.152881
9161.000000;0.153598
9160.000000;0.154446
9159.000000;0.155217
9158.000000;0.155815
9157.000000;0.156338
9156.000000;0.156935
9155.000000;0.157653
9154.000000;0.158423
9153.000000;0.159134
9152.000000;0.159705
9151.000000;0.160117
9150.000000;0.160422
9149.000000;0.160705
9148.000000;0.161039
9147.000000;0.161491
9146.000000;0.162114
9145.000000;0.162891
9144.000000;0.163706
9143.000000;0.164421
9142.000000;0.165012
9141.000000;0.165562
9140.000000;0.166142
9139.000000;0.166723
9138.000000;0.167239
9137.000000;0.167673
9136.000000;0.168086
9135.000000;0.168546
9134.000000;0.169067
9133.000000;0.169600
9132.000000;0.170093
9131.000000;0.170555
9130.000000;0.171050
9129.000000;0.171616
9128.000000;0.172203
9127.000000;0.172709
9126.000000;0.173073
9125.000000;0.173304
9124.000000;0.173468
9123.000000;0.173647
9122.000000;0.173905
9121.000000;0.174250
9120.000000;0.174639
9119.000000;0.175042
9118.000000;0.175488
9117.000000;0.176041
9116.000000;0.176720
9115.000000;0.177448
9114.000000;0.178095
9113.000000;0.178581
9112.000000;0.178962
9111.000000;0.179390
9110.000000;0.179964
9109.000000;0.180616
9108.000000;0.181181
9107.000000;0.181574
9106.000000;0.181863
9105.000000;0.182170
9104.000000;0.182565
9103.000000;0.183066
9102.000000;0.183660
9101.000000;0.184280
9100.000000;0.184831
9099.000000;0.185272
9098.000000;0.185646
9097.000000;0.186006
9096.000000;0.186357
9095.000000;0.186691
9094.000000;0.187020
9093.000000;0.187313
9092.000000;0.187503
9091.000000;0.187587
9090.000000;0.187681
9089.000000;0.187896
9088.000000;0.188199
9087.000000;0.188491
9086.000000;0.188764
9085.000000;0.189127
9084.000000;0.189665
9083.000000;0.190349
9082.000000;0.191050
9081.000000;0.191598
9080.000000;0.191869
9079.000000;0.191895
9078.000000;0.191879
9077.000000;0.192044
9076.000000;0.192460
9075.000000;0.193030
9074.000000;0.193609
9073.000000;0.194080
9072.000000;0.194381
9071.000000;0.194553
9070.000000;0.194744
9069.000000;0.195088
9068.000000;0.195557
9067.000000;0.196017
9066.000000;0.196398
9065.000000;0.196740
9064.000000;0.197090
9063.000000;0.197436
9062.000000;0.197762
