Criado como novo conjunto de dados;"0307_DANIEL.spp","20523.3 Secs"
cm-1;Abs
10000.000000;1.013211
9999.000000;1.011966
9998.000000;1.010749
9997.000000;1.009487
9996.000000;1.008452
9995.000000;1.007558
9994.000000;1.006454
9993.000000;1.005203
9992.000000;1.003991
9991.000000;1.003014
9990.000000;1.002384
9989.000000;1.002128
9988.000000;1.002089
9987.000000;1.001932
9986.000000;1.001310
9985.000000;1.000022
9984.000000;0.998089
9983.000000;0.995790
9982.000000;0.993605
9981.000000;0.991912
9980.000000;0.990671
9979.000000;0.989538
9978.000000;0.988334
9977.000000;0.987277
9976.000000;0.986628
9975.000000;0.986247
9974.000000;0.985650
9973.000000;0.984496
9972.000000;0.982875
9971.000000;0.981118
9970.000000;0.979448
9969.000000;0.977867
9968.000000;0.976322
9967.000000;0.974896
9966.000000;0.973762
9965.000000;0.972945
9964.000000;0.972204
9963.000000;0.971216
9962.000000;0.969920
9961.000000;0.968566
9960.000000;0.967418
9959.000000;0.966467
9958.000000;0.965500
9957.000000;0.964361
9956.000000;0.963061
9955.000000;0.961672
9954.000000;0.960251
9953.000000;0.958895
9952.000000;0.957728
9951.000000;0.956733
9950.000000;0.955679
9949.000000;0.954351
9948.000000;0.952827
9947.000000;0.951405
9946.000000;0.950208
9945.000000;0.949024
9944.000000;0.947630
9943.000000;0.946146
9942.000000;0.944871
9941.000000;0.943848
9940.000000;0.942806
9939.000000;0.941564
9938.000000;0.940262
9937.000000;0.939087
9936.000000;0.937957
9935.000000;0.936661
9934.000000;0.935197
9933.000000;0.933755
9932.000000;0.932420
9931.000000;0.931087
9930.000000;0.929707
9929.000000;0.928411
9928.000000;0.927314
9927.000000;0.926341
9926.000000;0.925342
9925.000000;0.924295
9924.000000;0.923277
9923.000000;0.922275
9922.000000;0.921123
9921.000000;0.919662
9920.000000;0.917905
9919.000000;0.916047
9918.000000;0.914307
9917.000000;0.912780
9916.000000;0.911432
9915.000000;0.910185
9914.000000;0.908941
9913.000000;0.907582
9912.000000;0.906047
9911.000000;0.904493
9910.000000;0.903264
9909.000000;0.902552
9908.000000;0.902100
9907.000000;0.901348
9906.000000;0.899937
9905.000000;0.898014
9904.000000;0.896052
9903.000000;0.894433
9902.000000;0.893223
9901.000000;0.892232
9900.000000;0.891251
9899.000000;0.890230
9898.000000;0.889259
9897.000000;0.888336
9896.000000;0.887222
9895.000000;0.885627
9894.000000;0.883600
9893.000000;0.881589
9892.000000;0.880041
9891.000000;0.878991
9890.000000;0.878097
9889.000000;0.877045
9888.000000;0.875786
9887.000000;0.874387
9886.000000;0.872821
9885.000000;0.871012
9884.000000;0.869071
9883.000000;0.867350
9882.000000;0.866120
9881.000000;0.865217
9880.000000;0.864128
9879.000000;0.862540
9878.000000;0.860727
9877.000000;0.859262
9876.000000;0.858358
9875.000000;0.857619
9874.000000;0.856496
9873.000000;0.854864
9872.000000;0.853045
9871.000000;0.851386
9870.000000;0.849977
9869.000000;0.848745
9868.000000;0.847629
9867.000000;0.846593
9866.000000;0.845545
9865.000000;0.844359
9864.000000;0.842950
9863.000000;0.841299
9862.000000;0.839456
9861.000000;0.837574
9860.000000;0.835874
9859.000000;0.834478
9858.000000;0.833302
9857.000000;0.832159
9856.000000;0.830943
9855.000000;0.829662
9854.000000;0.828301
9853.000000;0.826792
9852.000000;0.825164
9851.000000;0.823603
9850.000000;0.822273
9849.000000;0.821110
9848.000000;0.819856
9847.000000;0.818318
9846.000000;0.816549
9845.000000;0.814776
9844.000000;0.813214
9843.000000;0.811928
9842.000000;0.810826
9841.000000;0.809744
9840.000000;0.808550
9839.000000;0.807208
9838.000000;0.805754
9837.000000;0.804227
9836.000000;0.802634
9835.000000;0.800982
9834.000000;0.799326
9833.000000;0.797706
9832.000000;0.796054
9831.000000;0.794190
9830.000000;0.792050
9829.000000;0.789889
9828.000000;0.788153
9827.000000;0.787024
9826.000000;0.786159
9825.000000;0.785001
9824.000000;0.783332
9823.000000;0.781438
9822.000000;0.779757
9821.000000;0.778483
9820.000000;0.777504
9819.000000;0.776526
9818.000000;0.775228
9817.000000;0.773426
9816.000000;0.771244
9815.000000;0.769015
9814.000000;0.766986
9813.000000;0.765163
9812.000000;0.763480
9811.000000;0.761939
9810.000000;0.760503
9809.000000;0.759016
9808.000000;0.757388
9807.000000;0.755773
9806.000000;0.754400
9805.000000;0.753281
9804.000000;0.752186
9803.000000;0.750861
9802.000000;0.749190
9801.000000;0.747259
9800.000000;0.745345
9799.000000;0.743726
9798.000000;0.742360
9797.000000;0.740865
9796.000000;0.738965
9795.000000;0.736834
9794.000000;0.734833
9793.000000;0.733078
9792.000000;0.731476
9791.000000;0.730023
9790.000000;0.728781
9789.000000;0.727626
9788.000000;0.726313
9787.000000;0.724774
9786.000000;0.723122
9785.000000;0.721410
9784.000000;0.719663
9783.000000;0.718061
9782.000000;0.716741
9781.000000;0.715426
9780.000000;0.713647
9779.000000;0.711402
9778.000000;0.709208
9777.000000;0.707417
9776.000000;0.705840
9775.000000;0.704203
9774.000000;0.702573
9773.000000;0.701088
9772.000000;0.699629
9771.000000;0.698038
9770.000000;0.696388
9769.000000;0.694749
9768.000000;0.692950
9767.000000;0.690915
9766.000000;0.688989
9765.000000;0.687546
9764.000000;0.686399
9763.000000;0.684994
9762.000000;0.683117
9761.000000;0.681058
9760.000000;0.679095
9759.000000;0.677211
9758.000000;0.675375
9757.000000;0.673744
9756.000000;0.672439
9755.000000;0.671300
9754.000000;0.670020
9753.000000;0.668387
9752.000000;0.666388
9751.000000;0.664182
9750.000000;0.662025
9749.000000;0.660099
9748.000000;0.658393
9747.000000;0.656812
9746.000000;0.655329
9745.000000;0.653881
9744.000000;0.652209
9743.000000;0.650064
9742.000000;0.647598
9741.000000;0.645319
9740.000000;0.643597
9739.000000;0.642335
9738.000000;0.641152
9737.000000;0.639718
9736.000000;0.637869
9735.000000;0.635627
9734.000000;0.633238
9733.000000;0.631068
9732.000000;0.629300
9731.000000;0.627773
9730.000000;0.626191
9729.000000;0.624410
9728.000000;0.622468
9727.000000;0.620433
9726.000000;0.618346
9725.000000;0.616304
9724.000000;0.614454
9723.000000;0.612870
9722.000000;0.611480
9721.000000;0.610135
9720.000000;0.608730
9719.000000;0.607231
9718.000000;0.605611
9717.000000;0.603824
9716.000000;0.601879
9715.000000;0.599865
9714.000000;0.597834
9713.000000;0.595688
9712.000000;0.593339
9711.000000;0.590970
9710.000000;0.588983
9709.000000;0.587574
9708.000000;0.586474
9707.000000;0.585220
9706.000000;0.583599
9705.000000;0.581710
9704.000000;0.579685
9703.000000;0.577565
9702.000000;0.575397
9701.000000;0.573258
9700.000000;0.571156
9699.000000;0.569033
9698.000000;0.566931
9697.000000;0.565016
9696.000000;0.563386
9695.000000;0.561934
9694.000000;0.560445
9693.000000;0.558761
9692.000000;0.556809
9691.000000;0.554558
9690.000000;0.552040
9689.000000;0.549413
9688.000000;0.546942
9687.000000;0.544853
9686.000000;0.543158
9685.000000;0.541616
9684.000000;0.539907
9683.000000;0.537881
9682.000000;0.535627
9681.000000;0.533319
9680.000000;0.531082
9679.000000;0.528998
9678.000000;0.527101
9677.000000;0.525294
9676.000000;0.523387
9675.000000;0.521339
9674.000000;0.519348
9673.000000;0.517569
9672.000000;0.515832
9671.000000;0.513831
9670.000000;0.511546
9669.000000;0.509299
9668.000000;0.507350
9667.000000;0.505595
9666.000000;0.503713
9665.000000;0.501518
9664.000000;0.499105
9663.000000;0.496694
9662.000000;0.494371
9661.000000;0.492014
9660.000000;0.489499
9659.000000;0.486949
9658.000000;0.484684
9657.000000;0.482862
9656.000000;0.481270
9655.000000;0.479541
9654.000000;0.477507
9653.000000;0.475249
9652.000000;0.472900
9651.000000;0.470572
9650.000000;0.468371
9649.000000;0.466291
9648.000000;0.464119
9647.000000;0.461669
9646.000000;0.459103
9645.000000;0.456853
9644.000000;0.455146
9643.000000;0.453756
9642.000000;0.452261
9641.000000;0.450427
9640.000000;0.448302
9639.000000;0.446050
9638.000000;0.443769
9637.000000;0.441387
9636.000000;0.438733
9635.000000;0.435808
9634.000000;0.432950
9633.000000;0.430586
9632.000000;0.428788
9631.000000;0.427225
9630.000000;0.425582
9629.000000;0.423841
9628.000000;0.422060
9627.000000;0.420073
9626.000000;0.417641
9625.000000;0.414834
9624.000000;0.412064
9623.000000;0.409728
9622.000000;0.407878
9621.000000;0.406253
9620.000000;0.404509
9619.000000;0.402438
9618.000000;0.400043
9617.000000;0.397465
9616.000000;0.394851
9615.000000;0.392284
9614.000000;0.389806
9613.000000;0.387458
9612.000000;0.385254
9611.000000;0.383158
9610.000000;0.381091
9609.000000;0.378945
9608.000000;0.376587
9607.000000;0.373907
9606.000000;0.370929
9605.000000;0.367880
9604.000000;0.365105
9603.000000;0.362861
9602.000000;0.361144
9601.000000;0.359681
9600.000000;0.358084
9599.000000;0.356071
9598.000000;0.353587
9597.000000;0.350780
9596.000000;0.347927
9595.000000;0.345348
9594.000000;0.343224
9593.000000;0.341444
9592.000000;0.339685
9591.000000;0.337731
9590.000000;0.335629
9589.000000;0.333473
9588.000000;0.331168
9587.000000;0.328576
9586.000000;0.325791
9585.000000;0.323085
9584.000000;0.320596
9583.000000;0.318247
9582.000000;0.315941
9581.000000;0.313656
9580.000000;0.311329
9579.000000;0.308844
9578.000000;0.306210
9577.000000;0.303604
9576.000000;0.301174
9575.000000;0.298921
9574.000000;0.296801
9573.000000;0.294755
9572.000000;0.292615
9571.000000;0.290194
9570.000000;0.287602
9569.000000;0.285246
9568.000000;0.283342
9567.000000;0.281570
9566.000000;0.279463
9565.000000;0.277007
9564.000000;0.274588
9563.000000;0.272403
9562.000000;0.270225
9561.000000;0.267805
9560.000000;0.265236
9559.000000;0.262783
9558.000000;0.260531
9557.000000;0.258349
9556.000000;0.256130
9555.000000;0.253891
9554.000000;0.251679
9553.000000;0.249488
9552.000000;0.247254
9551.000000;0.244900
9550.000000;0.242408
9549.000000;0.239892
9548.000000;0.237551
9547.000000;0.235473
9546.000000;0.233553
9545.000000;0.231646
9544.000000;0.229752
9543.000000;0.227920
9542.000000;0.226045
9541.000000;0.223921
9540.000000;0.221502
9539.000000;0.218953
9538.000000;0.216376
9537.000000;0.213665
9536.000000;0.210774
9535.000000;0.207991
9534.000000;0.205715
9533.000000;0.203973
9532.000000;0.202326
9531.000000;0.200336
9530.000000;0.198018
9529.000000;0.195755
9528.000000;0.193869
9527.000000;0.192317
9526.000000;0.190766
9525.000000;0.188873
9524.000000;0.186540
9523.000000;0.183973
9522.000000;0.181505
9521.000000;0.179353
9520.000000;0.177532
9519.000000;0.175938
9518.000000;0.174429
9517.000000;0.172815
9516.000000;0.170927
9515.000000;0.168764
9514.000000;0.166536
9513.000000;0.164481
9512.000000;0.162674
9511.000000;0.161002
9510.000000;0.159288
9509.000000;0.157408
9508.000000;0.155398
9507.000000;0.153487
9506.000000;0.151894
9505.000000;0.150527
9504.000000;0.148992
9503.000000;0.147030
9502.000000;0.144869
9501.000000;0.142952
9500.000000;0.141387
9499.000000;0.139834
9498.000000;0.137972
9497.000000;0.135915
9496.000000;0.134055
9495.000000;0.132605
9494.000000;0.131416
9493.000000;0.130213
9492.000000;0.128905
9491.000000;0.127618
9490.000000;0.126460
9489.000000;0.125353
9488.000000;0.124135
9487.000000;0.122772
9486.000000;0.121381
9485.000000;0.120032
9484.000000;0.118651
9483.000000;0.117176
9482.000000;0.115706
9481.000000;0.114398
9480.000000;0.113281
9479.000000;0.112270
9478.000000;0.111340
9477.000000;0.110567
9476.000000;0.109971
9475.000000;0.109411
9474.000000;0.108677
9473.000000;0.107678
9472.000000;0.106516
9471.000000;0.105379
9470.000000;0.104344
9469.000000;0.103281
9468.000000;0.102017
9467.000000;0.100623
9466.000000;0.099431
9465.000000;0.098692
9464.000000;0.098267
9463.000000;0.097791
9462.000000;0.097115
9461.000000;0.096456
9460.000000;0.096085
9459.000000;0.095959
9458.000000;0.095742
9457.000000;0.095176
9456.000000;0.094366
9455.000000;0.093658
9454.000000;0.093263
9453.000000;0.093034
9452.000000;0.092661
9451.000000;0.092032
9450.000000;0.091319
9449.000000;0.090750
9448.000000;0.090426
9447.000000;0.090353
9446.000000;0.090500
9445.000000;0.090758
9444.000000;0.090957
9443.000000;0.091033
9442.000000;0.091053
9441.000000;0.091042
9440.000000;0.090900
9439.000000;0.090625
9438.000000;0.090451
9437.000000;0.090608
9436.000000;0.091033
9435.000000;0.091485
9434.000000;0.091866
9433.000000;0.092247
9432.000000;0.092627
9431.000000;0.092889
9430.000000;0.092998
9429.000000;0.093084
9428.000000;0.093280
9427.000000;0.093579
9426.000000;0.093860
9425.000000;0.093997
9424.000000;0.093966
9423.000000;0.093936
9422.000000;0.094196
9421.000000;0.094879
9420.000000;0.095771
9419.000000;0.096548
9418.000000;0.097155
9417.000000;0.097801
9416.000000;0.098598
9415.000000;0.099369
9414.000000;0.099870
9413.000000;0.100051
9412.000000;0.100079
9411.000000;0.100217
9410.000000;0.100690
9409.000000;0.101517
9408.000000;0.102423
9407.000000;0.103050
9406.000000;0.103351
9405.000000;0.103673
9404.000000;0.104404
9403.000000;0.105603
9402.000000;0.107030
9401.000000;0.108421
9400.000000;0.109636
9399.000000;0.110648
9398.000000;0.111488
9397.000000;0.112220
9396.000000;0.112941
9395.000000;0.113763
9394.000000;0.114762
9393.000000;0.115884
9392.000000;0.116951
9391.000000;0.117839
9390.000000;0.118618
9389.000000;0.119417
9388.000000;0.120178
9387.000000;0.120711
9386.000000;0.121023
9385.000000;0.121446
9384.000000;0.122340
9383.000000;0.123739
9382.000000;0.125374
9381.000000;0.126942
9380.000000;0.128272
9379.000000;0.129315
9378.000000;0.130135
9377.000000;0.130930
9376.000000;0.131946
9375.000000;0.133293
9374.000000;0.134851
9373.000000;0.136384
9372.000000;0.137750
9371.000000;0.138955
9370.000000;0.140035
9369.000000;0.140963
9368.000000;0.141745
9367.000000;0.142551
9366.000000;0.143606
9365.000000;0.144918
9364.000000;0.146232
9363.000000;0.147334
9362.000000;0.148323
9361.000000;0.149462
9360.000000;0.150841
9359.000000;0.152303
9358.000000;0.153657
9357.000000;0.154825
9356.000000;0.155835
9355.000000;0.156804
9354.000000;0.157938
9353.000000;0.159371
9352.000000;0.160957
9351.000000;0.162328
9350.000000;0.163241
9349.000000;0.163801
9348.000000;0.164312
9347.000000;0.165012
9346.000000;0.165988
9345.000000;0.167246
9344.000000;0.168750
9343.000000;0.170401
9342.000000;0.172052
9341.000000;0.173546
9340.000000;0.174757
9339.000000;0.175667
9338.000000;0.176434
9337.000000;0.177336
9336.000000;0.178560
9335.000000;0.180070
9334.000000;0.181669
9333.000000;0.183151
9332.000000;0.184381
9331.000000;0.185318
9330.000000;0.186083
9329.000000;0.186939
9328.000000;0.188111
9327.000000;0.189556
9326.000000;0.191000
9325.000000;0.192225
9324.000000;0.193276
9323.000000;0.194322
9322.000000;0.195407
9321.000000;0.196449
9320.000000;0.197466
9319.000000;0.198651
9318.000000;0.200134
9317.000000;0.201776
9316.000000;0.203298
9315.000000;0.204567
9314.000000;0.205632
9313.000000;0.206544
9312.000000;0.207292
9311.000000;0.207948
9310.000000;0.208700
9309.000000;0.209700
9308.000000;0.210944
9307.000000;0.212353
9306.000000;0.213859
9305.000000;0.215353
9304.000000;0.216696
9303.000000;0.217821
9302.000000;0.218780
9301.000000;0.219624
9300.000000;0.220375
9299.000000;0.221175
9298.000000;0.222268
9297.000000;0.223729
9296.000000;0.225299
9295.000000;0.226669
9294.000000;0.227827
9293.000000;0.228963
9292.000000;0.230123
9291.000000;0.231162
9290.000000;0.232015
9289.000000;0.232821
9288.000000;0.233739
9287.000000;0.234777
9286.000000;0.235860
9285.000000;0.236960
9284.000000;0.238101
9283.000000;0.239305
9282.000000;0.240540
9281.000000;0.241694
9280.000000;0.242623
9279.000000;0.243324
9278.000000;0.244010
9277.000000;0.244927
9276.000000;0.246079
9275.000000;0.247251
9274.000000;0.248284
9273.000000;0.249226
9272.000000;0.250178
9271.000000;0.251134
9270.000000;0.252023
9269.000000;0.252833
9268.000000;0.253636
9267.000000;0.254517
9266.000000;0.255503
9265.000000;0.256537
9264.000000;0.257533
9263.000000;0.258480
9262.000000;0.259469
9261.000000;0.260579
9260.000000;0.261746
9259.000000;0.262828
9258.000000;0.263767
9257.000000;0.264626
9256.000000;0.265490
9255.000000;0.266401
9254.000000;0.267364
9253.000000;0.268355
9252.000000;0.269313
9251.000000;0.270204
9250.000000;0.271037
9249.000000;0.271790
9248.000000;0.272390
9247.000000;0.272889
9246.000000;0.273568
9245.000000;0.274679
9244.000000;0.276097
9243.000000;0.277398
9242.000000;0.278325
9241.000000;0.279022
9240.000000;0.279761
9239.000000;0.280625
9238.000000;0.281549
9237.000000;0.282535
9236.000000;0.283643
9235.000000;0.284812
9234.000000;0.285855
9233.000000;0.286637
9232.000000;0.287206
9231.000000;0.287745
9230.000000;0.288436
9229.000000;0.289347
9228.000000;0.290382
9227.000000;0.291331
9226.000000;0.292035
9225.000000;0.292530
9224.000000;0.293037
9223.000000;0.293789
9222.000000;0.294851
9221.000000;0.296075
9220.000000;0.297229
9219.000000;0.298163
9218.000000;0.298868
9217.000000;0.299410
9216.000000;0.299856
9215.000000;0.300277
9214.000000;0.300776
9213.000000;0.301424
9212.000000;0.302190
9211.000000;0.302960
9210.000000;0.303653
9209.000000;0.304301
9208.000000;0.305019
9207.000000;0.305906
9206.000000;0.306924
9205.000000;0.307886
9204.000000;0.308609
9203.000000;0.309117
9202.000000;0.309640
9201.000000;0.310376
9200.000000;0.311322
9199.000000;0.312351
9198.000000;0.313380
9197.000000;0.314383
9196.000000;0.315316
9195.000000;0.316131
9194.000000;0.316836
9193.000000;0.317458
9192.000000;0.317972
9191.000000;0.318373
9190.000000;0.318770
9189.000000;0.319303
9188.000000;0.319958
9187.000000;0.320576
9186.000000;0.321063
9185.000000;0.321525
9184.000000;0.322146
9183.000000;0.322969
9182.000000;0.323818
9181.000000;0.324456
9180.000000;0.324831
9179.000000;0.325170
9178.000000;0.325747
9177.000000;0.326564
9176.000000;0.327338
9175.000000;0.327866
9174.000000;0.328272
9173.000000;0.328813
9172.000000;0.329548
9171.000000;0.330343
9170.000000;0.331106
9169.000000;0.331858
9168.000000;0.332600
9167.000000;0.333265
9166.000000;0.333841
9165.000000;0.334391
9164.000000;0.334960
9163.000000;0.335541
9162.000000;0.336122
9161.000000;0.336668
9160.000000;0.337084
9159.000000;0.337339
9158.000000;0.337593
9157.000000;0.338060
9156.000000;0.338747
9155.000000;0.339459
9154.000000;0.340074
9153.000000;0.340643
9152.000000;0.341223
9151.000000;0.341785
9150.000000;0.342326
9149.000000;0.342924
9148.000000;0.343603
9147.000000;0.344283
9146.000000;0.344910
9145.000000;0.345511
9144.000000;0.346075
9143.000000;0.346518
9142.000000;0.346865
9141.000000;0.347300
9140.000000;0.347941
9139.000000;0.348662
9138.000000;0.349258
9137.000000;0.349691
9136.000000;0.350065
9135.000000;0.350464
9134.000000;0.350913
9133.000000;0.351428
9132.000000;0.351982
9131.000000;0.352495
9130.000000;0.352936
9129.000000;0.353368
9128.000000;0.353816
9127.000000;0.354184
9126.000000;0.354414
9125.000000;0.354647
9124.000000;0.355078
9123.000000;0.355703
9122.000000;0.356356
9121.000000;0.356953
9120.000000;0.357532
9119.000000;0.358073
9118.000000;0.358468
9117.000000;0.358747
9116.000000;0.359157
9115.000000;0.359892
9114.000000;0.360823
9113.000000;0.361621
9112.000000;0.362087
9111.000000;0.362285
9110.000000;0.362389
9109.000000;0.362529
9108.000000;0.362810
9107.000000;0.363331
9106.000000;0.364074
9105.000000;0.364825
9104.000000;0.365302
9103.000000;0.365433
9102.000000;0.365429
9101.000000;0.365559
9100.000000;0.365874
9099.000000;0.366225
9098.000000;0.366497
9097.000000;0.366765
9096.000000;0.367192
9095.000000;0.367830
9094.000000;0.368558
9093.000000;0.369196
9092.000000;0.369663
9091.000000;0.370026
9090.000000;0.370421
9089.000000;0.370909
9088.000000;0.371408
9087.000000;0.371766
9086.000000;0.371905
9085.000000;0.371908
9084.000000;0.371972
9083.000000;0.372273
9082.000000;0.372837
9081.000000;0.373491
9080.000000;0.373994
9079.000000;0.374257
9078.000000;0.374422
9077.000000;0.374693
9076.000000;0.375102
9075.000000;0.375499
9074.000000;0.375741
9073.000000;0.375847
9072.000000;0.375961
9071.000000;0.376221
9070.000000;0.376658
9069.000000;0.377179
9068.000000;0.377635
9067.000000;0.377925
9066.000000;0.378055
9065.000000;0.378104
9064.000000;0.378177
9063.000000;0.378400
9062.000000;0.378862
9061.000000;0.379473
9060.000000;0.379945
9059.000000;0.380044
9058.000000;0.379884
9057.000000;0.379858
9056.000000;0.380238
9055.000000;0.380899
9054.000000;0.381475
9053.000000;0.381699
