Criado como novo conjunto de dados;"0307_DANIEL.spp","28983.5 Secs"
cm-1;Abs
10000.000000;1.137898
9999.000000;1.138368
9998.000000;1.138838
9997.000000;1.139309
9996.000000;1.139783
9995.000000;1.140253
9994.000000;1.140729
9993.000000;1.141196
9992.000000;1.141680
9991.000000;1.142134
9990.000000;1.142660
9989.000000;1.142730
9988.000000;1.141329
9987.000000;1.138619
9986.000000;1.135835
9985.000000;1.134012
9984.000000;1.133208
9983.000000;1.132831
9982.000000;1.132415
9981.000000;1.131948
9980.000000;1.131603
9979.000000;1.131325
9978.000000;1.130768
9977.000000;1.129603
9976.000000;1.127804
9975.000000;1.125646
9974.000000;1.123516
9973.000000;1.121766
9972.000000;1.120575
9971.000000;1.119795
9970.000000;1.119050
9969.000000;1.118147
9968.000000;1.117270
9967.000000;1.116562
9966.000000;1.115643
9965.000000;1.113894
9964.000000;1.111281
9963.000000;1.108574
9962.000000;1.106628
9961.000000;1.105644
9960.000000;1.105232
9959.000000;1.104957
9958.000000;1.104600
9957.000000;1.104026
9956.000000;1.103063
9955.000000;1.101663
9954.000000;1.100069
9953.000000;1.098688
9952.000000;1.097721
9951.000000;1.096934
9950.000000;1.095879
9949.000000;1.094371
9948.000000;1.092665
9947.000000;1.091157
9946.000000;1.090025
9945.000000;1.089196
9944.000000;1.088463
9943.000000;1.087518
9942.000000;1.086089
9941.000000;1.084239
9940.000000;1.082405
9939.000000;1.080906
9938.000000;1.079533
9937.000000;1.077878
9936.000000;1.075967
9935.000000;1.074210
9934.000000;1.072778
9933.000000;1.071377
9932.000000;1.069731
9931.000000;1.067997
9930.000000;1.066506
9929.000000;1.065325
9928.000000;1.064260
9927.000000;1.063163
9926.000000;1.062043
9925.000000;1.060936
9924.000000;1.059820
9923.000000;1.058667
9922.000000;1.057488
9921.000000;1.056309
9920.000000;1.055152
9919.000000;1.054047
9918.000000;1.053038
9917.000000;1.052149
9916.000000;1.051324
9915.000000;1.050431
9914.000000;1.049392
9913.000000;1.048308
9912.000000;1.047316
9911.000000;1.046338
9910.000000;1.045141
9909.000000;1.043694
9908.000000;1.042212
9907.000000;1.040707
9906.000000;1.038788
9905.000000;1.036230
9904.000000;1.033554
9903.000000;1.031622
9902.000000;1.030682
9901.000000;1.030127
9900.000000;1.029210
9899.000000;1.027702
9898.000000;1.025822
9897.000000;1.023918
9896.000000;1.022344
9895.000000;1.021358
9894.000000;1.020872
9893.000000;1.020410
9892.000000;1.019446
9891.000000;1.017778
9890.000000;1.015603
9889.000000;1.013410
9888.000000;1.011779
9887.000000;1.010987
9886.000000;1.010682
9885.000000;1.010151
9884.000000;1.009034
9883.000000;1.007579
9882.000000;1.006096
9881.000000;1.004464
9880.000000;1.002403
9879.000000;1.000035
9878.000000;0.997849
9877.000000;0.996148
9876.000000;0.994785
9875.000000;0.993467
9874.000000;0.992131
9873.000000;0.990902
9872.000000;0.989783
9871.000000;0.988546
9870.000000;0.986974
9869.000000;0.985126
9868.000000;0.983261
9867.000000;0.981483
9866.000000;0.979666
9865.000000;0.977824
9864.000000;0.976371
9863.000000;0.975732
9862.000000;0.975719
9861.000000;0.975558
9860.000000;0.974641
9859.000000;0.973041
9858.000000;0.971190
9857.000000;0.969315
9856.000000;0.967403
9855.000000;0.965555
9854.000000;0.964063
9853.000000;0.963047
9852.000000;0.962212
9851.000000;0.961092
9850.000000;0.959484
9849.000000;0.957577
9848.000000;0.955666
9847.000000;0.953860
9846.000000;0.952148
9845.000000;0.950653
9844.000000;0.949544
9843.000000;0.948658
9842.000000;0.947428
9841.000000;0.945427
9840.000000;0.942900
9839.000000;0.940521
9838.000000;0.938694
9837.000000;0.937302
9836.000000;0.936100
9835.000000;0.935065
9834.000000;0.934242
9833.000000;0.933462
9832.000000;0.932410
9831.000000;0.930947
9830.000000;0.929245
9829.000000;0.927587
9828.000000;0.926053
9827.000000;0.924422
9826.000000;0.922426
9825.000000;0.920108
9824.000000;0.917824
9823.000000;0.915858
9822.000000;0.914188
9821.000000;0.912744
9820.000000;0.911623
9819.000000;0.910808
9818.000000;0.909838
9817.000000;0.908144
9816.000000;0.905761
9815.000000;0.903347
9814.000000;0.901437
9813.000000;0.899972
9812.000000;0.898644
9811.000000;0.897327
9810.000000;0.895988
9809.000000;0.894460
9808.000000;0.892623
9807.000000;0.890707
9806.000000;0.889169
9805.000000;0.888266
9804.000000;0.887801
9803.000000;0.887220
9802.000000;0.885916
9801.000000;0.883649
9800.000000;0.880819
9799.000000;0.878201
9798.000000;0.876270
9797.000000;0.874853
9796.000000;0.873488
9795.000000;0.871991
9794.000000;0.870533
9793.000000;0.869303
9792.000000;0.868277
9791.000000;0.867252
9790.000000;0.865979
9789.000000;0.864306
9788.000000;0.862328
9787.000000;0.860344
9786.000000;0.858592
9785.000000;0.857072
9784.000000;0.855664
9783.000000;0.854309
9782.000000;0.852964
9781.000000;0.851540
9780.000000;0.850042
9779.000000;0.848640
9778.000000;0.847392
9777.000000;0.845992
9776.000000;0.844019
9775.000000;0.841460
9774.000000;0.838772
9773.000000;0.836433
9772.000000;0.834622
9771.000000;0.833305
9770.000000;0.832351
9769.000000;0.831456
9768.000000;0.830202
9767.000000;0.828415
9766.000000;0.826375
9765.000000;0.824525
9764.000000;0.822980
9763.000000;0.821462
9762.000000;0.819670
9761.000000;0.817615
9760.000000;0.815554
9759.000000;0.813650
9758.000000;0.811765
9757.000000;0.809580
9756.000000;0.806995
9755.000000;0.804398
9754.000000;0.802417
9753.000000;0.801304
9752.000000;0.800619
9751.000000;0.799616
9750.000000;0.797955
9749.000000;0.795889
9748.000000;0.793814
9747.000000;0.791836
9746.000000;0.789876
9745.000000;0.787982
9744.000000;0.786303
9743.000000;0.784850
9742.000000;0.783477
9741.000000;0.782074
9740.000000;0.780580
9739.000000;0.778828
9738.000000;0.776646
9737.000000;0.774157
9736.000000;0.771764
9735.000000;0.769678
9734.000000;0.767655
9733.000000;0.765402
9732.000000;0.763113
9731.000000;0.761311
9730.000000;0.760187
9729.000000;0.759318
9728.000000;0.758089
9727.000000;0.756238
9726.000000;0.753929
9725.000000;0.751456
9724.000000;0.749053
9723.000000;0.746917
9722.000000;0.745187
9721.000000;0.743821
9720.000000;0.742578
9719.000000;0.741195
9718.000000;0.739537
9717.000000;0.737519
9716.000000;0.735020
9715.000000;0.732075
9714.000000;0.729132
9713.000000;0.726862
9712.000000;0.725495
9711.000000;0.724476
9710.000000;0.722990
9709.000000;0.720825
9708.000000;0.718499
9707.000000;0.716550
9706.000000;0.714978
9705.000000;0.713473
9704.000000;0.711923
9703.000000;0.710456
9702.000000;0.709101
9701.000000;0.707629
9700.000000;0.705742
9699.000000;0.703359
9698.000000;0.700713
9697.000000;0.698224
9696.000000;0.696205
9695.000000;0.694620
9694.000000;0.693180
9693.000000;0.691663
9692.000000;0.690014
9691.000000;0.688122
9690.000000;0.685751
9689.000000;0.682857
9688.000000;0.679819
9687.000000;0.677123
9686.000000;0.674910
9685.000000;0.673011
9684.000000;0.671306
9683.000000;0.669797
9682.000000;0.668359
9681.000000;0.666689
9680.000000;0.664571
9679.000000;0.662078
9678.000000;0.659466
9677.000000;0.656999
9676.000000;0.654863
9675.000000;0.653080
9674.000000;0.651441
9673.000000;0.649629
9672.000000;0.647490
9671.000000;0.645125
9670.000000;0.642730
9669.000000;0.640439
9668.000000;0.638311
9667.000000;0.636360
9666.000000;0.634530
9665.000000;0.632718
9664.000000;0.630850
9663.000000;0.628903
9662.000000;0.626893
9661.000000;0.624895
9660.000000;0.623033
9659.000000;0.621349
9658.000000;0.619702
9657.000000;0.617878
9656.000000;0.615776
9655.000000;0.613420
9654.000000;0.610845
9653.000000;0.608094
9652.000000;0.605315
9651.000000;0.602707
9650.000000;0.600368
9649.000000;0.598278
9648.000000;0.596413
9647.000000;0.594743
9646.000000;0.593132
9645.000000;0.591372
9644.000000;0.589364
9643.000000;0.587180
9642.000000;0.584921
9641.000000;0.582610
9640.000000;0.580265
9639.000000;0.577973
9638.000000;0.575847
9637.000000;0.573912
9636.000000;0.572065
9635.000000;0.570106
9634.000000;0.567850
9633.000000;0.565307
9632.000000;0.562721
9631.000000;0.560366
9630.000000;0.558290
9629.000000;0.556344
9628.000000;0.554430
9627.000000;0.552579
9626.000000;0.550744
9625.000000;0.548679
9624.000000;0.546177
9623.000000;0.543380
9622.000000;0.540698
9621.000000;0.538350
9620.000000;0.536107
9619.000000;0.533605
9618.000000;0.530852
9617.000000;0.528258
9616.000000;0.526119
9615.000000;0.524225
9614.000000;0.522114
9613.000000;0.519604
9612.000000;0.516910
9611.000000;0.514280
9610.000000;0.511761
9609.000000;0.509350
9608.000000;0.507122
9607.000000;0.505091
9606.000000;0.503098
9605.000000;0.500992
9604.000000;0.498827
9603.000000;0.496729
9602.000000;0.494641
9601.000000;0.492340
9600.000000;0.489689
9599.000000;0.486798
9598.000000;0.483968
9597.000000;0.481532
9596.000000;0.479662
9595.000000;0.478225
9594.000000;0.476829
9593.000000;0.475060
9592.000000;0.472697
9591.000000;0.469780
9590.000000;0.466608
9589.000000;0.463667
9588.000000;0.461323
9587.000000;0.459485
9586.000000;0.457684
9585.000000;0.455548
9584.000000;0.453066
9583.000000;0.450361
9582.000000;0.447450
9581.000000;0.444387
9580.000000;0.441431
9579.000000;0.438867
9578.000000;0.436759
9577.000000;0.435015
9576.000000;0.433542
9575.000000;0.432162
9574.000000;0.430537
9573.000000;0.428390
9572.000000;0.425749
9571.000000;0.422856
9570.000000;0.419941
9569.000000;0.417200
9568.000000;0.414796
9567.000000;0.412667
9566.000000;0.410503
9565.000000;0.408143
9564.000000;0.405815
9563.000000;0.403752
9562.000000;0.401761
9561.000000;0.399498
9560.000000;0.397014
9559.000000;0.394640
9558.000000;0.392406
9557.000000;0.389994
9556.000000;0.387298
9555.000000;0.384623
9554.000000;0.382213
9553.000000;0.379914
9552.000000;0.377491
9551.000000;0.375009
9550.000000;0.372714
9549.000000;0.370694
9548.000000;0.368818
9547.000000;0.366881
9546.000000;0.364707
9545.000000;0.362229
9544.000000;0.359577
9543.000000;0.356995
9542.000000;0.354612
9541.000000;0.352385
9540.000000;0.350270
9539.000000;0.348298
9538.000000;0.346417
9537.000000;0.344439
9536.000000;0.342253
9535.000000;0.339958
9534.000000;0.337683
9533.000000;0.335392
9532.000000;0.332977
9531.000000;0.330494
9530.000000;0.328167
9529.000000;0.326148
9528.000000;0.324341
9527.000000;0.322472
9526.000000;0.320344
9525.000000;0.318036
9524.000000;0.315816
9523.000000;0.313854
9522.000000;0.312093
9521.000000;0.310407
9520.000000;0.308766
9519.000000;0.307107
9518.000000;0.305203
9517.000000;0.302855
9516.000000;0.300217
9515.000000;0.297732
9514.000000;0.295708
9513.000000;0.294087
9512.000000;0.292597
9511.000000;0.291008
9510.000000;0.289248
9509.000000;0.287430
9508.000000;0.285786
9507.000000;0.284433
9506.000000;0.283167
9505.000000;0.281606
9504.000000;0.279580
9503.000000;0.277293
9502.000000;0.275090
9501.000000;0.273176
9500.000000;0.271516
9499.000000;0.269915
9498.000000;0.268193
9497.000000;0.266374
9496.000000;0.264684
9495.000000;0.263266
9494.000000;0.262006
9493.000000;0.260739
9492.000000;0.259521
9491.000000;0.258477
9490.000000;0.257472
9489.000000;0.256179
9488.000000;0.254459
9487.000000;0.252465
9486.000000;0.250420
9485.000000;0.248512
9484.000000;0.246963
9483.000000;0.245873
9482.000000;0.244978
9481.000000;0.243870
9480.000000;0.242534
9479.000000;0.241355
9478.000000;0.240514
9477.000000;0.239704
9476.000000;0.238632
9475.000000;0.237488
9474.000000;0.236638
9473.000000;0.236093
9472.000000;0.235550
9471.000000;0.234837
9470.000000;0.234003
9469.000000;0.233064
9468.000000;0.231944
9467.000000;0.230691
9466.000000;0.229515
9465.000000;0.228563
9464.000000;0.227813
9463.000000;0.227200
9462.000000;0.226737
9461.000000;0.226440
9460.000000;0.226227
9459.000000;0.225916
9458.000000;0.225303
9457.000000;0.224303
9456.000000;0.223075
9455.000000;0.221978
9454.000000;0.221311
9453.000000;0.221089
9452.000000;0.221083
9451.000000;0.221026
9450.000000;0.220760
9449.000000;0.220316
9448.000000;0.219964
9447.000000;0.220071
9446.000000;0.220757
9445.000000;0.221645
9444.000000;0.222103
9443.000000;0.221772
9442.000000;0.220862
9441.000000;0.219920
9440.000000;0.219381
9439.000000;0.219303
9438.000000;0.219443
9437.000000;0.219549
9436.000000;0.219581
9435.000000;0.219688
9434.000000;0.220007
9433.000000;0.220504
9432.000000;0.220999
9431.000000;0.221291
9430.000000;0.221296
9429.000000;0.221127
9428.000000;0.221021
9427.000000;0.221105
9426.000000;0.221229
9425.000000;0.221166
9424.000000;0.220996
9423.000000;0.221124
9422.000000;0.221853
9421.000000;0.223061
9420.000000;0.224379
9419.000000;0.225536
9418.000000;0.226429
9417.000000;0.226966
9416.000000;0.227091
9415.000000;0.226968
9414.000000;0.226970
9413.000000;0.227381
9412.000000;0.228166
9411.000000;0.229051
9410.000000;0.229784
9409.000000;0.230329
9408.000000;0.230870
9407.000000;0.231645
9406.000000;0.232721
9405.000000;0.233908
9404.000000;0.234913
9403.000000;0.235615
9402.000000;0.236170
9401.000000;0.236831
9400.000000;0.237658
9399.000000;0.238431
9398.000000;0.238887
9397.000000;0.239062
9396.000000;0.239346
9395.000000;0.240115
9394.000000;0.241354
9393.000000;0.242695
9392.000000;0.243814
9391.000000;0.244710
9390.000000;0.245578
9389.000000;0.246570
9388.000000;0.247729
9387.000000;0.249007
9386.000000;0.250260
9385.000000;0.251306
9384.000000;0.252123
9383.000000;0.252947
9382.000000;0.254031
9381.000000;0.255342
9380.000000;0.256574
9379.000000;0.257486
9378.000000;0.258113
9377.000000;0.258658
9376.000000;0.259278
9375.000000;0.260040
9374.000000;0.261015
9373.000000;0.262305
9372.000000;0.263944
9371.000000;0.265778
9370.000000;0.267504
9369.000000;0.268863
9368.000000;0.269842
9367.000000;0.270654
9366.000000;0.271498
9365.000000;0.272380
9364.000000;0.273228
9363.000000;0.274120
9362.000000;0.275293
9361.000000;0.276866
9360.000000;0.278628
9359.000000;0.280168
9358.000000;0.281213
9357.000000;0.281803
9356.000000;0.282186
9355.000000;0.282631
9354.000000;0.283346
9353.000000;0.284460
9352.000000;0.285944
9351.000000;0.287568
9350.000000;0.289036
9349.000000;0.290208
9348.000000;0.291189
9347.000000;0.292182
9346.000000;0.293321
9345.000000;0.294621
9344.000000;0.296014
9343.000000;0.297400
9342.000000;0.298717
9341.000000;0.299987
9340.000000;0.301238
9339.000000;0.302392
9338.000000;0.303338
9337.000000;0.304145
9336.000000;0.305099
9335.000000;0.306396
9334.000000;0.307895
9333.000000;0.309256
9332.000000;0.310309
9331.000000;0.311177
9330.000000;0.312093
9329.000000;0.313206
9328.000000;0.314535
9327.000000;0.315984
9326.000000;0.317395
9325.000000;0.318650
9324.000000;0.319750
9323.000000;0.320774
9322.000000;0.321789
9321.000000;0.322845
9320.000000;0.323968
9319.000000;0.325074
9318.000000;0.325974
9317.000000;0.326616
9316.000000;0.327281
9315.000000;0.328377
9314.000000;0.329999
9313.000000;0.331812
9312.000000;0.333374
9311.000000;0.334508
9310.000000;0.335350
9309.000000;0.336152
9308.000000;0.337106
9307.000000;0.338260
9306.000000;0.339540
9305.000000;0.340833
9304.000000;0.342039
9303.000000;0.343053
9302.000000;0.343803
9301.000000;0.344430
9300.000000;0.345313
9299.000000;0.346731
9298.000000;0.348481
9297.000000;0.350011
9296.000000;0.351004
9295.000000;0.351696
9294.000000;0.352572
9293.000000;0.353866
9292.000000;0.355394
9291.000000;0.356777
9290.000000;0.357776
9289.000000;0.358495
9288.000000;0.359277
9287.000000;0.360340
9286.000000;0.361522
9285.000000;0.362501
9284.000000;0.363262
9283.000000;0.364158
9282.000000;0.365460
9281.000000;0.367001
9280.000000;0.368379
9279.000000;0.369367
9278.000000;0.370040
9277.000000;0.370597
9276.000000;0.371189
9275.000000;0.371875
9274.000000;0.372630
9273.000000;0.373433
9272.000000;0.374367
9271.000000;0.375550
9270.000000;0.376945
9269.000000;0.378337
9268.000000;0.379571
9267.000000;0.380712
9266.000000;0.381851
9265.000000;0.382894
9264.000000;0.383684
9263.000000;0.384283
9262.000000;0.384962
9261.000000;0.385900
9260.000000;0.387014
9259.000000;0.388117
9258.000000;0.389132
9257.000000;0.390129
9256.000000;0.391170
9255.000000;0.392185
9254.000000;0.393001
9253.000000;0.393527
9252.000000;0.393909
9251.000000;0.394447
9250.000000;0.395317
9249.000000;0.396405
9248.000000;0.397445
9247.000000;0.398274
9246.000000;0.398940
9245.000000;0.399641
9244.000000;0.400591
9243.000000;0.401885
9242.000000;0.403405
9241.000000;0.404876
9240.000000;0.406066
9239.000000;0.406933
9238.000000;0.407593
9237.000000;0.408202
9236.000000;0.408919
9235.000000;0.409847
9234.000000;0.410907
9233.000000;0.411826
9232.000000;0.412376
9231.000000;0.412643
9230.000000;0.412974
9229.000000;0.413647
9228.000000;0.414642
9227.000000;0.415727
9226.000000;0.416710
9225.000000;0.417571
9224.000000;0.418407
9223.000000;0.419295
9222.000000;0.420220
9221.000000;0.421125
9220.000000;0.421958
9219.000000;0.422648
9218.000000;0.423111
9217.000000;0.423377
9216.000000;0.423725
9215.000000;0.424510
9214.000000;0.425784
9213.000000;0.427172
9212.000000;0.428219
9211.000000;0.428839
9210.000000;0.429335
9209.000000;0.430013
9208.000000;0.430901
9207.000000;0.431809
9206.000000;0.432552
9205.000000;0.433089
9204.000000;0.433502
9203.000000;0.433920
9202.000000;0.434430
9201.000000;0.435045
9200.000000;0.435741
9199.000000;0.436493
9198.000000;0.437251
9197.000000;0.437929
9196.000000;0.438482
9195.000000;0.438966
9194.000000;0.439447
9193.000000;0.439911
9192.000000;0.440331
9191.000000;0.440821
9190.000000;0.441558
9189.000000;0.442526
9188.000000;0.443428
9187.000000;0.443997
9186.000000;0.444323
9185.000000;0.444774
9184.000000;0.445571
9183.000000;0.446553
9182.000000;0.447398
9181.000000;0.448010
9180.000000;0.448600
9179.000000;0.449425
9178.000000;0.450518
9177.000000;0.451676
9176.000000;0.452664
9175.000000;0.453374
9174.000000;0.453837
9173.000000;0.454150
9172.000000;0.454400
9171.000000;0.454632
9170.000000;0.454873
9169.000000;0.455185
9168.000000;0.455687
9167.000000;0.456470
9166.000000;0.457466
9165.000000;0.458445
9164.000000;0.459185
9163.000000;0.459657
9162.000000;0.460011
9161.000000;0.460387
9160.000000;0.460791
9159.000000;0.461179
9158.000000;0.461614
9157.000000;0.462239
9156.000000;0.463085
9155.000000;0.463975
9154.000000;0.464670
9153.000000;0.465079
9152.000000;0.465299
9151.000000;0.465496
9150.000000;0.465822
9149.000000;0.466390
9148.000000;0.467227
9147.000000;0.468204
9146.000000;0.469109
9145.000000;0.469812
9144.000000;0.470340
9143.000000;0.470790
9142.000000;0.471230
9141.000000;0.471696
9140.000000;0.472187
9139.000000;0.472629
9138.000000;0.472902
9137.000000;0.472981
9136.000000;0.472996
9135.000000;0.473109
9134.000000;0.473392
9133.000000;0.473845
9132.000000;0.474472
9131.000000;0.475251
9130.000000;0.476106
9129.000000;0.476975
9128.000000;0.477860
9127.000000;0.478708
9126.000000;0.479313
9125.000000;0.479472
9124.000000;0.479283
9123.000000;0.479138
9122.000000;0.479372
9121.000000;0.479965
9120.000000;0.480628
9119.000000;0.481134
9118.000000;0.481515
9117.000000;0.481939
9116.000000;0.482470
9115.000000;0.482973
9114.000000;0.483281
9113.000000;0.483398
9112.000000;0.483506
9111.000000;0.483775
9110.000000;0.484224
9109.000000;0.484781
9108.000000;0.485386
9107.000000;0.486006
9106.000000;0.486590
9105.000000;0.487098
9104.000000;0.487533
9103.000000;0.487898
9102.000000;0.488171
9101.000000;0.488371
9100.000000;0.488601
9099.000000;0.488964
9098.000000;0.489456
9097.000000;0.490004
9096.000000;0.490554
9095.000000;0.491050
9094.000000;0.491401
9093.000000;0.491586
9092.000000;0.491743
9091.000000;0.492025
9090.000000;0.492378
9089.000000;0.492601
9088.000000;0.492628
9087.000000;0.492669
9086.000000;0.492999
9085.000000;0.493681
9084.000000;0.494529
9083.000000;0.495257
9082.000000;0.495672
9081.000000;0.495805
9080.000000;0.495882
9079.000000;0.496124
9078.000000;0.496526
9077.000000;0.496889
9076.000000;0.497078
9075.000000;0.497167
9074.000000;0.497305
9073.000000;0.497531
9072.000000;0.497799
9071.000000;0.498119
9070.000000;0.498567
9069.000000;0.499133
9068.000000;0.499650
9067.000000;0.499937
9066.000000;0.500000
9065.000000;0.500066
9064.000000;0.500375
9063.000000;0.500974
9062.000000;0.501699
9061.000000;0.502358
9060.000000;0.502851
9059.000000;0.503143
9058.000000;0.503197
9057.000000;0.503039
9056.000000;0.502829
9055.000000;0.502779
9054.000000;0.502981
9053.000000;0.503339
