Criado como novo conjunto de dados;"0307_DANIEL.spp","62645.0 Secs"
cm-1;Abs
10000.000000;0.537668
9999.000000;0.537317
9998.000000;0.536966
9997.000000;0.536615
9996.000000;0.536265
9995.000000;0.535914
9994.000000;0.535567
9993.000000;0.535213
9992.000000;0.534871
9991.000000;0.534509
9990.000000;0.534190
9989.000000;0.533644
9988.000000;0.532549
9987.000000;0.531057
9986.000000;0.529553
9985.000000;0.528413
9984.000000;0.527782
9983.000000;0.527570
9982.000000;0.527487
9981.000000;0.527199
9980.000000;0.526577
9979.000000;0.525767
9978.000000;0.524974
9977.000000;0.524244
9976.000000;0.523470
9975.000000;0.522522
9974.000000;0.521282
9973.000000;0.519715
9972.000000;0.518028
9971.000000;0.516661
9970.000000;0.515922
9969.000000;0.515651
9968.000000;0.515357
9967.000000;0.514705
9966.000000;0.513791
9965.000000;0.512953
9964.000000;0.512427
9963.000000;0.512156
9962.000000;0.511825
9961.000000;0.511086
9960.000000;0.509866
9959.000000;0.508435
9958.000000;0.507111
9957.000000;0.505943
9956.000000;0.504785
9955.000000;0.503629
9954.000000;0.502658
9953.000000;0.501964
9952.000000;0.501410
9951.000000;0.500822
9950.000000;0.500165
9949.000000;0.499454
9948.000000;0.498661
9947.000000;0.497822
9946.000000;0.497082
9945.000000;0.496492
9944.000000;0.495870
9943.000000;0.495026
9942.000000;0.494050
9941.000000;0.493180
9940.000000;0.492450
9939.000000;0.491668
9938.000000;0.490747
9937.000000;0.489856
9936.000000;0.489149
9935.000000;0.488522
9934.000000;0.487736
9933.000000;0.486702
9932.000000;0.485557
9931.000000;0.484505
9930.000000;0.483677
9929.000000;0.483053
9928.000000;0.482447
9927.000000;0.481620
9926.000000;0.480513
9925.000000;0.479335
9924.000000;0.478338
9923.000000;0.477527
9922.000000;0.476673
9921.000000;0.475615
9920.000000;0.474432
9919.000000;0.473331
9918.000000;0.472429
9917.000000;0.471671
9916.000000;0.470896
9915.000000;0.469975
9914.000000;0.468946
9913.000000;0.468025
9912.000000;0.467372
9911.000000;0.466830
9910.000000;0.466016
9909.000000;0.464762
9908.000000;0.463382
9907.000000;0.462371
9906.000000;0.461908
9905.000000;0.461744
9904.000000;0.461539
9903.000000;0.461137
9902.000000;0.460499
9901.000000;0.459525
9900.000000;0.458117
9899.000000;0.456391
9898.000000;0.454712
9897.000000;0.453449
9896.000000;0.452688
9895.000000;0.452192
9894.000000;0.451623
9893.000000;0.450819
9892.000000;0.449855
9891.000000;0.448854
9890.000000;0.447793
9889.000000;0.446562
9888.000000;0.445155
9887.000000;0.443727
9886.000000;0.442434
9885.000000;0.441278
9884.000000;0.440149
9883.000000;0.438979
9882.000000;0.437815
9881.000000;0.436759
9880.000000;0.435869
9879.000000;0.435117
9878.000000;0.434428
9877.000000;0.433735
9876.000000;0.432982
9875.000000;0.432082
9874.000000;0.430961
9873.000000;0.429671
9872.000000;0.428393
9871.000000;0.427269
9870.000000;0.426258
9869.000000;0.425241
9868.000000;0.424203
9867.000000;0.423210
9866.000000;0.422260
9865.000000;0.421300
9864.000000;0.420368
9863.000000;0.419556
9862.000000;0.418794
9861.000000;0.417861
9860.000000;0.416689
9859.000000;0.415503
9858.000000;0.414527
9857.000000;0.413683
9856.000000;0.412708
9855.000000;0.411487
9854.000000;0.410125
9853.000000;0.408776
9852.000000;0.407545
9851.000000;0.406479
9850.000000;0.405496
9849.000000;0.404366
9848.000000;0.402946
9847.000000;0.401440
9846.000000;0.400242
9845.000000;0.399500
9844.000000;0.398958
9843.000000;0.398249
9842.000000;0.397206
9841.000000;0.395885
9840.000000;0.394463
9839.000000;0.393200
9838.000000;0.392339
9837.000000;0.391894
9836.000000;0.391577
9835.000000;0.391018
9834.000000;0.390026
9833.000000;0.388596
9832.000000;0.386828
9831.000000;0.384938
9830.000000;0.383253
9829.000000;0.381994
9828.000000;0.381087
9827.000000;0.380277
9826.000000;0.379399
9825.000000;0.378453
9824.000000;0.377445
9823.000000;0.376337
9822.000000;0.375145
9821.000000;0.373975
9820.000000;0.372903
9819.000000;0.371889
9818.000000;0.370819
9817.000000;0.369583
9816.000000;0.368125
9815.000000;0.366529
9814.000000;0.365056
9813.000000;0.363944
9812.000000;0.363119
9811.000000;0.362215
9810.000000;0.360992
9809.000000;0.359625
9808.000000;0.358446
9807.000000;0.357497
9806.000000;0.356503
9805.000000;0.355257
9804.000000;0.353855
9803.000000;0.352501
9802.000000;0.351247
9801.000000;0.350032
9800.000000;0.348851
9799.000000;0.347728
9798.000000;0.346604
9797.000000;0.345373
9796.000000;0.344031
9795.000000;0.342671
9794.000000;0.341340
9793.000000;0.340021
9792.000000;0.338780
9791.000000;0.337785
9790.000000;0.337068
9789.000000;0.336375
9788.000000;0.335367
9787.000000;0.333972
9786.000000;0.332449
9785.000000;0.331091
9784.000000;0.329934
9783.000000;0.328764
9782.000000;0.327349
9781.000000;0.325642
9780.000000;0.323806
9779.000000;0.322107
9778.000000;0.320772
9777.000000;0.319869
9776.000000;0.319257
9775.000000;0.318608
9774.000000;0.317569
9773.000000;0.316004
9772.000000;0.314103
9771.000000;0.312205
9770.000000;0.310484
9769.000000;0.308858
9768.000000;0.307226
9767.000000;0.305697
9766.000000;0.304462
9765.000000;0.303493
9764.000000;0.302499
9763.000000;0.301242
9762.000000;0.299791
9761.000000;0.298408
9760.000000;0.297219
9759.000000;0.296084
9758.000000;0.294767
9757.000000;0.293178
9756.000000;0.291425
9755.000000;0.289670
9754.000000;0.287988
9753.000000;0.286396
9752.000000;0.284956
9751.000000;0.283768
9750.000000;0.282807
9749.000000;0.281864
9748.000000;0.280725
9747.000000;0.279382
9746.000000;0.277995
9745.000000;0.276672
9744.000000;0.275384
9743.000000;0.274096
9742.000000;0.272852
9741.000000;0.271669
9740.000000;0.270447
9739.000000;0.269085
9738.000000;0.267613
9737.000000;0.266131
9736.000000;0.264664
9735.000000;0.263171
9734.000000;0.261679
9733.000000;0.260264
9732.000000;0.258895
9731.000000;0.257415
9730.000000;0.255747
9729.000000;0.254045
9728.000000;0.252537
9727.000000;0.251249
9726.000000;0.249988
9725.000000;0.248609
9724.000000;0.247171
9723.000000;0.245796
9722.000000;0.244442
9721.000000;0.242933
9720.000000;0.241202
9719.000000;0.239397
9718.000000;0.237695
9717.000000;0.236099
9716.000000;0.234504
9715.000000;0.232924
9714.000000;0.231509
9713.000000;0.230300
9712.000000;0.229071
9711.000000;0.227541
9710.000000;0.225704
9709.000000;0.223854
9708.000000;0.222237
9707.000000;0.220773
9706.000000;0.219207
9705.000000;0.217463
9704.000000;0.215732
9703.000000;0.214172
9702.000000;0.212670
9701.000000;0.211004
9700.000000;0.209207
9699.000000;0.207593
9698.000000;0.206370
9697.000000;0.205370
9696.000000;0.204237
9695.000000;0.202827
9694.000000;0.201298
9693.000000;0.199832
9692.000000;0.198423
9691.000000;0.196947
9690.000000;0.195331
9689.000000;0.193567
9688.000000;0.191678
9687.000000;0.189743
9686.000000;0.187931
9685.000000;0.186383
9684.000000;0.185064
9683.000000;0.183756
9682.000000;0.182238
9681.000000;0.180459
9680.000000;0.178572
9679.000000;0.176832
9678.000000;0.175371
9677.000000;0.174036
9676.000000;0.172469
9675.000000;0.170456
9674.000000;0.168185
9673.000000;0.166084
9672.000000;0.164409
9671.000000;0.163056
9670.000000;0.161763
9669.000000;0.160370
9668.000000;0.158842
9667.000000;0.157131
9666.000000;0.155171
9665.000000;0.152996
9664.000000;0.150783
9663.000000;0.148722
9662.000000;0.146893
9661.000000;0.145252
9660.000000;0.143711
9659.000000;0.142177
9658.000000;0.140564
9657.000000;0.138809
9656.000000;0.136928
9655.000000;0.135026
9654.000000;0.133234
9653.000000;0.131618
9652.000000;0.130127
9651.000000;0.128635
9650.000000;0.126999
9649.000000;0.125108
9648.000000;0.122926
9647.000000;0.120535
9646.000000;0.118136
9645.000000;0.115938
9644.000000;0.114018
9643.000000;0.112262
9642.000000;0.110450
9641.000000;0.108445
9640.000000;0.106341
9639.000000;0.104428
9638.000000;0.102943
9637.000000;0.101793
9636.000000;0.100571
9635.000000;0.098924
9634.000000;0.096897
9633.000000;0.094828
9632.000000;0.092929
9631.000000;0.091072
9630.000000;0.089027
9629.000000;0.086817
9628.000000;0.084702
9627.000000;0.082871
9626.000000;0.081260
9625.000000;0.079698
9624.000000;0.078114
9623.000000;0.076549
9622.000000;0.074992
9621.000000;0.073310
9620.000000;0.071345
9619.000000;0.069065
9618.000000;0.066609
9617.000000;0.064208
9616.000000;0.062057
9615.000000;0.060236
9614.000000;0.058695
9613.000000;0.057281
9612.000000;0.055786
9611.000000;0.054022
9610.000000;0.051922
9609.000000;0.049604
9608.000000;0.047329
9607.000000;0.045349
9606.000000;0.043729
9605.000000;0.042302
9604.000000;0.040805
9603.000000;0.039068
9602.000000;0.037086
9601.000000;0.034942
9600.000000;0.032713
9599.000000;0.030467
9598.000000;0.028298
9597.000000;0.026272
9596.000000;0.024352
9595.000000;0.022413
9594.000000;0.020352
9593.000000;0.018172
9592.000000;0.015963
9591.000000;0.013826
9590.000000;0.011807
9589.000000;0.009875
9588.000000;0.007967
9587.000000;0.006083
9586.000000;0.004297
9585.000000;0.002620
9584.000000;0.000883
9583.000000;-0.001141
9582.000000;-0.003478
9581.000000;-0.005910
9580.000000;-0.008185
9579.000000;-0.010191
9578.000000;-0.011932
9577.000000;-0.013478
9576.000000;-0.015003
9575.000000;-0.016732
9574.000000;-0.018740
9573.000000;-0.020883
9572.000000;-0.022990
9571.000000;-0.025061
9570.000000;-0.027181
9569.000000;-0.029355
9568.000000;-0.031545
9567.000000;-0.033763
9566.000000;-0.035964
9565.000000;-0.037919
9564.000000;-0.039422
9563.000000;-0.040619
9562.000000;-0.041968
9561.000000;-0.043810
9560.000000;-0.046080
9559.000000;-0.048467
9558.000000;-0.050706
9557.000000;-0.052698
9556.000000;-0.054501
9555.000000;-0.056301
9554.000000;-0.058283
9553.000000;-0.060449
9552.000000;-0.062620
9551.000000;-0.064654
9550.000000;-0.066586
9549.000000;-0.068518
9548.000000;-0.070479
9547.000000;-0.072459
9546.000000;-0.074462
9545.000000;-0.076460
9544.000000;-0.078352
9543.000000;-0.080068
9542.000000;-0.081653
9541.000000;-0.083232
9540.000000;-0.084934
9539.000000;-0.086867
9538.000000;-0.089064
9537.000000;-0.091379
9536.000000;-0.093557
9535.000000;-0.095482
9534.000000;-0.097253
9533.000000;-0.098978
9532.000000;-0.100636
9531.000000;-0.102248
9530.000000;-0.104014
9529.000000;-0.106085
9528.000000;-0.108280
9527.000000;-0.110241
9526.000000;-0.111848
9525.000000;-0.113300
9524.000000;-0.114831
9523.000000;-0.116509
9522.000000;-0.118320
9521.000000;-0.120245
9520.000000;-0.122189
9519.000000;-0.123989
9518.000000;-0.125588
9517.000000;-0.127120
9516.000000;-0.128744
9515.000000;-0.130454
9514.000000;-0.132110
9513.000000;-0.133577
9512.000000;-0.134814
9511.000000;-0.135889
9510.000000;-0.136986
9509.000000;-0.138321
9508.000000;-0.140002
9507.000000;-0.141962
9506.000000;-0.144025
9505.000000;-0.145984
9504.000000;-0.147647
9503.000000;-0.148912
9502.000000;-0.149868
9501.000000;-0.150761
9500.000000;-0.151830
9499.000000;-0.153147
9498.000000;-0.154623
9497.000000;-0.156091
9496.000000;-0.157395
9495.000000;-0.158496
9494.000000;-0.159515
9493.000000;-0.160595
9492.000000;-0.161723
9491.000000;-0.162763
9490.000000;-0.163715
9489.000000;-0.164808
9488.000000;-0.166249
9487.000000;-0.167950
9486.000000;-0.169597
9485.000000;-0.170924
9484.000000;-0.171860
9483.000000;-0.172463
9482.000000;-0.172855
9481.000000;-0.173199
9480.000000;-0.173621
9479.000000;-0.174131
9478.000000;-0.174644
9477.000000;-0.175130
9476.000000;-0.175702
9475.000000;-0.176532
9474.000000;-0.177670
9473.000000;-0.178930
9472.000000;-0.179979
9471.000000;-0.180603
9470.000000;-0.180930
9469.000000;-0.181339
9468.000000;-0.182078
9467.000000;-0.183011
9466.000000;-0.183777
9465.000000;-0.184161
9464.000000;-0.184241
9463.000000;-0.184232
9462.000000;-0.184281
9461.000000;-0.184425
9460.000000;-0.184630
9459.000000;-0.184832
9458.000000;-0.184978
9457.000000;-0.185085
9456.000000;-0.185223
9455.000000;-0.185454
9454.000000;-0.185796
9453.000000;-0.186227
9452.000000;-0.186672
9451.000000;-0.186985
9450.000000;-0.187030
9449.000000;-0.186809
9448.000000;-0.186482
9447.000000;-0.186234
9446.000000;-0.186133
9445.000000;-0.186117
9444.000000;-0.186068
9443.000000;-0.185905
9442.000000;-0.185632
9441.000000;-0.185306
9440.000000;-0.184952
9439.000000;-0.184529
9438.000000;-0.184023
9437.000000;-0.183534
9436.000000;-0.183177
9435.000000;-0.182914
9434.000000;-0.182578
9433.000000;-0.182119
9432.000000;-0.181695
9431.000000;-0.181435
9430.000000;-0.181201
9429.000000;-0.180714
9428.000000;-0.179892
9427.000000;-0.178949
9426.000000;-0.178134
9425.000000;-0.177466
9424.000000;-0.176792
9423.000000;-0.176033
9422.000000;-0.175261
9421.000000;-0.174556
9420.000000;-0.173886
9419.000000;-0.173187
9418.000000;-0.172495
9417.000000;-0.171889
9416.000000;-0.171334
9415.000000;-0.170670
9414.000000;-0.169813
9413.000000;-0.168892
9412.000000;-0.168090
9411.000000;-0.167386
9410.000000;-0.166565
9409.000000;-0.165485
9408.000000;-0.164232
9407.000000;-0.162974
9406.000000;-0.161759
9405.000000;-0.160541
9404.000000;-0.159366
9403.000000;-0.158391
9402.000000;-0.157686
9401.000000;-0.157080
9400.000000;-0.156261
9399.000000;-0.155061
9398.000000;-0.153630
9397.000000;-0.152279
9396.000000;-0.151152
9395.000000;-0.150107
9394.000000;-0.148935
9393.000000;-0.147647
9392.000000;-0.146423
9391.000000;-0.145338
9390.000000;-0.144240
9389.000000;-0.142980
9388.000000;-0.141637
9387.000000;-0.140396
9386.000000;-0.139267
9385.000000;-0.138046
9384.000000;-0.136578
9383.000000;-0.134970
9382.000000;-0.133483
9381.000000;-0.132282
9380.000000;-0.131329
9379.000000;-0.130472
9378.000000;-0.129572
9377.000000;-0.128498
9376.000000;-0.127092
9375.000000;-0.125238
9374.000000;-0.123031
9373.000000;-0.120824
9372.000000;-0.119033
9371.000000;-0.117833
9370.000000;-0.117051
9369.000000;-0.116339
9368.000000;-0.115428
9367.000000;-0.114221
9366.000000;-0.112736
9365.000000;-0.111053
9364.000000;-0.109304
9363.000000;-0.107656
9362.000000;-0.106221
9361.000000;-0.104977
9360.000000;-0.103773
9359.000000;-0.102438
9358.000000;-0.100882
9357.000000;-0.099138
9356.000000;-0.097329
9355.000000;-0.095604
9354.000000;-0.094055
9353.000000;-0.092652
9352.000000;-0.091258
9351.000000;-0.089773
9350.000000;-0.088287
9349.000000;-0.087036
9348.000000;-0.086147
9347.000000;-0.085453
9346.000000;-0.084574
9345.000000;-0.083194
9344.000000;-0.081249
9343.000000;-0.078926
9342.000000;-0.076567
9341.000000;-0.074523
9340.000000;-0.072978
9339.000000;-0.071874
9338.000000;-0.071004
9337.000000;-0.070187
9336.000000;-0.069295
9335.000000;-0.068190
9334.000000;-0.066758
9333.000000;-0.065032
9332.000000;-0.063196
9331.000000;-0.061423
9330.000000;-0.059774
9329.000000;-0.058259
9328.000000;-0.056883
9327.000000;-0.055579
9326.000000;-0.054188
9325.000000;-0.052602
9324.000000;-0.050866
9323.000000;-0.049098
9322.000000;-0.047372
9321.000000;-0.045758
9320.000000;-0.044398
9319.000000;-0.043393
9318.000000;-0.042653
9317.000000;-0.041932
9316.000000;-0.041035
9315.000000;-0.039895
9314.000000;-0.038494
9313.000000;-0.036851
9312.000000;-0.035091
9311.000000;-0.033417
9310.000000;-0.031932
9309.000000;-0.030538
9308.000000;-0.029079
9307.000000;-0.027540
9306.000000;-0.026038
9305.000000;-0.024649
9304.000000;-0.023323
9303.000000;-0.021982
9302.000000;-0.020653
9301.000000;-0.019441
9300.000000;-0.018363
9299.000000;-0.017257
9298.000000;-0.015902
9297.000000;-0.014233
9296.000000;-0.012414
9295.000000;-0.010709
9294.000000;-0.009298
9293.000000;-0.008208
9292.000000;-0.007319
9291.000000;-0.006434
9290.000000;-0.005388
9289.000000;-0.004140
9288.000000;-0.002762
9287.000000;-0.001332
9286.000000;0.000084
9285.000000;0.001396
9284.000000;0.002528
9283.000000;0.003552
9282.000000;0.004665
9281.000000;0.005976
9280.000000;0.007389
9279.000000;0.008765
9278.000000;0.010086
9277.000000;0.011385
9276.000000;0.012627
9275.000000;0.013801
9274.000000;0.015022
9273.000000;0.016366
9272.000000;0.017678
9271.000000;0.018764
9270.000000;0.019724
9269.000000;0.020865
9268.000000;0.022270
9267.000000;0.023700
9266.000000;0.024978
9265.000000;0.026225
9264.000000;0.027588
9263.000000;0.028982
9262.000000;0.030271
9261.000000;0.031519
9260.000000;0.032849
9259.000000;0.034156
9258.000000;0.035221
9257.000000;0.036053
9256.000000;0.036914
9255.000000;0.038000
9254.000000;0.039264
9253.000000;0.040553
9252.000000;0.041780
9251.000000;0.042948
9250.000000;0.044101
9249.000000;0.045273
9248.000000;0.046384
9247.000000;0.047239
9246.000000;0.047767
9245.000000;0.048220
9244.000000;0.048980
9243.000000;0.050156
9242.000000;0.051533
9241.000000;0.052933
9240.000000;0.054412
9239.000000;0.056039
9238.000000;0.057671
9237.000000;0.059080
9236.000000;0.060188
9235.000000;0.061056
9234.000000;0.061744
9233.000000;0.062331
9232.000000;0.063003
9231.000000;0.063955
9230.000000;0.065208
9229.000000;0.066603
9228.000000;0.067955
9227.000000;0.069127
9226.000000;0.070015
9225.000000;0.070611
9224.000000;0.071125
9223.000000;0.071900
9222.000000;0.073107
9221.000000;0.074564
9220.000000;0.075914
9219.000000;0.076963
9218.000000;0.077836
9217.000000;0.078810
9216.000000;0.080017
9215.000000;0.081306
9214.000000;0.082382
9213.000000;0.083098
9212.000000;0.083625
9211.000000;0.084311
9210.000000;0.085388
9209.000000;0.086786
9208.000000;0.088225
9207.000000;0.089445
9206.000000;0.090376
9205.000000;0.091116
9204.000000;0.091779
9203.000000;0.092383
9202.000000;0.092891
9201.000000;0.093371
9200.000000;0.094023
9199.000000;0.095002
9198.000000;0.096215
9197.000000;0.097372
9196.000000;0.098248
9195.000000;0.098890
9194.000000;0.099545
9193.000000;0.100419
9192.000000;0.101519
9191.000000;0.102669
9190.000000;0.103653
9189.000000;0.104380
9188.000000;0.104968
9187.000000;0.105667
9186.000000;0.106643
9185.000000;0.107809
9184.000000;0.108887
9183.000000;0.109686
9182.000000;0.110303
9181.000000;0.111014
9180.000000;0.111996
9179.000000;0.113195
9178.000000;0.114447
9177.000000;0.115634
9176.000000;0.116700
9175.000000;0.117592
9174.000000;0.118297
9173.000000;0.118914
9172.000000;0.119617
9171.000000;0.120493
9170.000000;0.121450
9169.000000;0.122304
9168.000000;0.122963
9167.000000;0.123499
9166.000000;0.124080
9165.000000;0.124827
9164.000000;0.125730
9163.000000;0.126668
9162.000000;0.127507
9161.000000;0.128182
9160.000000;0.128709
9159.000000;0.129166
9158.000000;0.129656
9157.000000;0.130269
9156.000000;0.131041
9155.000000;0.131942
9154.000000;0.132919
9153.000000;0.133940
9152.000000;0.134989
9151.000000;0.136035
9150.000000;0.137027
9149.000000;0.137894
9148.000000;0.138559
9147.000000;0.138986
9146.000000;0.139233
9145.000000;0.139464
9144.000000;0.139855
9143.000000;0.140488
9142.000000;0.141315
9141.000000;0.142204
9140.000000;0.143034
9139.000000;0.143777
9138.000000;0.144518
9137.000000;0.145334
9136.000000;0.146149
9135.000000;0.146793
9134.000000;0.147215
9133.000000;0.147578
9132.000000;0.148086
9131.000000;0.148795
9130.000000;0.149642
9129.000000;0.150565
9128.000000;0.151480
9127.000000;0.152226
9126.000000;0.152690
9125.000000;0.152997
9124.000000;0.153434
9123.000000;0.154147
9122.000000;0.155015
9121.000000;0.155841
9120.000000;0.156579
9119.000000;0.157297
9118.000000;0.158014
9117.000000;0.158653
9116.000000;0.159161
9115.000000;0.159631
9114.000000;0.160224
9113.000000;0.160966
9112.000000;0.161660
9111.000000;0.162115
9110.000000;0.162459
9109.000000;0.163065
9108.000000;0.164089
9107.000000;0.165218
9106.000000;0.166020
9105.000000;0.166442
9104.000000;0.166769
9103.000000;0.167182
9102.000000;0.167614
9101.000000;0.168038
9100.000000;0.168628
9099.000000;0.169497
9098.000000;0.170471
9097.000000;0.171281
9096.000000;0.171857
9095.000000;0.172322
9094.000000;0.172766
9093.000000;0.173175
9092.000000;0.173540
9091.000000;0.173928
9090.000000;0.174433
9089.000000;0.175089
9088.000000;0.175812
9087.000000;0.176421
9086.000000;0.176779
9085.000000;0.176931
9084.000000;0.177057
9083.000000;0.177298
9082.000000;0.177689
9081.000000;0.178235
9080.000000;0.178919
9079.000000;0.179639
9078.000000;0.180262
9077.000000;0.180790
9076.000000;0.181341
9075.000000;0.181960
9074.000000;0.182573
9073.000000;0.183150
9072.000000;0.183744
9071.000000;0.184337
9070.000000;0.184821
9069.000000;0.185195
9068.000000;0.185603
9067.000000;0.186074
