Criado como novo conjunto de dados;"0307_DANIEL.spp","11522.3 Secs"
cm-1;Abs
10000.000000;0.696759
9999.000000;0.695269
9998.000000;0.693783
9997.000000;0.692303
9996.000000;0.690827
9995.000000;0.689357
9994.000000;0.687890
9993.000000;0.686431
9992.000000;0.684973
9991.000000;0.683526
9990.000000;0.682072
9989.000000;0.680683
9988.000000;0.679452
9987.000000;0.678388
9986.000000;0.677490
9985.000000;0.676738
9984.000000;0.676024
9983.000000;0.675124
9982.000000;0.673886
9981.000000;0.672422
9980.000000;0.671029
9979.000000;0.669914
9978.000000;0.669028
9977.000000;0.668151
9976.000000;0.667080
9975.000000;0.665781
9974.000000;0.664421
9973.000000;0.663211
9972.000000;0.662132
9971.000000;0.660887
9970.000000;0.659229
9969.000000;0.657329
9968.000000;0.655696
9967.000000;0.654694
9966.000000;0.654203
9965.000000;0.653747
9964.000000;0.652889
9963.000000;0.651509
9962.000000;0.649796
9961.000000;0.648066
9960.000000;0.646560
9959.000000;0.645352
9958.000000;0.644383
9957.000000;0.643544
9956.000000;0.642724
9955.000000;0.641817
9954.000000;0.640724
9953.000000;0.639385
9952.000000;0.637836
9951.000000;0.636229
9950.000000;0.634734
9949.000000;0.633393
9948.000000;0.632131
9947.000000;0.630923
9946.000000;0.629885
9945.000000;0.629074
9944.000000;0.628287
9943.000000;0.627202
9942.000000;0.625752
9941.000000;0.624206
9940.000000;0.622857
9939.000000;0.621749
9938.000000;0.620736
9937.000000;0.619669
9936.000000;0.618447
9935.000000;0.617026
9934.000000;0.615479
9933.000000;0.613985
9932.000000;0.612696
9931.000000;0.611642
9930.000000;0.610764
9929.000000;0.609931
9928.000000;0.608907
9927.000000;0.607497
9926.000000;0.605798
9925.000000;0.604165
9924.000000;0.602821
9923.000000;0.601633
9922.000000;0.600403
9921.000000;0.599203
9920.000000;0.598232
9919.000000;0.597444
9918.000000;0.596544
9917.000000;0.595336
9916.000000;0.593885
9915.000000;0.592358
9914.000000;0.590870
9913.000000;0.589502
9912.000000;0.588302
9911.000000;0.587201
9910.000000;0.586034
9909.000000;0.584690
9908.000000;0.583172
9907.000000;0.581526
9906.000000;0.579809
9905.000000;0.578145
9904.000000;0.576669
9903.000000;0.575408
9902.000000;0.574296
9901.000000;0.573297
9900.000000;0.572398
9899.000000;0.571471
9898.000000;0.570316
9897.000000;0.568928
9896.000000;0.567569
9895.000000;0.566471
9894.000000;0.565532
9893.000000;0.564425
9892.000000;0.562987
9891.000000;0.561381
9890.000000;0.559887
9889.000000;0.558601
9888.000000;0.557361
9887.000000;0.555920
9886.000000;0.554179
9885.000000;0.552294
9884.000000;0.550590
9883.000000;0.549334
9882.000000;0.548529
9881.000000;0.547894
9880.000000;0.547032
9879.000000;0.545704
9878.000000;0.543974
9877.000000;0.542134
9876.000000;0.540455
9875.000000;0.538997
9874.000000;0.537634
9873.000000;0.536228
9872.000000;0.534758
9871.000000;0.533303
9870.000000;0.531950
9869.000000;0.530724
9868.000000;0.529583
9867.000000;0.528454
9866.000000;0.527255
9865.000000;0.525911
9864.000000;0.524376
9863.000000;0.522680
9862.000000;0.520932
9861.000000;0.519250
9860.000000;0.517690
9859.000000;0.516244
9858.000000;0.514891
9857.000000;0.513618
9856.000000;0.512407
9855.000000;0.511223
9854.000000;0.510026
9853.000000;0.508745
9852.000000;0.507307
9851.000000;0.505753
9850.000000;0.504263
9849.000000;0.502983
9848.000000;0.501797
9847.000000;0.500418
9846.000000;0.498722
9845.000000;0.496882
9844.000000;0.495141
9843.000000;0.493546
9842.000000;0.492033
9841.000000;0.490634
9840.000000;0.489470
9839.000000;0.488534
9838.000000;0.487605
9837.000000;0.486419
9836.000000;0.484860
9835.000000;0.482998
9834.000000;0.481025
9833.000000;0.479164
9832.000000;0.477574
9831.000000;0.476276
9830.000000;0.475159
9829.000000;0.474067
9828.000000;0.472870
9827.000000;0.471491
9826.000000;0.469903
9825.000000;0.468132
9824.000000;0.466271
9823.000000;0.464475
9822.000000;0.462925
9821.000000;0.461703
9820.000000;0.460691
9819.000000;0.459641
9818.000000;0.458360
9817.000000;0.456818
9816.000000;0.455091
9815.000000;0.453299
9814.000000;0.451615
9813.000000;0.450184
9812.000000;0.448923
9811.000000;0.447506
9810.000000;0.445686
9809.000000;0.443610
9808.000000;0.441691
9807.000000;0.440189
9806.000000;0.439005
9805.000000;0.437855
9804.000000;0.436523
9803.000000;0.434951
9802.000000;0.433215
9801.000000;0.431468
9800.000000;0.429825
9799.000000;0.428250
9798.000000;0.426605
9797.000000;0.424860
9796.000000;0.423191
9795.000000;0.421793
9794.000000;0.420627
9793.000000;0.419416
9792.000000;0.417902
9791.000000;0.416077
9790.000000;0.414155
9789.000000;0.412334
9788.000000;0.410613
9787.000000;0.408865
9786.000000;0.407074
9785.000000;0.405431
9784.000000;0.404101
9783.000000;0.402947
9782.000000;0.401583
9781.000000;0.399784
9780.000000;0.397752
9779.000000;0.395900
9778.000000;0.394384
9777.000000;0.392975
9776.000000;0.391397
9775.000000;0.389676
9774.000000;0.388054
9773.000000;0.386626
9772.000000;0.385199
9771.000000;0.383546
9770.000000;0.381684
9769.000000;0.379821
9768.000000;0.378093
9767.000000;0.376452
9766.000000;0.374793
9765.000000;0.373097
9764.000000;0.371419
9763.000000;0.369830
9762.000000;0.368360
9761.000000;0.366968
9760.000000;0.365535
9759.000000;0.363951
9758.000000;0.362208
9757.000000;0.360378
9756.000000;0.358512
9755.000000;0.356619
9754.000000;0.354739
9753.000000;0.352955
9752.000000;0.351296
9751.000000;0.349691
9750.000000;0.348050
9749.000000;0.346339
9748.000000;0.344576
9747.000000;0.342809
9746.000000;0.341108
9745.000000;0.339484
9744.000000;0.337827
9743.000000;0.335995
9742.000000;0.333988
9741.000000;0.331931
9740.000000;0.329891
9739.000000;0.327849
9738.000000;0.325893
9737.000000;0.324262
9736.000000;0.323069
9735.000000;0.322076
9734.000000;0.320890
9733.000000;0.319314
9732.000000;0.317417
9731.000000;0.315357
9730.000000;0.313285
9729.000000;0.311343
9728.000000;0.309576
9727.000000;0.307841
9726.000000;0.305939
9725.000000;0.303839
9724.000000;0.301683
9723.000000;0.299588
9722.000000;0.297576
9721.000000;0.295682
9720.000000;0.293975
9719.000000;0.292448
9718.000000;0.290978
9717.000000;0.289440
9716.000000;0.287799
9715.000000;0.286074
9714.000000;0.284307
9713.000000;0.282562
9712.000000;0.280872
9711.000000;0.279160
9710.000000;0.277296
9709.000000;0.275251
9708.000000;0.273121
9707.000000;0.271021
9706.000000;0.269003
9705.000000;0.267081
9704.000000;0.265205
9703.000000;0.263232
9702.000000;0.261051
9701.000000;0.258758
9700.000000;0.256582
9699.000000;0.254607
9698.000000;0.252695
9697.000000;0.250731
9696.000000;0.248797
9695.000000;0.247021
9694.000000;0.245361
9693.000000;0.243662
9692.000000;0.241863
9691.000000;0.240014
9690.000000;0.238160
9689.000000;0.236294
9688.000000;0.234417
9687.000000;0.232547
9686.000000;0.230663
9685.000000;0.228714
9684.000000;0.226687
9683.000000;0.224615
9682.000000;0.222525
9681.000000;0.220413
9680.000000;0.218273
9679.000000;0.216122
9678.000000;0.214007
9677.000000;0.211992
9676.000000;0.210087
9675.000000;0.208209
9674.000000;0.206239
9673.000000;0.204157
9672.000000;0.202049
9671.000000;0.199969
9670.000000;0.197897
9669.000000;0.195838
9668.000000;0.193860
9667.000000;0.191946
9666.000000;0.189932
9665.000000;0.187711
9664.000000;0.185421
9663.000000;0.183295
9662.000000;0.181372
9661.000000;0.179523
9660.000000;0.177688
9659.000000;0.175923
9658.000000;0.174174
9657.000000;0.172214
9656.000000;0.169896
9655.000000;0.167358
9654.000000;0.164900
9653.000000;0.162724
9652.000000;0.160869
9651.000000;0.159263
9650.000000;0.157750
9649.000000;0.156109
9648.000000;0.154179
9647.000000;0.151955
9646.000000;0.149543
9645.000000;0.147068
9644.000000;0.144676
9643.000000;0.142510
9642.000000;0.140562
9641.000000;0.138617
9640.000000;0.136452
9639.000000;0.134096
9638.000000;0.131785
9637.000000;0.129654
9636.000000;0.127600
9635.000000;0.125455
9634.000000;0.123180
9633.000000;0.120844
9632.000000;0.118511
9631.000000;0.116213
9630.000000;0.113994
9629.000000;0.111878
9628.000000;0.109813
9627.000000;0.107706
9626.000000;0.105513
9625.000000;0.103296
9624.000000;0.101191
9623.000000;0.099293
9622.000000;0.097530
9621.000000;0.095660
9620.000000;0.093470
9619.000000;0.091002
9618.000000;0.088505
9617.000000;0.086154
9616.000000;0.083901
9615.000000;0.081654
9614.000000;0.079457
9613.000000;0.077386
9612.000000;0.075340
9611.000000;0.073122
9610.000000;0.070706
9609.000000;0.068282
9608.000000;0.065996
9607.000000;0.063793
9606.000000;0.061545
9605.000000;0.059237
9604.000000;0.056916
9603.000000;0.054555
9602.000000;0.052094
9601.000000;0.049597
9600.000000;0.047238
9599.000000;0.045093
9598.000000;0.043007
9597.000000;0.040753
9596.000000;0.038283
9595.000000;0.035794
9594.000000;0.033506
9593.000000;0.031416
9592.000000;0.029311
9591.000000;0.027039
9590.000000;0.024695
9589.000000;0.022475
9588.000000;0.020406
9587.000000;0.018312
9586.000000;0.016047
9585.000000;0.013650
9584.000000;0.011218
9583.000000;0.008757
9582.000000;0.006249
9581.000000;0.003790
9580.000000;0.001545
9579.000000;-0.000461
9578.000000;-0.002420
9577.000000;-0.004581
9576.000000;-0.007025
9575.000000;-0.009597
9574.000000;-0.012042
9573.000000;-0.014237
9572.000000;-0.016324
9571.000000;-0.018579
9570.000000;-0.021114
9569.000000;-0.023746
9568.000000;-0.026204
9567.000000;-0.028422
9566.000000;-0.030536
9565.000000;-0.032668
9564.000000;-0.034805
9563.000000;-0.036912
9562.000000;-0.039025
9561.000000;-0.041192
9560.000000;-0.043417
9559.000000;-0.045693
9558.000000;-0.048019
9557.000000;-0.050333
9556.000000;-0.052526
9555.000000;-0.054594
9554.000000;-0.056702
9553.000000;-0.059009
9552.000000;-0.061483
9551.000000;-0.063962
9550.000000;-0.066361
9549.000000;-0.068722
9548.000000;-0.071115
9547.000000;-0.073578
9546.000000;-0.076118
9545.000000;-0.078651
9544.000000;-0.080970
9543.000000;-0.082918
9542.000000;-0.084616
9541.000000;-0.086397
9540.000000;-0.088468
9539.000000;-0.090726
9538.000000;-0.092963
9537.000000;-0.095124
9536.000000;-0.097286
9535.000000;-0.099465
9534.000000;-0.101571
9533.000000;-0.103541
9532.000000;-0.105416
9531.000000;-0.107317
9530.000000;-0.109369
9529.000000;-0.111616
9528.000000;-0.113944
9527.000000;-0.116132
9526.000000;-0.118064
9525.000000;-0.119868
9524.000000;-0.121770
9523.000000;-0.123846
9522.000000;-0.125997
9521.000000;-0.128125
9520.000000;-0.130212
9519.000000;-0.132237
9518.000000;-0.134159
9517.000000;-0.135996
9516.000000;-0.137818
9515.000000;-0.139616
9514.000000;-0.141280
9513.000000;-0.142786
9512.000000;-0.144286
9511.000000;-0.145971
9510.000000;-0.147892
9509.000000;-0.149981
9508.000000;-0.152142
9507.000000;-0.154241
9506.000000;-0.156106
9505.000000;-0.157675
9504.000000;-0.159118
9503.000000;-0.160677
9502.000000;-0.162408
9501.000000;-0.164152
9500.000000;-0.165775
9499.000000;-0.167319
9498.000000;-0.168907
9497.000000;-0.170588
9496.000000;-0.172308
9495.000000;-0.173976
9494.000000;-0.175529
9493.000000;-0.176965
9492.000000;-0.178350
9491.000000;-0.179758
9490.000000;-0.181180
9489.000000;-0.182514
9488.000000;-0.183670
9487.000000;-0.184656
9486.000000;-0.185558
9485.000000;-0.186479
9484.000000;-0.187499
9483.000000;-0.188670
9482.000000;-0.189995
9481.000000;-0.191422
9480.000000;-0.192846
9479.000000;-0.194149
9478.000000;-0.195251
9477.000000;-0.196154
9476.000000;-0.196947
9475.000000;-0.197749
9474.000000;-0.198635
9473.000000;-0.199594
9472.000000;-0.200558
9471.000000;-0.201479
9470.000000;-0.202395
9469.000000;-0.203414
9468.000000;-0.204590
9467.000000;-0.205824
9466.000000;-0.206909
9465.000000;-0.207700
9464.000000;-0.208213
9463.000000;-0.208573
9462.000000;-0.208913
9461.000000;-0.209323
9460.000000;-0.209836
9459.000000;-0.210412
9458.000000;-0.210970
9457.000000;-0.211487
9456.000000;-0.212027
9455.000000;-0.212642
9454.000000;-0.213279
9453.000000;-0.213808
9452.000000;-0.214118
9451.000000;-0.214184
9450.000000;-0.214094
9449.000000;-0.214036
9448.000000;-0.214173
9447.000000;-0.214479
9446.000000;-0.214738
9445.000000;-0.214766
9444.000000;-0.214606
9443.000000;-0.214467
9442.000000;-0.214508
9441.000000;-0.214714
9440.000000;-0.214931
9439.000000;-0.214985
9438.000000;-0.214807
9437.000000;-0.214501
9436.000000;-0.214240
9435.000000;-0.214059
9434.000000;-0.213836
9433.000000;-0.213505
9432.000000;-0.213201
9431.000000;-0.213081
9430.000000;-0.213098
9429.000000;-0.213068
9428.000000;-0.212904
9427.000000;-0.212649
9426.000000;-0.212317
9425.000000;-0.211845
9424.000000;-0.211207
9423.000000;-0.210470
9422.000000;-0.209732
9421.000000;-0.209072
9420.000000;-0.208551
9419.000000;-0.208158
9418.000000;-0.207783
9417.000000;-0.207324
9416.000000;-0.206823
9415.000000;-0.206387
9414.000000;-0.205988
9413.000000;-0.205470
9412.000000;-0.204757
9411.000000;-0.203929
9410.000000;-0.203087
9409.000000;-0.202265
9408.000000;-0.201503
9407.000000;-0.200877
9406.000000;-0.200360
9405.000000;-0.199779
9404.000000;-0.198988
9403.000000;-0.198043
9402.000000;-0.197105
9401.000000;-0.196224
9400.000000;-0.195313
9399.000000;-0.194317
9398.000000;-0.193326
9397.000000;-0.192491
9396.000000;-0.191841
9395.000000;-0.191209
9394.000000;-0.190370
9393.000000;-0.189266
9392.000000;-0.188079
9391.000000;-0.187043
9390.000000;-0.186217
9389.000000;-0.185468
9388.000000;-0.184648
9387.000000;-0.183687
9386.000000;-0.182560
9385.000000;-0.181262
9384.000000;-0.179864
9383.000000;-0.178485
9382.000000;-0.177194
9381.000000;-0.175988
9380.000000;-0.174878
9379.000000;-0.173919
9378.000000;-0.173095
9377.000000;-0.172275
9376.000000;-0.171322
9375.000000;-0.170207
9374.000000;-0.168994
9373.000000;-0.167758
9372.000000;-0.166541
9371.000000;-0.165346
9370.000000;-0.164140
9369.000000;-0.162930
9368.000000;-0.161820
9367.000000;-0.160918
9366.000000;-0.160141
9365.000000;-0.159238
9364.000000;-0.158031
9363.000000;-0.156583
9362.000000;-0.155070
9361.000000;-0.153601
9360.000000;-0.152244
9359.000000;-0.151096
9358.000000;-0.150187
9357.000000;-0.149332
9356.000000;-0.148247
9355.000000;-0.146830
9354.000000;-0.145254
9353.000000;-0.143773
9352.000000;-0.142502
9351.000000;-0.141414
9350.000000;-0.140434
9349.000000;-0.139477
9348.000000;-0.138449
9347.000000;-0.137289
9346.000000;-0.136007
9345.000000;-0.134668
9344.000000;-0.133337
9343.000000;-0.132052
9342.000000;-0.130814
9341.000000;-0.129577
9340.000000;-0.128281
9339.000000;-0.126932
9338.000000;-0.125635
9337.000000;-0.124501
9336.000000;-0.123513
9335.000000;-0.122519
9334.000000;-0.121377
9333.000000;-0.120108
9332.000000;-0.118871
9331.000000;-0.117780
9330.000000;-0.116767
9329.000000;-0.115671
9328.000000;-0.114423
9327.000000;-0.113089
9326.000000;-0.111742
9325.000000;-0.110352
9324.000000;-0.108874
9323.000000;-0.107399
9322.000000;-0.106126
9321.000000;-0.105170
9320.000000;-0.104435
9319.000000;-0.103690
9318.000000;-0.102750
9317.000000;-0.101570
9316.000000;-0.100230
9315.000000;-0.098856
9314.000000;-0.097540
9313.000000;-0.096290
9312.000000;-0.095054
9311.000000;-0.093802
9310.000000;-0.092574
9309.000000;-0.091419
9308.000000;-0.090332
9307.000000;-0.089276
9306.000000;-0.088254
9305.000000;-0.087286
9304.000000;-0.086323
9303.000000;-0.085242
9302.000000;-0.083968
9301.000000;-0.082570
9300.000000;-0.081207
9299.000000;-0.079995
9298.000000;-0.078927
9297.000000;-0.077907
9296.000000;-0.076813
9295.000000;-0.075597
9294.000000;-0.074334
9293.000000;-0.073166
9292.000000;-0.072149
9291.000000;-0.071173
9290.000000;-0.070083
9289.000000;-0.068860
9288.000000;-0.067634
9287.000000;-0.066533
9286.000000;-0.065562
9285.000000;-0.064622
9284.000000;-0.063606
9283.000000;-0.062483
9282.000000;-0.061318
9281.000000;-0.060225
9280.000000;-0.059251
9279.000000;-0.058323
9278.000000;-0.057337
9277.000000;-0.056290
9276.000000;-0.055262
9275.000000;-0.054283
9274.000000;-0.053295
9273.000000;-0.052241
9272.000000;-0.051135
9271.000000;-0.050013
9270.000000;-0.048877
9269.000000;-0.047731
9268.000000;-0.046615
9267.000000;-0.045566
9266.000000;-0.044600
9265.000000;-0.043718
9264.000000;-0.042918
9263.000000;-0.042151
9262.000000;-0.041325
9261.000000;-0.040390
9260.000000;-0.039390
9259.000000;-0.038406
9258.000000;-0.037458
9257.000000;-0.036495
9256.000000;-0.035450
9255.000000;-0.034333
9254.000000;-0.033273
9253.000000;-0.032430
9252.000000;-0.031806
9251.000000;-0.031174
9250.000000;-0.030298
9249.000000;-0.029221
9248.000000;-0.028211
9247.000000;-0.027409
9246.000000;-0.026648
9245.000000;-0.025688
9244.000000;-0.024508
9243.000000;-0.023273
9242.000000;-0.022129
9241.000000;-0.021133
9240.000000;-0.020330
9239.000000;-0.019708
9238.000000;-0.019112
9237.000000;-0.018317
9236.000000;-0.017251
9235.000000;-0.016058
9234.000000;-0.014956
9233.000000;-0.014047
9232.000000;-0.013278
9231.000000;-0.012513
9230.000000;-0.011634
9229.000000;-0.010642
9228.000000;-0.009653
9227.000000;-0.008775
9226.000000;-0.007993
9225.000000;-0.007202
9224.000000;-0.006330
9223.000000;-0.005383
9222.000000;-0.004408
9221.000000;-0.003476
9220.000000;-0.002672
9219.000000;-0.002009
9218.000000;-0.001378
9217.000000;-0.000639
9216.000000;0.000222
9215.000000;0.001091
9214.000000;0.001881
9213.000000;0.002609
9212.000000;0.003329
9211.000000;0.004045
9210.000000;0.004742
9209.000000;0.005436
9208.000000;0.006172
9207.000000;0.006990
9206.000000;0.007899
9205.000000;0.008858
9204.000000;0.009768
9203.000000;0.010537
9202.000000;0.011162
9201.000000;0.011727
9200.000000;0.012319
9199.000000;0.012968
9198.000000;0.013667
9197.000000;0.014404
9196.000000;0.015177
9195.000000;0.015990
9194.000000;0.016839
9193.000000;0.017681
9192.000000;0.018429
9191.000000;0.019004
9190.000000;0.019425
9189.000000;0.019812
9188.000000;0.020305
9187.000000;0.020979
9186.000000;0.021812
9185.000000;0.022710
9184.000000;0.023572
9183.000000;0.024360
9182.000000;0.025100
9181.000000;0.025822
9180.000000;0.026518
9179.000000;0.027178
9178.000000;0.027815
9177.000000;0.028420
9176.000000;0.028961
9175.000000;0.029463
9174.000000;0.030019
9173.000000;0.030672
9172.000000;0.031325
9171.000000;0.031876
9170.000000;0.032393
9169.000000;0.033049
9168.000000;0.033884
9167.000000;0.034733
9166.000000;0.035422
9165.000000;0.035938
9164.000000;0.036384
9163.000000;0.036839
9162.000000;0.037327
9161.000000;0.037878
9160.000000;0.038527
9159.000000;0.039272
9158.000000;0.040047
9157.000000;0.040749
9156.000000;0.041304
9155.000000;0.041722
9154.000000;0.042098
9153.000000;0.042528
9152.000000;0.043056
9151.000000;0.043692
9150.000000;0.044434
9149.000000;0.045238
9148.000000;0.045987
9147.000000;0.046582
9146.000000;0.047044
9145.000000;0.047468
9144.000000;0.047919
9143.000000;0.048427
9142.000000;0.049064
9141.000000;0.049883
9140.000000;0.050783
9139.000000;0.051535
9138.000000;0.051990
9137.000000;0.052210
9136.000000;0.052367
9135.000000;0.052587
9134.000000;0.052925
9133.000000;0.053395
9132.000000;0.053956
9131.000000;0.054525
9130.000000;0.055071
9129.000000;0.055671
9128.000000;0.056405
9127.000000;0.057242
9126.000000;0.058054
9125.000000;0.058722
9124.000000;0.059187
9123.000000;0.059455
9122.000000;0.059612
9121.000000;0.059798
9120.000000;0.060102
9119.000000;0.060483
9118.000000;0.060842
9117.000000;0.061163
9116.000000;0.061545
9115.000000;0.062092
9114.000000;0.062818
9113.000000;0.063621
9112.000000;0.064339
9111.000000;0.064849
9110.000000;0.065182
9109.000000;0.065530
9108.000000;0.066070
9107.000000;0.066778
9106.000000;0.067445
9105.000000;0.067890
9104.000000;0.068134
9103.000000;0.068346
9102.000000;0.068665
9101.000000;0.069103
9100.000000;0.069593
9099.000000;0.070089
9098.000000;0.070608
9097.000000;0.071173
9096.000000;0.071746
9095.000000;0.072238
9094.000000;0.072584
9093.000000;0.072801
9092.000000;0.072969
9091.000000;0.073168
9090.000000;0.073454
9089.000000;0.073852
9088.000000;0.074336
9087.000000;0.074821
9086.000000;0.075210
9085.000000;0.075472
9084.000000;0.075651
9083.000000;0.075818
9082.000000;0.076011
9081.000000;0.076246
9080.000000;0.076547
9079.000000;0.076934
9078.000000;0.077399
9077.000000;0.077910
9076.000000;0.078438
9075.000000;0.078953
9074.000000;0.079407
9073.000000;0.079748
9072.000000;0.079977
9071.000000;0.080171
9070.000000;0.080416
