Criado como novo conjunto de dados;"0307_DANIEL.spp","34743.9 Secs"
cm-1;Abs
10000.000000;1.149572
9999.000000;1.148002
9998.000000;1.145623
9997.000000;1.143135
9996.000000;1.141341
9995.000000;1.140175
9994.000000;1.139335
9993.000000;1.138649
9992.000000;1.138214
9991.000000;1.137840
9990.000000;1.137139
9989.000000;1.135932
9988.000000;1.134447
9987.000000;1.133012
9986.000000;1.131767
9985.000000;1.130709
9984.000000;1.129804
9983.000000;1.128996
9982.000000;1.128181
9981.000000;1.127265
9980.000000;1.126212
9979.000000;1.125048
9978.000000;1.123849
9977.000000;1.122668
9976.000000;1.121480
9975.000000;1.120249
9974.000000;1.119014
9973.000000;1.117795
9972.000000;1.116474
9971.000000;1.114964
9970.000000;1.113486
9969.000000;1.112432
9968.000000;1.111849
9967.000000;1.111301
9966.000000;1.110325
9965.000000;1.108835
9964.000000;1.106982
9963.000000;1.104921
9962.000000;1.102908
9961.000000;1.101351
9960.000000;1.100420
9959.000000;1.099703
9958.000000;1.098566
9957.000000;1.096857
9956.000000;1.095036
9955.000000;1.093587
9954.000000;1.092530
9953.000000;1.091541
9952.000000;1.090385
9951.000000;1.089107
9950.000000;1.087841
9949.000000;1.086592
9948.000000;1.085305
9947.000000;1.084128
9946.000000;1.083369
9945.000000;1.083027
9944.000000;1.082513
9943.000000;1.081091
9942.000000;1.078653
9941.000000;1.075851
9940.000000;1.073494
9939.000000;1.071978
9938.000000;1.071208
9937.000000;1.070748
9936.000000;1.070026
9935.000000;1.068726
9934.000000;1.067128
9933.000000;1.065845
9932.000000;1.065098
9931.000000;1.064479
9930.000000;1.063494
9929.000000;1.062082
9928.000000;1.060497
9927.000000;1.058946
9926.000000;1.057496
9925.000000;1.056118
9924.000000;1.054669
9923.000000;1.053039
9922.000000;1.051433
9921.000000;1.050234
9920.000000;1.049436
9919.000000;1.048508
9918.000000;1.047036
9917.000000;1.045261
9916.000000;1.043737
9915.000000;1.042692
9914.000000;1.042017
9913.000000;1.041618
9912.000000;1.041363
9911.000000;1.040812
9910.000000;1.039442
9909.000000;1.037258
9908.000000;1.034907
9907.000000;1.033109
9906.000000;1.032115
9905.000000;1.031658
9904.000000;1.031236
9903.000000;1.030425
9902.000000;1.029103
9901.000000;1.027419
9900.000000;1.025543
9899.000000;1.023511
9898.000000;1.021404
9897.000000;1.019512
9896.000000;1.018105
9895.000000;1.017057
9894.000000;1.015894
9893.000000;1.014283
9892.000000;1.012380
9891.000000;1.010679
9890.000000;1.009550
9889.000000;1.008915
9888.000000;1.008303
9887.000000;1.007214
9886.000000;1.005452
9885.000000;1.003145
9884.000000;1.000569
9883.000000;0.998091
9882.000000;0.996175
9881.000000;0.995135
9880.000000;0.994748
9879.000000;0.994308
9878.000000;0.993232
9877.000000;0.991559
9876.000000;0.989784
9875.000000;0.988334
9874.000000;0.987293
9873.000000;0.986474
9872.000000;0.985575
9871.000000;0.984363
9870.000000;0.982853
9869.000000;0.981252
9868.000000;0.979668
9867.000000;0.977992
9866.000000;0.976142
9865.000000;0.974325
9864.000000;0.972896
9863.000000;0.971980
9862.000000;0.971325
9861.000000;0.970496
9860.000000;0.969178
9859.000000;0.967369
9858.000000;0.965364
9857.000000;0.963534
9856.000000;0.962035
9855.000000;0.960721
9854.000000;0.959341
9853.000000;0.957768
9852.000000;0.956035
9851.000000;0.954234
9850.000000;0.952454
9849.000000;0.950773
9848.000000;0.949257
9847.000000;0.947981
9846.000000;0.946981
9845.000000;0.946142
9844.000000;0.945178
9843.000000;0.943854
9842.000000;0.942182
9841.000000;0.940339
9840.000000;0.938461
9839.000000;0.936675
9838.000000;0.935205
9837.000000;0.934179
9836.000000;0.933348
9835.000000;0.932241
9834.000000;0.930682
9833.000000;0.928992
9832.000000;0.927574
9831.000000;0.926454
9830.000000;0.925258
9829.000000;0.923541
9828.000000;0.921190
9827.000000;0.918647
9826.000000;0.916659
9825.000000;0.915557
9824.000000;0.914812
9823.000000;0.913555
9822.000000;0.911554
9821.000000;0.909394
9820.000000;0.907674
9819.000000;0.906387
9818.000000;0.905180
9817.000000;0.903862
9816.000000;0.902442
9815.000000;0.900901
9814.000000;0.899210
9813.000000;0.897458
9812.000000;0.895790
9811.000000;0.894286
9810.000000;0.892942
9809.000000;0.891640
9808.000000;0.890062
9807.000000;0.887924
9806.000000;0.885392
9805.000000;0.883063
9804.000000;0.881375
9803.000000;0.880200
9802.000000;0.879100
9801.000000;0.877790
9800.000000;0.876258
9799.000000;0.874665
9798.000000;0.873249
9797.000000;0.872121
9796.000000;0.870952
9795.000000;0.869148
9794.000000;0.866564
9793.000000;0.863865
9792.000000;0.861873
9791.000000;0.860709
9790.000000;0.859786
9789.000000;0.858557
9788.000000;0.857007
9787.000000;0.855459
9786.000000;0.854119
9785.000000;0.852917
9784.000000;0.851618
9783.000000;0.850045
9782.000000;0.848218
9781.000000;0.846321
9780.000000;0.844526
9779.000000;0.842889
9778.000000;0.841397
9777.000000;0.839987
9776.000000;0.838496
9775.000000;0.836725
9774.000000;0.834636
9773.000000;0.832421
9772.000000;0.830334
9771.000000;0.828576
9770.000000;0.827276
9769.000000;0.826375
9768.000000;0.825462
9767.000000;0.823958
9766.000000;0.821633
9765.000000;0.818870
9764.000000;0.816313
9763.000000;0.814339
9762.000000;0.812848
9761.000000;0.811435
9760.000000;0.809736
9759.000000;0.807778
9758.000000;0.805981
9757.000000;0.804666
9756.000000;0.803578
9755.000000;0.802173
9754.000000;0.800368
9753.000000;0.798605
9752.000000;0.797089
9751.000000;0.795399
9750.000000;0.793134
9749.000000;0.790580
9748.000000;0.788370
9747.000000;0.786683
9746.000000;0.785184
9745.000000;0.783592
9744.000000;0.781935
9743.000000;0.780267
9742.000000;0.778496
9741.000000;0.776553
9740.000000;0.774505
9739.000000;0.772449
9738.000000;0.770455
9737.000000;0.768606
9736.000000;0.766972
9735.000000;0.765545
9734.000000;0.764300
9733.000000;0.763232
9732.000000;0.762201
9731.000000;0.760839
9730.000000;0.758873
9729.000000;0.756487
9728.000000;0.754179
9727.000000;0.752230
9726.000000;0.750492
9725.000000;0.748688
9724.000000;0.746703
9723.000000;0.744546
9722.000000;0.742225
9721.000000;0.739795
9720.000000;0.737437
9719.000000;0.735360
9718.000000;0.733596
9717.000000;0.731949
9716.000000;0.730192
9715.000000;0.728304
9714.000000;0.726489
9713.000000;0.724857
9712.000000;0.723151
9711.000000;0.720963
9710.000000;0.718281
9709.000000;0.715662
9708.000000;0.713700
9707.000000;0.712418
9706.000000;0.711288
9705.000000;0.709794
9704.000000;0.707804
9703.000000;0.705513
9702.000000;0.703240
9701.000000;0.701278
9700.000000;0.699715
9699.000000;0.698293
9698.000000;0.696578
9697.000000;0.694405
9696.000000;0.692074
9695.000000;0.690000
9694.000000;0.688244
9693.000000;0.686476
9692.000000;0.684418
9691.000000;0.682185
9690.000000;0.680095
9689.000000;0.678239
9688.000000;0.676379
9687.000000;0.674320
9686.000000;0.672239
9685.000000;0.670479
9684.000000;0.669047
9683.000000;0.667492
9682.000000;0.665352
9681.000000;0.662662
9680.000000;0.659931
9679.000000;0.657648
9678.000000;0.655824
9677.000000;0.654016
9676.000000;0.651804
9675.000000;0.649264
9674.000000;0.646925
9673.000000;0.645197
9672.000000;0.643860
9671.000000;0.642237
9670.000000;0.639856
9669.000000;0.636870
9668.000000;0.633832
9667.000000;0.631213
9666.000000;0.629155
9665.000000;0.627566
9664.000000;0.626241
9663.000000;0.624919
9662.000000;0.623320
9661.000000;0.621294
9660.000000;0.618970
9659.000000;0.616721
9658.000000;0.614873
9657.000000;0.613370
9656.000000;0.611776
9655.000000;0.609679
9654.000000;0.607045
9653.000000;0.604161
9652.000000;0.601323
9651.000000;0.598698
9650.000000;0.596369
9649.000000;0.594306
9648.000000;0.592292
9647.000000;0.590099
9646.000000;0.587806
9645.000000;0.585809
9644.000000;0.584376
9643.000000;0.583244
9642.000000;0.581767
9641.000000;0.579527
9640.000000;0.576760
9639.000000;0.574113
9638.000000;0.571969
9637.000000;0.570083
9636.000000;0.567952
9635.000000;0.565428
9634.000000;0.562800
9633.000000;0.560290
9632.000000;0.557774
9631.000000;0.555121
9630.000000;0.552539
9629.000000;0.550336
9628.000000;0.548495
9627.000000;0.546722
9626.000000;0.544818
9625.000000;0.542764
9624.000000;0.540531
9623.000000;0.538089
9622.000000;0.535561
9621.000000;0.533152
9620.000000;0.530900
9619.000000;0.528701
9618.000000;0.526506
9617.000000;0.524290
9616.000000;0.521898
9615.000000;0.519207
9614.000000;0.516441
9613.000000;0.514023
9612.000000;0.512037
9611.000000;0.510099
9610.000000;0.507852
9609.000000;0.505364
9608.000000;0.502931
9607.000000;0.500683
9606.000000;0.498522
9605.000000;0.496300
9604.000000;0.493978
9603.000000;0.491694
9602.000000;0.489704
9601.000000;0.488090
9600.000000;0.486534
9599.000000;0.484555
9598.000000;0.482025
9597.000000;0.479272
9596.000000;0.476631
9595.000000;0.474136
9594.000000;0.471689
9593.000000;0.469301
9592.000000;0.467000
9591.000000;0.464658
9590.000000;0.462094
9589.000000;0.459311
9588.000000;0.456536
9587.000000;0.454078
9586.000000;0.452108
9585.000000;0.450450
9584.000000;0.448601
9583.000000;0.446154
9582.000000;0.443240
9581.000000;0.440409
9580.000000;0.438052
9579.000000;0.436117
9578.000000;0.434352
9577.000000;0.432557
9576.000000;0.430547
9575.000000;0.428156
9574.000000;0.425485
9573.000000;0.422908
9572.000000;0.420648
9571.000000;0.418471
9570.000000;0.415973
9569.000000;0.413052
9568.000000;0.409967
9567.000000;0.407045
9566.000000;0.404496
9565.000000;0.402350
9564.000000;0.400413
9563.000000;0.398349
9562.000000;0.396003
9561.000000;0.393555
9560.000000;0.391273
9559.000000;0.389172
9558.000000;0.387078
9557.000000;0.384924
9556.000000;0.382817
9555.000000;0.380824
9554.000000;0.378876
9553.000000;0.376858
9552.000000;0.374670
9551.000000;0.372220
9550.000000;0.369494
9549.000000;0.366681
9548.000000;0.364076
9547.000000;0.361782
9546.000000;0.359586
9545.000000;0.357215
9544.000000;0.354697
9543.000000;0.352360
9542.000000;0.350449
9541.000000;0.348812
9540.000000;0.347037
9539.000000;0.344889
9538.000000;0.342508
9537.000000;0.340172
9536.000000;0.337992
9535.000000;0.335916
9534.000000;0.333881
9533.000000;0.331828
9532.000000;0.329620
9531.000000;0.327147
9530.000000;0.324503
9529.000000;0.321931
9528.000000;0.319562
9527.000000;0.317318
9526.000000;0.315076
9525.000000;0.312832
9524.000000;0.310684
9523.000000;0.308735
9522.000000;0.307008
9521.000000;0.305380
9520.000000;0.303645
9519.000000;0.301684
9518.000000;0.299579
9517.000000;0.297494
9516.000000;0.295528
9515.000000;0.293760
9514.000000;0.292301
9513.000000;0.291136
9512.000000;0.289982
9511.000000;0.288473
9510.000000;0.286481
9509.000000;0.284172
9508.000000;0.281787
9507.000000;0.279530
9506.000000;0.277545
9505.000000;0.275800
9504.000000;0.274045
9503.000000;0.272090
9502.000000;0.270093
9501.000000;0.268343
9500.000000;0.266815
9499.000000;0.265179
9498.000000;0.263304
9497.000000;0.261471
9496.000000;0.260009
9495.000000;0.258931
9494.000000;0.258015
9493.000000;0.257037
9492.000000;0.255809
9491.000000;0.254205
9490.000000;0.252289
9489.000000;0.250336
9488.000000;0.248604
9487.000000;0.247155
9486.000000;0.245917
9485.000000;0.244773
9484.000000;0.243540
9483.000000;0.242049
9482.000000;0.240365
9481.000000;0.238824
9480.000000;0.237717
9479.000000;0.236996
9478.000000;0.236355
9477.000000;0.235543
9476.000000;0.234539
9475.000000;0.233487
9474.000000;0.232538
9473.000000;0.231715
9472.000000;0.230916
9471.000000;0.230036
9470.000000;0.229067
9469.000000;0.228035
9468.000000;0.226910
9467.000000;0.225679
9466.000000;0.224480
9465.000000;0.223534
9464.000000;0.222961
9463.000000;0.222736
9462.000000;0.222760
9461.000000;0.222862
9460.000000;0.222768
9459.000000;0.222238
9458.000000;0.221276
9457.000000;0.220147
9456.000000;0.219162
9455.000000;0.218505
9454.000000;0.218193
9453.000000;0.218095
9452.000000;0.218010
9451.000000;0.217808
9450.000000;0.217466
9449.000000;0.216954
9448.000000;0.216246
9447.000000;0.215524
9446.000000;0.215137
9445.000000;0.215176
9444.000000;0.215308
9443.000000;0.215258
9442.000000;0.215250
9441.000000;0.215634
9440.000000;0.216245
9439.000000;0.216524
9438.000000;0.216259
9437.000000;0.215835
9436.000000;0.215683
9435.000000;0.215861
9434.000000;0.216219
9433.000000;0.216630
9432.000000;0.216911
9431.000000;0.216840
9430.000000;0.216457
9429.000000;0.216158
9428.000000;0.216324
9427.000000;0.216931
9426.000000;0.217613
9425.000000;0.218004
9424.000000;0.218017
9423.000000;0.217920
9422.000000;0.218163
9421.000000;0.218952
9420.000000;0.219985
9419.000000;0.220767
9418.000000;0.221148
9417.000000;0.221368
9416.000000;0.221648
9415.000000;0.222046
9414.000000;0.222688
9413.000000;0.223768
9412.000000;0.225182
9411.000000;0.226487
9410.000000;0.227369
9409.000000;0.227946
9408.000000;0.228464
9407.000000;0.228968
9406.000000;0.229423
9405.000000;0.229911
9404.000000;0.230503
9403.000000;0.231104
9402.000000;0.231616
9401.000000;0.232125
9400.000000;0.232772
9399.000000;0.233571
9398.000000;0.234460
9397.000000;0.235426
9396.000000;0.236453
9395.000000;0.237473
9394.000000;0.238483
9393.000000;0.239584
9392.000000;0.240804
9391.000000;0.241972
9390.000000;0.242897
9389.000000;0.243560
9388.000000;0.244083
9387.000000;0.244629
9386.000000;0.245400
9385.000000;0.246557
9384.000000;0.248014
9383.000000;0.249431
9382.000000;0.250531
9381.000000;0.251351
9380.000000;0.252123
9379.000000;0.253024
9378.000000;0.254136
9377.000000;0.255506
9376.000000;0.257104
9375.000000;0.258756
9374.000000;0.260220
9373.000000;0.261308
9372.000000;0.261951
9371.000000;0.262284
9370.000000;0.262682
9369.000000;0.263555
9368.000000;0.264982
9367.000000;0.266630
9366.000000;0.268075
9365.000000;0.269157
9364.000000;0.270011
9363.000000;0.270870
9362.000000;0.271895
9361.000000;0.273050
9360.000000;0.274103
9359.000000;0.274853
9358.000000;0.275434
9357.000000;0.276273
9356.000000;0.277653
9355.000000;0.279418
9354.000000;0.281143
9353.000000;0.282527
9352.000000;0.283567
9351.000000;0.284456
9350.000000;0.285387
9349.000000;0.286407
9348.000000;0.287430
9347.000000;0.288443
9346.000000;0.289648
9345.000000;0.291261
9344.000000;0.293175
9343.000000;0.294977
9342.000000;0.296359
9341.000000;0.297379
9340.000000;0.298297
9339.000000;0.299316
9338.000000;0.300493
9337.000000;0.301763
9336.000000;0.302944
9335.000000;0.303875
9334.000000;0.304622
9333.000000;0.305464
9332.000000;0.306608
9331.000000;0.308018
9330.000000;0.309519
9329.000000;0.310932
9328.000000;0.312103
9327.000000;0.312989
9326.000000;0.313775
9325.000000;0.314742
9324.000000;0.315948
9323.000000;0.317174
9322.000000;0.318267
9321.000000;0.319353
9320.000000;0.320621
9319.000000;0.322030
9318.000000;0.323373
9317.000000;0.324529
9316.000000;0.325525
9315.000000;0.326430
9314.000000;0.327318
9313.000000;0.328279
9312.000000;0.329375
9311.000000;0.330594
9310.000000;0.331868
9309.000000;0.333101
9308.000000;0.334189
9307.000000;0.335126
9306.000000;0.336088
9305.000000;0.337313
9304.000000;0.338846
9303.000000;0.340478
9302.000000;0.341962
9301.000000;0.343191
9300.000000;0.344169
9299.000000;0.344966
9298.000000;0.345734
9297.000000;0.346635
9296.000000;0.347687
9295.000000;0.348763
9294.000000;0.349796
9293.000000;0.350869
9292.000000;0.352074
9291.000000;0.353385
9290.000000;0.354700
9289.000000;0.355906
9288.000000;0.356867
9287.000000;0.357514
9286.000000;0.358011
9285.000000;0.358717
9284.000000;0.359864
9283.000000;0.361350
9282.000000;0.362883
9281.000000;0.364227
9280.000000;0.365266
9279.000000;0.365966
9278.000000;0.366411
9277.000000;0.366828
9276.000000;0.367457
9275.000000;0.368402
9274.000000;0.369616
9273.000000;0.370975
9272.000000;0.372336
9271.000000;0.373610
9270.000000;0.374798
9269.000000;0.375920
9268.000000;0.376894
9267.000000;0.377580
9266.000000;0.377960
9265.000000;0.378180
9264.000000;0.378426
9263.000000;0.378850
9262.000000;0.379619
9261.000000;0.380900
9260.000000;0.382677
9259.000000;0.384656
9258.000000;0.386391
9257.000000;0.387543
9256.000000;0.388064
9255.000000;0.388254
9254.000000;0.388615
9253.000000;0.389521
9252.000000;0.390929
9251.000000;0.392443
9250.000000;0.393649
9249.000000;0.394385
9248.000000;0.394777
9247.000000;0.395126
9246.000000;0.395730
9245.000000;0.396656
9244.000000;0.397656
9243.000000;0.398421
9242.000000;0.398921
9241.000000;0.399414
9240.000000;0.400143
9239.000000;0.401138
9238.000000;0.402283
9237.000000;0.403444
9236.000000;0.404521
9235.000000;0.405493
9234.000000;0.406421
9233.000000;0.407326
9232.000000;0.408132
9231.000000;0.408853
9230.000000;0.409714
9229.000000;0.410848
9228.000000;0.411956
9227.000000;0.412553
9226.000000;0.412617
9225.000000;0.412715
9224.000000;0.413387
9223.000000;0.414595
9222.000000;0.415906
9221.000000;0.416992
9220.000000;0.417817
9219.000000;0.418489
9218.000000;0.419126
9217.000000;0.419823
9216.000000;0.420609
9215.000000;0.421435
9214.000000;0.422223
9213.000000;0.422881
9212.000000;0.423295
9211.000000;0.423450
9210.000000;0.423560
9209.000000;0.423952
9208.000000;0.424752
9207.000000;0.425797
9206.000000;0.426886
9205.000000;0.427984
9204.000000;0.429138
9203.000000;0.430331
9202.000000;0.431502
9201.000000;0.432600
9200.000000;0.433547
9199.000000;0.434243
9198.000000;0.434691
9197.000000;0.435025
9196.000000;0.435370
9195.000000;0.435754
9194.000000;0.436168
9193.000000;0.436606
9192.000000;0.437033
9191.000000;0.437458
9190.000000;0.438043
9189.000000;0.438977
9188.000000;0.440170
9187.000000;0.441260
9186.000000;0.441990
9185.000000;0.442455
9184.000000;0.442894
9183.000000;0.443404
9182.000000;0.443979
9181.000000;0.444662
9180.000000;0.445476
9179.000000;0.446287
9178.000000;0.446902
9177.000000;0.447304
9176.000000;0.447679
9175.000000;0.448217
9174.000000;0.448957
9173.000000;0.449788
9172.000000;0.450552
9171.000000;0.451160
9170.000000;0.451660
9169.000000;0.452171
9168.000000;0.452725
9167.000000;0.453230
9166.000000;0.453621
9165.000000;0.453979
9164.000000;0.454475
9163.000000;0.455212
9162.000000;0.456162
9161.000000;0.457188
9160.000000;0.458116
9159.000000;0.458853
9158.000000;0.459429
9157.000000;0.459939
9156.000000;0.460424
9155.000000;0.460874
9154.000000;0.461298
9153.000000;0.461710
9152.000000;0.462069
9151.000000;0.462331
9150.000000;0.462545
9149.000000;0.462811
9148.000000;0.463184
9147.000000;0.463692
9146.000000;0.464385
9145.000000;0.465218
9144.000000;0.465956
9143.000000;0.466388
9142.000000;0.466651
9141.000000;0.467127
9140.000000;0.467963
9139.000000;0.468873
9138.000000;0.469485
9137.000000;0.469751
9136.000000;0.469922
9135.000000;0.470250
9134.000000;0.470811
9133.000000;0.471489
9132.000000;0.472061
9131.000000;0.472368
9130.000000;0.472511
9129.000000;0.472795
9128.000000;0.473423
9127.000000;0.474300
9126.000000;0.475182
9125.000000;0.475928
9124.000000;0.476550
9123.000000;0.477104
9122.000000;0.477607
9121.000000;0.478002
9120.000000;0.478178
9119.000000;0.478083
9118.000000;0.477837
9117.000000;0.477696
9116.000000;0.477854
9115.000000;0.478326
9114.000000;0.479011
9113.000000;0.479773
9112.000000;0.480494
9111.000000;0.481155
9110.000000;0.481870
9109.000000;0.482718
9108.000000;0.483541
9107.000000;0.484056
9106.000000;0.484206
9105.000000;0.484254
9104.000000;0.484464
9103.000000;0.484807
9102.000000;0.485069
9101.000000;0.485146
9100.000000;0.485184
9099.000000;0.485476
9098.000000;0.486255
9097.000000;0.487458
9096.000000;0.488660
9095.000000;0.489339
9094.000000;0.489326
9093.000000;0.488940
9092.000000;0.488672
9091.000000;0.488810
9090.000000;0.489355
9089.000000;0.490119
9088.000000;0.490818
9087.000000;0.491206
9086.000000;0.491263
9085.000000;0.491209
9084.000000;0.491291
9083.000000;0.491577
9082.000000;0.491975
9081.000000;0.492356
9080.000000;0.492622
9079.000000;0.492748
9078.000000;0.492816
9077.000000;0.492969
9076.000000;0.493265
9075.000000;0.493654
9074.000000;0.494087
9073.000000;0.494569
9072.000000;0.495074
9071.000000;0.495504
9070.000000;0.495801
9069.000000;0.495992
9068.000000;0.496110
9067.000000;0.496146
9066.000000;0.496122
9065.000000;0.496142
9064.000000;0.496317
9063.000000;0.496708
9062.000000;0.497331
9061.000000;0.498121
9060.000000;0.498865
9059.000000;0.499326
9058.000000;0.499480
9057.000000;0.499538
9056.000000;0.499700
9055.000000;0.499969
9054.000000;0.500271
9053.000000;0.500575
