Criado como novo conjunto de dados;"0307_DANIEL.spp","73625.9 Secs"
cm-1;Abs
10000.000000;0.560714
9999.000000;0.559523
9998.000000;0.558650
9997.000000;0.558130
9996.000000;0.557777
9995.000000;0.557342
9994.000000;0.556736
9993.000000;0.556086
9992.000000;0.555542
9991.000000;0.555046
9990.000000;0.554376
9989.000000;0.553442
9988.000000;0.552449
9987.000000;0.551680
9986.000000;0.551162
9985.000000;0.550661
9984.000000;0.549980
9983.000000;0.549154
9982.000000;0.548278
9981.000000;0.547292
9980.000000;0.546061
9979.000000;0.544623
9978.000000;0.543212
9977.000000;0.542031
9976.000000;0.541134
9975.000000;0.540543
9974.000000;0.540290
9973.000000;0.540234
9972.000000;0.539987
9971.000000;0.539213
9970.000000;0.537995
9969.000000;0.536748
9968.000000;0.535800
9967.000000;0.535133
9966.000000;0.534528
9965.000000;0.533795
9964.000000;0.532875
9963.000000;0.531866
9962.000000;0.530982
9961.000000;0.530373
9960.000000;0.529915
9959.000000;0.529294
9958.000000;0.528347
9957.000000;0.527242
9956.000000;0.526256
9955.000000;0.525483
9954.000000;0.524803
9953.000000;0.524026
9952.000000;0.523030
9951.000000;0.521877
9950.000000;0.520843
9949.000000;0.520191
9948.000000;0.519818
9947.000000;0.519267
9946.000000;0.518222
9945.000000;0.516871
9944.000000;0.515609
9943.000000;0.514533
9942.000000;0.513442
9941.000000;0.512286
9940.000000;0.511315
9939.000000;0.510740
9938.000000;0.510453
9937.000000;0.510164
9936.000000;0.509678
9935.000000;0.508960
9934.000000;0.508073
9933.000000;0.507147
9932.000000;0.506308
9931.000000;0.505539
9930.000000;0.504676
9929.000000;0.503604
9928.000000;0.502388
9927.000000;0.501184
9926.000000;0.500080
9925.000000;0.499054
9924.000000;0.498023
9923.000000;0.496898
9922.000000;0.495674
9921.000000;0.494515
9920.000000;0.493641
9919.000000;0.493083
9918.000000;0.492631
9917.000000;0.492085
9916.000000;0.491445
9915.000000;0.490749
9914.000000;0.489850
9913.000000;0.488550
9912.000000;0.486950
9911.000000;0.485467
9910.000000;0.484431
9909.000000;0.483739
9908.000000;0.482997
9907.000000;0.481959
9906.000000;0.480770
9905.000000;0.479751
9904.000000;0.479035
9903.000000;0.478440
9902.000000;0.477698
9901.000000;0.476737
9900.000000;0.475721
9899.000000;0.474837
9898.000000;0.474091
9897.000000;0.473308
9896.000000;0.472267
9895.000000;0.470865
9894.000000;0.469208
9893.000000;0.467586
9892.000000;0.466300
9891.000000;0.465452
9890.000000;0.464893
9889.000000;0.464332
9888.000000;0.463500
9887.000000;0.462281
9886.000000;0.460783
9885.000000;0.459285
9884.000000;0.458009
9883.000000;0.456938
9882.000000;0.455917
9881.000000;0.454907
9880.000000;0.454005
9879.000000;0.453202
9878.000000;0.452302
9877.000000;0.451209
9876.000000;0.450140
9875.000000;0.449398
9874.000000;0.448996
9873.000000;0.448643
9872.000000;0.448070
9871.000000;0.447230
9870.000000;0.446208
9869.000000;0.445089
9868.000000;0.443942
9867.000000;0.442792
9866.000000;0.441553
9865.000000;0.440108
9864.000000;0.438521
9863.000000;0.437074
9862.000000;0.436005
9861.000000;0.435250
9860.000000;0.434525
9859.000000;0.433644
9858.000000;0.432709
9857.000000;0.431948
9856.000000;0.431432
9855.000000;0.430931
9854.000000;0.430071
9853.000000;0.428630
9852.000000;0.426741
9851.000000;0.424810
9850.000000;0.423249
9849.000000;0.422200
9848.000000;0.421437
9847.000000;0.420530
9846.000000;0.419221
9845.000000;0.417710
9844.000000;0.416505
9843.000000;0.415884
9842.000000;0.415543
9841.000000;0.414859
9840.000000;0.413507
9839.000000;0.411716
9838.000000;0.409942
9837.000000;0.408472
9836.000000;0.407387
9835.000000;0.406717
9834.000000;0.406410
9833.000000;0.406188
9832.000000;0.405637
9831.000000;0.404548
9830.000000;0.403072
9829.000000;0.401490
9828.000000;0.399920
9827.000000;0.398366
9826.000000;0.396958
9825.000000;0.395927
9824.000000;0.395283
9823.000000;0.394685
9822.000000;0.393753
9821.000000;0.392474
9820.000000;0.391161
9819.000000;0.390044
9818.000000;0.389051
9817.000000;0.387995
9816.000000;0.386831
9815.000000;0.385653
9814.000000;0.384534
9813.000000;0.383448
9812.000000;0.382306
9811.000000;0.381009
9810.000000;0.379526
9809.000000;0.377964
9808.000000;0.376485
9807.000000;0.375100
9806.000000;0.373631
9805.000000;0.371985
9804.000000;0.370380
9803.000000;0.369177
9802.000000;0.368501
9801.000000;0.368106
9800.000000;0.367572
9799.000000;0.366562
9798.000000;0.364977
9797.000000;0.363033
9796.000000;0.361176
9795.000000;0.359746
9794.000000;0.358679
9793.000000;0.357628
9792.000000;0.356394
9791.000000;0.355104
9790.000000;0.353981
9789.000000;0.353071
9788.000000;0.352223
9787.000000;0.351206
9786.000000;0.349798
9785.000000;0.347941
9784.000000;0.345911
9783.000000;0.344175
9782.000000;0.342939
9781.000000;0.341944
9780.000000;0.340830
9779.000000;0.339589
9778.000000;0.338469
9777.000000;0.337512
9776.000000;0.336410
9775.000000;0.334882
9774.000000;0.333015
9773.000000;0.331169
9772.000000;0.329652
9771.000000;0.328549
9770.000000;0.327733
9769.000000;0.326932
9768.000000;0.325841
9767.000000;0.324322
9766.000000;0.322522
9765.000000;0.320760
9764.000000;0.319249
9763.000000;0.317951
9762.000000;0.316682
9761.000000;0.315328
9760.000000;0.313934
9759.000000;0.312616
9758.000000;0.311433
9757.000000;0.310350
9756.000000;0.309282
9755.000000;0.308144
9754.000000;0.306898
9753.000000;0.305576
9752.000000;0.304254
9751.000000;0.302950
9750.000000;0.301583
9749.000000;0.300069
9748.000000;0.298421
9747.000000;0.296686
9746.000000;0.294830
9745.000000;0.292829
9744.000000;0.290868
9743.000000;0.289304
9742.000000;0.288310
9741.000000;0.287668
9740.000000;0.286978
9739.000000;0.285994
9738.000000;0.284691
9737.000000;0.283109
9736.000000;0.281304
9735.000000;0.279403
9734.000000;0.277575
9733.000000;0.275920
9732.000000;0.274472
9731.000000;0.273250
9730.000000;0.272210
9729.000000;0.271161
9728.000000;0.269881
9727.000000;0.268348
9726.000000;0.266764
9725.000000;0.265317
9724.000000;0.264008
9723.000000;0.262669
9722.000000;0.261083
9721.000000;0.259096
9720.000000;0.256763
9719.000000;0.254406
9718.000000;0.252386
9717.000000;0.250778
9716.000000;0.249384
9715.000000;0.248076
9714.000000;0.246956
9713.000000;0.246075
9712.000000;0.245203
9711.000000;0.244043
9710.000000;0.242567
9709.000000;0.240951
9708.000000;0.239268
9707.000000;0.237456
9706.000000;0.235550
9705.000000;0.233713
9704.000000;0.231991
9703.000000;0.230254
9702.000000;0.228464
9701.000000;0.226833
9700.000000;0.225571
9699.000000;0.224572
9698.000000;0.223470
9697.000000;0.221985
9696.000000;0.220118
9695.000000;0.218080
9694.000000;0.216131
9693.000000;0.214461
9692.000000;0.213070
9691.000000;0.211738
9690.000000;0.210186
9689.000000;0.208313
9688.000000;0.206253
9687.000000;0.204223
9686.000000;0.202376
9685.000000;0.200776
9684.000000;0.199378
9683.000000;0.197997
9682.000000;0.196378
9681.000000;0.194412
9680.000000;0.192268
9679.000000;0.190259
9678.000000;0.188572
9677.000000;0.187135
9676.000000;0.185701
9675.000000;0.184032
9674.000000;0.182057
9673.000000;0.179941
9672.000000;0.177981
9671.000000;0.176375
9670.000000;0.175066
9669.000000;0.173841
9668.000000;0.172578
9667.000000;0.171311
9666.000000;0.170058
9665.000000;0.168666
9664.000000;0.166921
9663.000000;0.164775
9662.000000;0.162395
9661.000000;0.160022
9660.000000;0.157837
9659.000000;0.155959
9658.000000;0.154426
9657.000000;0.153119
9656.000000;0.151752
9655.000000;0.150073
9654.000000;0.148109
9653.000000;0.146149
9652.000000;0.144437
9651.000000;0.142902
9650.000000;0.141236
9649.000000;0.139224
9648.000000;0.136936
9647.000000;0.134614
9646.000000;0.132433
9645.000000;0.130441
9644.000000;0.128655
9643.000000;0.127079
9642.000000;0.125613
9641.000000;0.124028
9640.000000;0.122148
9639.000000;0.120047
9638.000000;0.117981
9637.000000;0.116101
9636.000000;0.114293
9635.000000;0.112344
9634.000000;0.110229
9633.000000;0.108146
9632.000000;0.106261
9631.000000;0.104518
9630.000000;0.102766
9629.000000;0.101012
9628.000000;0.099409
9627.000000;0.097988
9626.000000;0.096534
9625.000000;0.094832
9624.000000;0.092936
9623.000000;0.091070
9622.000000;0.089313
9621.000000;0.087524
9620.000000;0.085573
9619.000000;0.083494
9618.000000;0.081339
9617.000000;0.079049
9616.000000;0.076602
9615.000000;0.074211
9614.000000;0.072192
9613.000000;0.070620
9612.000000;0.069193
9611.000000;0.067482
9610.000000;0.065309
9609.000000;0.062876
9608.000000;0.060583
9607.000000;0.058704
9606.000000;0.057171
9605.000000;0.055653
9604.000000;0.053883
9603.000000;0.051914
9602.000000;0.049989
9601.000000;0.048218
9600.000000;0.046447
9599.000000;0.044470
9598.000000;0.042266
9597.000000;0.039981
9596.000000;0.037747
9595.000000;0.035612
9594.000000;0.033607
9593.000000;0.031786
9592.000000;0.030158
9591.000000;0.028623
9590.000000;0.026986
9589.000000;0.025073
9588.000000;0.022851
9587.000000;0.020452
9586.000000;0.018079
9585.000000;0.015862
9584.000000;0.013780
9583.000000;0.011714
9582.000000;0.009560
9581.000000;0.007341
9580.000000;0.005222
9579.000000;0.003393
9578.000000;0.001847
9577.000000;0.000286
9576.000000;-0.001647
9575.000000;-0.004009
9574.000000;-0.006505
9573.000000;-0.008831
9572.000000;-0.010966
9571.000000;-0.013043
9570.000000;-0.015078
9569.000000;-0.016980
9568.000000;-0.018790
9567.000000;-0.020695
9566.000000;-0.022765
9565.000000;-0.024816
9564.000000;-0.026624
9563.000000;-0.028205
9562.000000;-0.029805
9561.000000;-0.031688
9560.000000;-0.033975
9559.000000;-0.036580
9558.000000;-0.039206
9557.000000;-0.041488
9556.000000;-0.043272
9555.000000;-0.044771
9554.000000;-0.046365
9553.000000;-0.048241
9552.000000;-0.050296
9551.000000;-0.052368
9550.000000;-0.054448
9549.000000;-0.056608
9548.000000;-0.058833
9547.000000;-0.060972
9546.000000;-0.062847
9545.000000;-0.064378
9544.000000;-0.065683
9543.000000;-0.067070
9542.000000;-0.068858
9541.000000;-0.071097
9540.000000;-0.073494
9539.000000;-0.075685
9538.000000;-0.077556
9537.000000;-0.079274
9536.000000;-0.081049
9535.000000;-0.082970
9534.000000;-0.085056
9533.000000;-0.087300
9532.000000;-0.089583
9531.000000;-0.091676
9530.000000;-0.093445
9529.000000;-0.095046
9528.000000;-0.096772
9527.000000;-0.098719
9526.000000;-0.100677
9525.000000;-0.102401
9524.000000;-0.103886
9523.000000;-0.105358
9522.000000;-0.107040
9521.000000;-0.108966
9520.000000;-0.110968
9519.000000;-0.112821
9518.000000;-0.114414
9517.000000;-0.115841
9516.000000;-0.117287
9515.000000;-0.118813
9514.000000;-0.120292
9513.000000;-0.121598
9512.000000;-0.122813
9511.000000;-0.124162
9510.000000;-0.125775
9509.000000;-0.127535
9508.000000;-0.129171
9507.000000;-0.130467
9506.000000;-0.131451
9505.000000;-0.132423
9504.000000;-0.133755
9503.000000;-0.135545
9502.000000;-0.137491
9501.000000;-0.139168
9500.000000;-0.140437
9499.000000;-0.141524
9498.000000;-0.142757
9497.000000;-0.144301
9496.000000;-0.146108
9495.000000;-0.147953
9494.000000;-0.149515
9493.000000;-0.150580
9492.000000;-0.151265
9491.000000;-0.151946
9490.000000;-0.152889
9489.000000;-0.154014
9488.000000;-0.155077
9487.000000;-0.155984
9486.000000;-0.156824
9485.000000;-0.157721
9484.000000;-0.158761
9483.000000;-0.160000
9482.000000;-0.161366
9481.000000;-0.162587
9480.000000;-0.163375
9479.000000;-0.163732
9478.000000;-0.163995
9477.000000;-0.164545
9476.000000;-0.165517
9475.000000;-0.166780
9474.000000;-0.168077
9473.000000;-0.169147
9472.000000;-0.169834
9471.000000;-0.170184
9470.000000;-0.170435
9469.000000;-0.170860
9468.000000;-0.171597
9467.000000;-0.172572
9466.000000;-0.173530
9465.000000;-0.174164
9464.000000;-0.174313
9463.000000;-0.174102
9462.000000;-0.173871
9461.000000;-0.173902
9460.000000;-0.174235
9459.000000;-0.174707
9458.000000;-0.175137
9457.000000;-0.175440
9456.000000;-0.175639
9455.000000;-0.175840
9454.000000;-0.176153
9453.000000;-0.176565
9452.000000;-0.176886
9451.000000;-0.176921
9450.000000;-0.176704
9449.000000;-0.176503
9448.000000;-0.176530
9447.000000;-0.176687
9446.000000;-0.176649
9445.000000;-0.176224
9444.000000;-0.175540
9443.000000;-0.174918
9442.000000;-0.174605
9441.000000;-0.174658
9440.000000;-0.174952
9439.000000;-0.175225
9438.000000;-0.175191
9437.000000;-0.174732
9436.000000;-0.174012
9435.000000;-0.173332
9434.000000;-0.172867
9433.000000;-0.172581
9432.000000;-0.172345
9431.000000;-0.172023
9430.000000;-0.171473
9429.000000;-0.170616
9428.000000;-0.169575
9427.000000;-0.168650
9426.000000;-0.168084
9425.000000;-0.167874
9424.000000;-0.167836
9423.000000;-0.167751
9422.000000;-0.167426
9421.000000;-0.166740
9420.000000;-0.165742
9419.000000;-0.164640
9418.000000;-0.163601
9417.000000;-0.162625
9416.000000;-0.161655
9415.000000;-0.160693
9414.000000;-0.159728
9413.000000;-0.158687
9412.000000;-0.157598
9411.000000;-0.156685
9410.000000;-0.156117
9409.000000;-0.155722
9408.000000;-0.155136
9407.000000;-0.154198
9406.000000;-0.153058
9405.000000;-0.151915
9404.000000;-0.150870
9403.000000;-0.149985
9402.000000;-0.149255
9401.000000;-0.148437
9400.000000;-0.147181
9399.000000;-0.145480
9398.000000;-0.143809
9397.000000;-0.142626
9396.000000;-0.141858
9395.000000;-0.141037
9394.000000;-0.139863
9393.000000;-0.138427
9392.000000;-0.136967
9391.000000;-0.135605
9390.000000;-0.134376
9389.000000;-0.133327
9388.000000;-0.132472
9387.000000;-0.131698
9386.000000;-0.130783
9385.000000;-0.129514
9384.000000;-0.127810
9383.000000;-0.125806
9382.000000;-0.123804
9381.000000;-0.122076
9380.000000;-0.120684
9379.000000;-0.119506
9378.000000;-0.118393
9377.000000;-0.117265
9376.000000;-0.116094
9375.000000;-0.114881
9374.000000;-0.113652
9373.000000;-0.112417
9372.000000;-0.111112
9371.000000;-0.109668
9370.000000;-0.108145
9369.000000;-0.106725
9368.000000;-0.105539
9367.000000;-0.104529
9366.000000;-0.103501
9365.000000;-0.102292
9364.000000;-0.100884
9363.000000;-0.099391
9362.000000;-0.097955
9361.000000;-0.096640
9360.000000;-0.095391
9359.000000;-0.094113
9358.000000;-0.092765
9357.000000;-0.091363
9356.000000;-0.089904
9355.000000;-0.088333
9354.000000;-0.086603
9353.000000;-0.084750
9352.000000;-0.082899
9351.000000;-0.081205
9350.000000;-0.079756
9349.000000;-0.078512
9348.000000;-0.077320
9347.000000;-0.076025
9346.000000;-0.074603
9345.000000;-0.073153
9344.000000;-0.071770
9343.000000;-0.070431
9342.000000;-0.069037
9341.000000;-0.067569
9340.000000;-0.066134
9339.000000;-0.064841
9338.000000;-0.063636
9337.000000;-0.062343
9336.000000;-0.060890
9335.000000;-0.059423
9334.000000;-0.058132
9333.000000;-0.056997
9332.000000;-0.055839
9331.000000;-0.054588
9330.000000;-0.053370
9329.000000;-0.052264
9328.000000;-0.051097
9327.000000;-0.049621
9326.000000;-0.047832
9325.000000;-0.046010
9324.000000;-0.044407
9323.000000;-0.042993
9322.000000;-0.041546
9321.000000;-0.039933
9320.000000;-0.038239
9319.000000;-0.036632
9318.000000;-0.035153
9317.000000;-0.033718
9316.000000;-0.032313
9315.000000;-0.031081
9314.000000;-0.030123
9313.000000;-0.029264
9312.000000;-0.028163
9311.000000;-0.026683
9310.000000;-0.025023
9309.000000;-0.023434
9308.000000;-0.021926
9307.000000;-0.020355
9306.000000;-0.018699
9305.000000;-0.017091
9304.000000;-0.015636
9303.000000;-0.014320
9302.000000;-0.013082
9301.000000;-0.011899
9300.000000;-0.010783
9299.000000;-0.009780
9298.000000;-0.008937
9297.000000;-0.008169
9296.000000;-0.007206
9295.000000;-0.005771
9294.000000;-0.003867
9293.000000;-0.001804
9292.000000;0.000041
9291.000000;0.001472
9290.000000;0.002508
9289.000000;0.003310
9288.000000;0.004114
9287.000000;0.005119
9286.000000;0.006347
9285.000000;0.007616
9284.000000;0.008706
9283.000000;0.009565
9282.000000;0.010387
9281.000000;0.011474
9280.000000;0.012993
9279.000000;0.014805
9278.000000;0.016577
9277.000000;0.018094
9276.000000;0.019431
9275.000000;0.020749
9274.000000;0.022029
9273.000000;0.023127
9272.000000;0.024048
9271.000000;0.025007
9270.000000;0.026195
9269.000000;0.027591
9268.000000;0.029045
9267.000000;0.030441
9266.000000;0.031746
9265.000000;0.032968
9264.000000;0.034119
9263.000000;0.035183
9262.000000;0.036117
9261.000000;0.036946
9260.000000;0.037860
9259.000000;0.039075
9258.000000;0.040557
9257.000000;0.041992
9256.000000;0.043145
9255.000000;0.044157
9254.000000;0.045375
9253.000000;0.046897
9252.000000;0.048418
9251.000000;0.049553
9250.000000;0.050243
9249.000000;0.050771
9248.000000;0.051441
9247.000000;0.052338
9246.000000;0.053394
9245.000000;0.054549
9244.000000;0.055774
9243.000000;0.056998
9242.000000;0.058167
9241.000000;0.059328
9240.000000;0.060537
9239.000000;0.061685
9238.000000;0.062610
9237.000000;0.063409
9236.000000;0.064444
9235.000000;0.065876
9234.000000;0.067351
9233.000000;0.068367
9232.000000;0.068873
9231.000000;0.069332
9230.000000;0.070202
9229.000000;0.071542
9228.000000;0.073084
9227.000000;0.074504
9226.000000;0.075618
9225.000000;0.076474
9224.000000;0.077295
9223.000000;0.078238
9222.000000;0.079225
9221.000000;0.080125
9220.000000;0.081048
9219.000000;0.082213
9218.000000;0.083560
9217.000000;0.084731
9216.000000;0.085528
9215.000000;0.086192
9214.000000;0.087098
9213.000000;0.088336
9212.000000;0.089709
9211.000000;0.091007
9210.000000;0.092126
9209.000000;0.093029
9208.000000;0.093751
9207.000000;0.094377
9206.000000;0.094952
9205.000000;0.095470
9204.000000;0.096003
9203.000000;0.096741
9202.000000;0.097805
9201.000000;0.099115
9200.000000;0.100498
9199.000000;0.101829
9198.000000;0.102981
9197.000000;0.103797
9196.000000;0.104249
9195.000000;0.104570
9194.000000;0.105064
9193.000000;0.105830
9192.000000;0.106756
9191.000000;0.107706
9190.000000;0.108598
9189.000000;0.109381
9188.000000;0.110061
9187.000000;0.110744
9186.000000;0.111542
9185.000000;0.112468
9184.000000;0.113482
9183.000000;0.114563
9182.000000;0.115641
9181.000000;0.116559
9180.000000;0.117234
9179.000000;0.117808
9178.000000;0.118504
9177.000000;0.119358
9176.000000;0.120232
9175.000000;0.121057
9174.000000;0.121899
9173.000000;0.122792
9172.000000;0.123664
9171.000000;0.124466
9170.000000;0.125247
9169.000000;0.126027
9168.000000;0.126705
9167.000000;0.127186
9166.000000;0.127541
9165.000000;0.127980
9164.000000;0.128668
9163.000000;0.129593
9162.000000;0.130590
9161.000000;0.131486
9160.000000;0.132263
9159.000000;0.133040
9158.000000;0.133909
9157.000000;0.134806
9156.000000;0.135612
9155.000000;0.136325
9154.000000;0.137037
9153.000000;0.137789
9152.000000;0.138546
9151.000000;0.139321
9150.000000;0.140204
9149.000000;0.141231
9148.000000;0.142278
9147.000000;0.143151
9146.000000;0.143747
9145.000000;0.144121
9144.000000;0.144426
9143.000000;0.144815
9142.000000;0.145349
9141.000000;0.145958
9140.000000;0.146501
9139.000000;0.146902
9138.000000;0.147239
9137.000000;0.147712
9136.000000;0.148513
9135.000000;0.149678
9134.000000;0.151031
9133.000000;0.152281
9132.000000;0.153241
9131.000000;0.153931
9130.000000;0.154494
9129.000000;0.155052
9128.000000;0.155668
9127.000000;0.156354
9126.000000;0.157033
9125.000000;0.157556
9124.000000;0.157865
9123.000000;0.158117
9122.000000;0.158534
9121.000000;0.159148
9120.000000;0.159797
9119.000000;0.160373
9118.000000;0.160938
9117.000000;0.161549
9116.000000;0.162115
9115.000000;0.162546
9114.000000;0.162968
9113.000000;0.163619
9112.000000;0.164544
9111.000000;0.165499
9110.000000;0.166231
9109.000000;0.166797
9108.000000;0.167507
9107.000000;0.168536
9106.000000;0.169648
9105.000000;0.170374
9104.000000;0.170463
9103.000000;0.170159
9102.000000;0.169993
9101.000000;0.170348
9100.000000;0.171212
9099.000000;0.172284
9098.000000;0.173246
9097.000000;0.173959
9096.000000;0.174491
9095.000000;0.174998
9094.000000;0.175569
9093.000000;0.176150
9092.000000;0.176625
9091.000000;0.176948
9090.000000;0.177201
9089.000000;0.177513
9088.000000;0.177968
9087.000000;0.178577
9086.000000;0.179299
9085.000000;0.180075
9084.000000;0.180862
9083.000000;0.181636
9082.000000;0.182339
9081.000000;0.182882
9080.000000;0.183259
9079.000000;0.183631
9078.000000;0.184195
9077.000000;0.184912
9076.000000;0.185485
9075.000000;0.185679
9074.000000;0.185610
9073.000000;0.185640
9072.000000;0.186022
9071.000000;0.186739
9070.000000;0.187646
9069.000000;0.188622
9068.000000;0.189565
9067.000000;0.190333
9066.000000;0.190802
