Criado como novo conjunto de dados;"0307_DANIEL.spp","13502.7 Secs"
cm-1;Abs
10000.000000;0.836320
9999.000000;0.835180
9998.000000;0.834030
9997.000000;0.832913
9996.000000;0.831637
9995.000000;0.830159
9994.000000;0.828792
9993.000000;0.827738
9992.000000;0.826910
9991.000000;0.826042
9990.000000;0.825027
9989.000000;0.823980
9988.000000;0.823002
9987.000000;0.822028
9986.000000;0.820936
9985.000000;0.819671
9984.000000;0.818220
9983.000000;0.816598
9982.000000;0.814957
9981.000000;0.813560
9980.000000;0.812516
9979.000000;0.811625
9978.000000;0.810649
9977.000000;0.809654
9976.000000;0.808889
9975.000000;0.808341
9974.000000;0.807619
9973.000000;0.806361
9972.000000;0.804626
9971.000000;0.802826
9970.000000;0.801355
9969.000000;0.800320
9968.000000;0.799500
9967.000000;0.798492
9966.000000;0.797007
9965.000000;0.795136
9964.000000;0.793308
9963.000000;0.791945
9962.000000;0.791158
9961.000000;0.790724
9960.000000;0.790252
9959.000000;0.789390
9958.000000;0.788038
9957.000000;0.786421
9956.000000;0.784867
9955.000000;0.783481
9954.000000;0.782127
9953.000000;0.780709
9952.000000;0.779327
9951.000000;0.778098
9950.000000;0.776990
9949.000000;0.775937
9948.000000;0.774978
9947.000000;0.774177
9946.000000;0.773499
9945.000000;0.772848
9944.000000;0.772118
9943.000000;0.771114
9942.000000;0.769606
9941.000000;0.767638
9940.000000;0.765670
9939.000000;0.764170
9938.000000;0.763112
9937.000000;0.762039
9936.000000;0.760618
9935.000000;0.758952
9934.000000;0.757377
9933.000000;0.756120
9932.000000;0.755178
9931.000000;0.754359
9930.000000;0.753379
9929.000000;0.752063
9928.000000;0.750516
9927.000000;0.749019
9926.000000;0.747721
9925.000000;0.746504
9924.000000;0.745165
9923.000000;0.743628
9922.000000;0.741967
9921.000000;0.740307
9920.000000;0.738772
9919.000000;0.737472
9918.000000;0.736471
9917.000000;0.735774
9916.000000;0.735285
9915.000000;0.734748
9914.000000;0.733822
9913.000000;0.732375
9912.000000;0.730699
9911.000000;0.729252
9910.000000;0.728141
9909.000000;0.727020
9908.000000;0.725564
9907.000000;0.723894
9906.000000;0.722381
9905.000000;0.721110
9904.000000;0.719761
9903.000000;0.718055
9902.000000;0.716191
9901.000000;0.714698
9900.000000;0.713875
9899.000000;0.713458
9898.000000;0.712884
9897.000000;0.711835
9896.000000;0.710450
9895.000000;0.709012
9894.000000;0.707574
9893.000000;0.705978
9892.000000;0.704178
9891.000000;0.702376
9890.000000;0.700819
9889.000000;0.699529
9888.000000;0.698300
9887.000000;0.696952
9886.000000;0.695541
9885.000000;0.694298
9884.000000;0.693328
9883.000000;0.692425
9882.000000;0.691264
9881.000000;0.689788
9880.000000;0.688253
9879.000000;0.686854
9878.000000;0.685474
9877.000000;0.683916
9876.000000;0.682251
9875.000000;0.680717
9874.000000;0.679356
9873.000000;0.677983
9872.000000;0.676522
9871.000000;0.675131
9870.000000;0.673940
9869.000000;0.672820
9868.000000;0.671531
9867.000000;0.669975
9866.000000;0.668237
9865.000000;0.666489
9864.000000;0.664919
9863.000000;0.663646
9862.000000;0.662592
9861.000000;0.661532
9860.000000;0.660303
9859.000000;0.658925
9858.000000;0.657500
9857.000000;0.656110
9856.000000;0.654825
9855.000000;0.653649
9854.000000;0.652409
9853.000000;0.650862
9852.000000;0.648997
9851.000000;0.647111
9850.000000;0.645468
9849.000000;0.644042
9848.000000;0.642699
9847.000000;0.641448
9846.000000;0.640318
9845.000000;0.639131
9844.000000;0.637667
9843.000000;0.635998
9842.000000;0.634402
9841.000000;0.632940
9840.000000;0.631375
9839.000000;0.629566
9838.000000;0.627719
9837.000000;0.626116
9836.000000;0.624754
9835.000000;0.623410
9834.000000;0.621947
9833.000000;0.620410
9832.000000;0.618867
9831.000000;0.617333
9830.000000;0.615831
9829.000000;0.614415
9828.000000;0.613076
9827.000000;0.611712
9826.000000;0.610219
9825.000000;0.608598
9824.000000;0.606937
9823.000000;0.605326
9822.000000;0.603783
9821.000000;0.602271
9820.000000;0.600736
9819.000000;0.599134
9818.000000;0.597422
9817.000000;0.595565
9816.000000;0.593592
9815.000000;0.591667
9814.000000;0.590035
9813.000000;0.588850
9812.000000;0.588012
9811.000000;0.587205
9810.000000;0.586097
9809.000000;0.584567
9808.000000;0.582774
9807.000000;0.581040
9806.000000;0.579620
9805.000000;0.578512
9804.000000;0.577457
9803.000000;0.576137
9802.000000;0.574441
9801.000000;0.572535
9800.000000;0.570672
9799.000000;0.568971
9798.000000;0.567394
9797.000000;0.565882
9796.000000;0.564417
9795.000000;0.562943
9794.000000;0.561338
9793.000000;0.559584
9792.000000;0.557893
9791.000000;0.556505
9790.000000;0.555338
9789.000000;0.553984
9788.000000;0.552156
9787.000000;0.550048
9786.000000;0.548130
9785.000000;0.546605
9784.000000;0.545223
9783.000000;0.543641
9782.000000;0.541834
9781.000000;0.540038
9780.000000;0.538392
9779.000000;0.536785
9778.000000;0.535066
9777.000000;0.533260
9776.000000;0.531480
9775.000000;0.529727
9774.000000;0.527907
9773.000000;0.526030
9772.000000;0.524284
9771.000000;0.522819
9770.000000;0.521524
9769.000000;0.520115
9768.000000;0.518415
9767.000000;0.516500
9766.000000;0.514577
9765.000000;0.512789
9764.000000;0.511185
9763.000000;0.509776
9762.000000;0.508511
9761.000000;0.507225
9760.000000;0.505701
9759.000000;0.503874
9758.000000;0.501895
9757.000000;0.499964
9756.000000;0.498151
9755.000000;0.496433
9754.000000;0.494844
9753.000000;0.493450
9752.000000;0.492150
9751.000000;0.490653
9750.000000;0.488758
9749.000000;0.486596
9748.000000;0.484493
9747.000000;0.482610
9746.000000;0.480840
9745.000000;0.479024
9744.000000;0.477160
9743.000000;0.475352
9742.000000;0.473665
9741.000000;0.472070
9740.000000;0.470485
9739.000000;0.468798
9738.000000;0.466929
9737.000000;0.464931
9736.000000;0.463004
9735.000000;0.461347
9734.000000;0.459974
9733.000000;0.458684
9732.000000;0.457185
9731.000000;0.455265
9730.000000;0.452929
9729.000000;0.450433
9728.000000;0.448129
9727.000000;0.446196
9726.000000;0.444521
9725.000000;0.442869
9724.000000;0.441128
9723.000000;0.439356
9722.000000;0.437630
9721.000000;0.435927
9720.000000;0.434172
9719.000000;0.432339
9718.000000;0.430498
9717.000000;0.428760
9716.000000;0.427154
9715.000000;0.425549
9714.000000;0.423756
9713.000000;0.421750
9712.000000;0.419733
9711.000000;0.417917
9710.000000;0.416278
9709.000000;0.414608
9708.000000;0.412787
9707.000000;0.410891
9706.000000;0.409026
9705.000000;0.407166
9704.000000;0.405207
9703.000000;0.403151
9702.000000;0.401141
9701.000000;0.399304
9700.000000;0.397554
9699.000000;0.395617
9698.000000;0.393308
9697.000000;0.390783
9696.000000;0.388450
9695.000000;0.386567
9694.000000;0.384972
9693.000000;0.383274
9692.000000;0.381258
9691.000000;0.379031
9690.000000;0.376809
9689.000000;0.374701
9688.000000;0.372699
9687.000000;0.370798
9686.000000;0.369015
9685.000000;0.367340
9684.000000;0.365693
9683.000000;0.363946
9682.000000;0.361990
9681.000000;0.359835
9680.000000;0.357624
9679.000000;0.355518
9678.000000;0.353560
9677.000000;0.351679
9676.000000;0.349796
9675.000000;0.347896
9674.000000;0.345985
9673.000000;0.344068
9672.000000;0.342160
9671.000000;0.340255
9670.000000;0.338269
9669.000000;0.336075
9668.000000;0.333636
9667.000000;0.331093
9666.000000;0.328675
9665.000000;0.326529
9664.000000;0.324619
9663.000000;0.322761
9662.000000;0.320778
9661.000000;0.318636
9660.000000;0.316434
9659.000000;0.314275
9658.000000;0.312192
9657.000000;0.310216
9656.000000;0.308412
9655.000000;0.306762
9654.000000;0.305072
9653.000000;0.303120
9652.000000;0.300888
9651.000000;0.298551
9650.000000;0.296257
9649.000000;0.294005
9648.000000;0.291734
9647.000000;0.289414
9646.000000;0.287045
9645.000000;0.284678
9644.000000;0.282449
9643.000000;0.280474
9642.000000;0.278667
9641.000000;0.276759
9640.000000;0.274579
9639.000000;0.272240
9638.000000;0.269987
9637.000000;0.267945
9636.000000;0.266067
9635.000000;0.264236
9634.000000;0.262321
9633.000000;0.260184
9632.000000;0.257760
9631.000000;0.255141
9630.000000;0.252513
9629.000000;0.250034
9628.000000;0.247781
9627.000000;0.245748
9626.000000;0.243836
9625.000000;0.241879
9624.000000;0.239762
9623.000000;0.237525
9622.000000;0.235300
9621.000000;0.233141
9620.000000;0.230972
9619.000000;0.228675
9618.000000;0.226222
9617.000000;0.223710
9616.000000;0.221315
9615.000000;0.219155
9614.000000;0.217190
9613.000000;0.215241
9612.000000;0.213148
9611.000000;0.210892
9610.000000;0.208541
9609.000000;0.206149
9608.000000;0.203742
9607.000000;0.201364
9606.000000;0.199055
9605.000000;0.196800
9604.000000;0.194548
9603.000000;0.192276
9602.000000;0.189992
9601.000000;0.187699
9600.000000;0.185378
9599.000000;0.183036
9598.000000;0.180716
9597.000000;0.178480
9596.000000;0.176376
9595.000000;0.174402
9594.000000;0.172467
9593.000000;0.170428
9592.000000;0.168199
9591.000000;0.165821
9590.000000;0.163376
9589.000000;0.160866
9588.000000;0.158247
9587.000000;0.155561
9586.000000;0.152981
9585.000000;0.150665
9584.000000;0.148608
9583.000000;0.146619
9582.000000;0.144458
9581.000000;0.142024
9580.000000;0.139471
9579.000000;0.137086
9578.000000;0.134990
9577.000000;0.132942
9576.000000;0.130552
9575.000000;0.127718
9574.000000;0.124792
9573.000000;0.122233
9572.000000;0.120136
9571.000000;0.118174
9570.000000;0.115992
9569.000000;0.113563
9568.000000;0.111156
9567.000000;0.108998
9566.000000;0.107045
9565.000000;0.105071
9564.000000;0.102892
9563.000000;0.100505
9562.000000;0.098014
9561.000000;0.095509
9560.000000;0.093036
9559.000000;0.090656
9558.000000;0.088450
9557.000000;0.086425
9556.000000;0.084438
9555.000000;0.082270
9554.000000;0.079813
9553.000000;0.077132
9552.000000;0.074366
9551.000000;0.071642
9550.000000;0.069099
9549.000000;0.066908
9548.000000;0.065106
9547.000000;0.063452
9546.000000;0.061589
9545.000000;0.059404
9544.000000;0.057118
9543.000000;0.054952
9542.000000;0.052842
9541.000000;0.050585
9540.000000;0.048182
9539.000000;0.045853
9538.000000;0.043723
9537.000000;0.041674
9536.000000;0.039551
9535.000000;0.037387
9534.000000;0.035331
9533.000000;0.033437
9532.000000;0.031622
9531.000000;0.029792
9530.000000;0.027922
9529.000000;0.026008
9528.000000;0.024028
9527.000000;0.021949
9526.000000;0.019767
9525.000000;0.017521
9524.000000;0.015299
9523.000000;0.013183
9522.000000;0.011189
9521.000000;0.009244
9520.000000;0.007266
9519.000000;0.005229
9518.000000;0.003152
9517.000000;0.001079
9516.000000;-0.000913
9515.000000;-0.002733
9514.000000;-0.004366
9513.000000;-0.005944
9512.000000;-0.007655
9511.000000;-0.009584
9510.000000;-0.011657
9509.000000;-0.013725
9508.000000;-0.015679
9507.000000;-0.017484
9506.000000;-0.019153
9505.000000;-0.020733
9504.000000;-0.022298
9503.000000;-0.023935
9502.000000;-0.025675
9501.000000;-0.027452
9500.000000;-0.029146
9499.000000;-0.030712
9498.000000;-0.032252
9497.000000;-0.033884
9496.000000;-0.035588
9495.000000;-0.037235
9494.000000;-0.038766
9493.000000;-0.040233
9492.000000;-0.041645
9491.000000;-0.042894
9490.000000;-0.043928
9489.000000;-0.044876
9488.000000;-0.045902
9487.000000;-0.047027
9486.000000;-0.048206
9485.000000;-0.049510
9484.000000;-0.051046
9483.000000;-0.052728
9482.000000;-0.054294
9481.000000;-0.055587
9480.000000;-0.056673
9479.000000;-0.057666
9478.000000;-0.058596
9477.000000;-0.059511
9476.000000;-0.060559
9475.000000;-0.061814
9474.000000;-0.063113
9473.000000;-0.064194
9472.000000;-0.064957
9471.000000;-0.065538
9470.000000;-0.066169
9469.000000;-0.067056
9468.000000;-0.068296
9467.000000;-0.069783
9466.000000;-0.071210
9465.000000;-0.072263
9464.000000;-0.072842
9463.000000;-0.073062
9462.000000;-0.073091
9461.000000;-0.073075
9460.000000;-0.073174
9459.000000;-0.073516
9458.000000;-0.074092
9457.000000;-0.074782
9456.000000;-0.075496
9455.000000;-0.076212
9454.000000;-0.076867
9453.000000;-0.077329
9452.000000;-0.077549
9451.000000;-0.077657
9450.000000;-0.077852
9449.000000;-0.078208
9448.000000;-0.078616
9447.000000;-0.078875
9446.000000;-0.078839
9445.000000;-0.078535
9444.000000;-0.078180
9443.000000;-0.078037
9442.000000;-0.078211
9441.000000;-0.078578
9440.000000;-0.078913
9439.000000;-0.079044
9438.000000;-0.078911
9437.000000;-0.078583
9436.000000;-0.078234
9435.000000;-0.078032
9434.000000;-0.077990
9433.000000;-0.077973
9432.000000;-0.077901
9431.000000;-0.077878
9430.000000;-0.078033
9429.000000;-0.078298
9428.000000;-0.078423
9427.000000;-0.078205
9426.000000;-0.077647
9425.000000;-0.076899
9424.000000;-0.076128
9423.000000;-0.075441
9422.000000;-0.074862
9421.000000;-0.074326
9420.000000;-0.073738
9419.000000;-0.073055
9418.000000;-0.072320
9417.000000;-0.071608
9416.000000;-0.070974
9415.000000;-0.070435
9414.000000;-0.069974
9413.000000;-0.069526
9412.000000;-0.069014
9411.000000;-0.068406
9410.000000;-0.067748
9409.000000;-0.067129
9408.000000;-0.066600
9407.000000;-0.066129
9406.000000;-0.065617
9405.000000;-0.064985
9404.000000;-0.064244
9403.000000;-0.063447
9402.000000;-0.062576
9401.000000;-0.061528
9400.000000;-0.060279
9399.000000;-0.059014
9398.000000;-0.057994
9397.000000;-0.057293
9396.000000;-0.056744
9395.000000;-0.056137
9394.000000;-0.055412
9393.000000;-0.054603
9392.000000;-0.053681
9391.000000;-0.052543
9390.000000;-0.051156
9389.000000;-0.049663
9388.000000;-0.048308
9387.000000;-0.047244
9386.000000;-0.046409
9385.000000;-0.045582
9384.000000;-0.044605
9383.000000;-0.043519
9382.000000;-0.042469
9381.000000;-0.041494
9380.000000;-0.040496
9379.000000;-0.039414
9378.000000;-0.038333
9377.000000;-0.037372
9376.000000;-0.036529
9375.000000;-0.035698
9374.000000;-0.034792
9373.000000;-0.033765
9372.000000;-0.032564
9371.000000;-0.031176
9370.000000;-0.029708
9369.000000;-0.028329
9368.000000;-0.027105
9367.000000;-0.025954
9366.000000;-0.024776
9365.000000;-0.023562
9364.000000;-0.022361
9363.000000;-0.021199
9362.000000;-0.020074
9361.000000;-0.018979
9360.000000;-0.017883
9359.000000;-0.016727
9358.000000;-0.015489
9357.000000;-0.014232
9356.000000;-0.013033
9355.000000;-0.011892
9354.000000;-0.010736
9353.000000;-0.009526
9352.000000;-0.008322
9351.000000;-0.007222
9350.000000;-0.006244
9349.000000;-0.005307
9348.000000;-0.004315
9347.000000;-0.003246
9346.000000;-0.002131
9345.000000;-0.000962
9344.000000;0.000315
9343.000000;0.001701
9342.000000;0.003097
9341.000000;0.004395
9340.000000;0.005606
9339.000000;0.006845
9338.000000;0.008189
9337.000000;0.009602
9336.000000;0.010981
9335.000000;0.012249
9334.000000;0.013423
9333.000000;0.014616
9332.000000;0.015943
9331.000000;0.017382
9330.000000;0.018745
9329.000000;0.019874
9328.000000;0.020833
9327.000000;0.021850
9326.000000;0.023061
9325.000000;0.024409
9324.000000;0.025767
9323.000000;0.027061
9322.000000;0.028266
9321.000000;0.029365
9320.000000;0.030379
9319.000000;0.031369
9318.000000;0.032365
9317.000000;0.033355
9316.000000;0.034357
9315.000000;0.035421
9314.000000;0.036528
9313.000000;0.037569
9312.000000;0.038482
9311.000000;0.039359
9310.000000;0.040355
9309.000000;0.041541
9308.000000;0.042913
9307.000000;0.044435
9306.000000;0.046025
9305.000000;0.047536
9304.000000;0.048862
9303.000000;0.050040
9302.000000;0.051180
9301.000000;0.052307
9300.000000;0.053360
9299.000000;0.054315
9298.000000;0.055242
9297.000000;0.056244
9296.000000;0.057388
9295.000000;0.058660
9294.000000;0.059946
9293.000000;0.061078
9292.000000;0.061987
9291.000000;0.062791
9290.000000;0.063687
9289.000000;0.064736
9288.000000;0.065804
9287.000000;0.066697
9286.000000;0.067364
9285.000000;0.067974
9284.000000;0.068837
9283.000000;0.070173
9282.000000;0.071880
9281.000000;0.073552
9280.000000;0.074822
9279.000000;0.075675
9278.000000;0.076375
9277.000000;0.077136
9276.000000;0.077968
9275.000000;0.078821
9274.000000;0.079729
9273.000000;0.080766
9272.000000;0.081935
9271.000000;0.083167
9270.000000;0.084391
9269.000000;0.085565
9268.000000;0.086681
9267.000000;0.087762
9266.000000;0.088797
9265.000000;0.089698
9264.000000;0.090381
9263.000000;0.090935
9262.000000;0.091638
9261.000000;0.092712
9260.000000;0.094066
9259.000000;0.095342
9258.000000;0.096275
9257.000000;0.096971
9256.000000;0.097800
9255.000000;0.098975
9254.000000;0.100295
9253.000000;0.101362
9252.000000;0.102053
9251.000000;0.102669
9250.000000;0.103568
9249.000000;0.104764
9248.000000;0.105961
9247.000000;0.106929
9246.000000;0.107704
9245.000000;0.108442
9244.000000;0.109220
9243.000000;0.110037
9242.000000;0.110895
9241.000000;0.111798
9240.000000;0.112716
9239.000000;0.113609
9238.000000;0.114485
9237.000000;0.115397
9236.000000;0.116374
9235.000000;0.117384
9234.000000;0.118331
9233.000000;0.119129
9232.000000;0.119797
9231.000000;0.120481
9230.000000;0.121317
9229.000000;0.122290
9228.000000;0.123268
9227.000000;0.124171
9226.000000;0.125044
9225.000000;0.125945
9224.000000;0.126859
9223.000000;0.127751
9222.000000;0.128633
9221.000000;0.129517
9220.000000;0.130354
9219.000000;0.131087
9218.000000;0.131724
9217.000000;0.132324
9216.000000;0.132919
9215.000000;0.133526
9214.000000;0.134187
9213.000000;0.134946
9212.000000;0.135765
9211.000000;0.136527
9210.000000;0.137167
9209.000000;0.137778
9208.000000;0.138546
9207.000000;0.139571
9206.000000;0.140756
9205.000000;0.141891
9204.000000;0.142827
9203.000000;0.143554
9202.000000;0.144141
9201.000000;0.144669
9200.000000;0.145219
9199.000000;0.145871
9198.000000;0.146635
9197.000000;0.147438
9196.000000;0.148207
9195.000000;0.148947
9194.000000;0.149686
9193.000000;0.150388
9192.000000;0.150998
9191.000000;0.151544
9190.000000;0.152111
9189.000000;0.152739
9188.000000;0.153423
9187.000000;0.154204
9186.000000;0.155130
9185.000000;0.156123
9184.000000;0.156994
9183.000000;0.157636
9182.000000;0.158118
9181.000000;0.158562
9180.000000;0.159026
9179.000000;0.159557
9178.000000;0.160235
9177.000000;0.161075
9176.000000;0.161946
9175.000000;0.162700
9174.000000;0.163343
9173.000000;0.163970
9172.000000;0.164594
9171.000000;0.165142
9170.000000;0.165619
9169.000000;0.166126
9168.000000;0.166708
9167.000000;0.167251
9166.000000;0.167630
9165.000000;0.167892
9164.000000;0.168257
9163.000000;0.168908
9162.000000;0.169797
9161.000000;0.170675
9160.000000;0.171332
9159.000000;0.171810
9158.000000;0.172345
9157.000000;0.173089
9156.000000;0.173947
9155.000000;0.174707
9154.000000;0.175272
9153.000000;0.175694
9152.000000;0.176046
9151.000000;0.176383
9150.000000;0.176767
9149.000000;0.177238
9148.000000;0.177726
9147.000000;0.178128
9146.000000;0.178501
9145.000000;0.179072
9144.000000;0.179999
9143.000000;0.181153
9142.000000;0.182203
9141.000000;0.182893
9140.000000;0.183203
9139.000000;0.183303
9138.000000;0.183408
9137.000000;0.183655
9136.000000;0.184052
9135.000000;0.184517
9134.000000;0.184989
9133.000000;0.185473
9132.000000;0.185974
9131.000000;0.186449
9130.000000;0.186862
9129.000000;0.187269
9128.000000;0.187772
9127.000000;0.188402
9126.000000;0.189097
9125.000000;0.189792
9124.000000;0.190474
9123.000000;0.191128
9122.000000;0.191683
9121.000000;0.192072
9120.000000;0.192324
9119.000000;0.192561
9118.000000;0.192889
9117.000000;0.193325
9116.000000;0.193814
9115.000000;0.194315
9114.000000;0.194827
9113.000000;0.195346
9112.000000;0.195822
9111.000000;0.196198
9110.000000;0.196484
9109.000000;0.196771
9108.000000;0.197144
9107.000000;0.197612
9106.000000;0.198132
9105.000000;0.198681
9104.000000;0.199258
9103.000000;0.199828
9102.000000;0.200309
9101.000000;0.200647
9100.000000;0.200884
9099.000000;0.201135
9098.000000;0.201502
9097.000000;0.202005
9096.000000;0.202562
9095.000000;0.203032
9094.000000;0.203321
9093.000000;0.203485
9092.000000;0.203709
9091.000000;0.204142
9090.000000;0.204753
9089.000000;0.205363
9088.000000;0.205822
9087.000000;0.206104
9086.000000;0.206276
9085.000000;0.206420
9084.000000;0.206628
9083.000000;0.206997
9082.000000;0.207551
9081.000000;0.208169
9080.000000;0.208658
9079.000000;0.208904
9078.000000;0.208983
9077.000000;0.209109
9076.000000;0.209479
9075.000000;0.210111
9074.000000;0.210802
9073.000000;0.211263
9072.000000;0.211366
9071.000000;0.211274
9070.000000;0.211286
9069.000000;0.211529
9068.000000;0.211866
9067.000000;0.212116
9066.000000;0.212294
9065.000000;0.212571
9064.000000;0.213023
9063.000000;0.213543
9062.000000;0.214000
9061.000000;0.214396
