Criado como novo conjunto de dados;"0307_DANIEL.spp","6842.1 Secs"
cm-1;Abs
10000.000000;0.275584
9999.000000;0.274206
9998.000000;0.272911
9997.000000;0.271720
9996.000000;0.270577
9995.000000;0.269408
9994.000000;0.268202
9993.000000;0.267033
9992.000000;0.265966
9991.000000;0.264971
9990.000000;0.264001
9989.000000;0.263081
9988.000000;0.262233
9987.000000;0.261345
9986.000000;0.260261
9985.000000;0.259004
9984.000000;0.257772
9983.000000;0.256687
9982.000000;0.255666
9981.000000;0.254578
9980.000000;0.253430
9979.000000;0.252315
9978.000000;0.251271
9977.000000;0.250261
9976.000000;0.249229
9975.000000;0.248126
9974.000000;0.246937
9973.000000;0.245718
9972.000000;0.244541
9971.000000;0.243379
9970.000000;0.242138
9969.000000;0.240836
9968.000000;0.239636
9967.000000;0.238638
9966.000000;0.237734
9965.000000;0.236754
9964.000000;0.235681
9963.000000;0.234611
9962.000000;0.233580
9961.000000;0.232528
9960.000000;0.231395
9959.000000;0.230167
9958.000000;0.228852
9957.000000;0.227501
9956.000000;0.226227
9955.000000;0.225116
9954.000000;0.224141
9953.000000;0.223193
9952.000000;0.222178
9951.000000;0.221024
9950.000000;0.219668
9949.000000;0.218154
9948.000000;0.216691
9947.000000;0.215503
9946.000000;0.214580
9945.000000;0.213687
9944.000000;0.212626
9943.000000;0.211422
9942.000000;0.210209
9941.000000;0.209045
9940.000000;0.207892
9939.000000;0.206725
9938.000000;0.205564
9937.000000;0.204427
9936.000000;0.203292
9935.000000;0.202128
9934.000000;0.200937
9933.000000;0.199747
9932.000000;0.198582
9931.000000;0.197438
9930.000000;0.196283
9929.000000;0.195082
9928.000000;0.193845
9927.000000;0.192623
9926.000000;0.191452
9925.000000;0.190294
9924.000000;0.189061
9923.000000;0.187698
9922.000000;0.186262
9921.000000;0.184897
9920.000000;0.183705
9919.000000;0.182646
9918.000000;0.181569
9917.000000;0.180362
9916.000000;0.179066
9915.000000;0.177836
9914.000000;0.176780
9913.000000;0.175833
9912.000000;0.174789
9911.000000;0.173476
9910.000000;0.171908
9909.000000;0.170271
9908.000000;0.168751
9907.000000;0.167403
9906.000000;0.166182
9905.000000;0.165047
9904.000000;0.163986
9903.000000;0.162947
9902.000000;0.161832
9901.000000;0.160587
9900.000000;0.159252
9899.000000;0.157911
9898.000000;0.156616
9897.000000;0.155382
9896.000000;0.154202
9895.000000;0.153042
9894.000000;0.151857
9893.000000;0.150633
9892.000000;0.149400
9891.000000;0.148169
9890.000000;0.146897
9889.000000;0.145553
9888.000000;0.144186
9887.000000;0.142896
9886.000000;0.141727
9885.000000;0.140629
9884.000000;0.139503
9883.000000;0.138244
9882.000000;0.136777
9881.000000;0.135104
9880.000000;0.133349
9879.000000;0.131701
9878.000000;0.130284
9877.000000;0.129094
9876.000000;0.128062
9875.000000;0.127127
9874.000000;0.126232
9873.000000;0.125273
9872.000000;0.124127
9871.000000;0.122731
9870.000000;0.121126
9869.000000;0.119438
9868.000000;0.117821
9867.000000;0.116388
9866.000000;0.115126
9865.000000;0.113907
9864.000000;0.112620
9863.000000;0.111306
9862.000000;0.110104
9861.000000;0.109049
9860.000000;0.107984
9859.000000;0.106734
9858.000000;0.105304
9857.000000;0.103839
9856.000000;0.102423
9855.000000;0.101000
9854.000000;0.099501
9853.000000;0.097958
9852.000000;0.096447
9851.000000;0.094984
9850.000000;0.093517
9849.000000;0.092016
9848.000000;0.090523
9847.000000;0.089112
9846.000000;0.087820
9845.000000;0.086598
9844.000000;0.085319
9843.000000;0.083904
9842.000000;0.082418
9841.000000;0.081008
9840.000000;0.079720
9839.000000;0.078427
9838.000000;0.076994
9837.000000;0.075455
9836.000000;0.073962
9835.000000;0.072589
9834.000000;0.071259
9833.000000;0.069868
9832.000000;0.068414
9831.000000;0.066984
9830.000000;0.065648
9829.000000;0.064391
9828.000000;0.063119
9827.000000;0.061723
9826.000000;0.060168
9825.000000;0.058545
9824.000000;0.057002
9823.000000;0.055614
9822.000000;0.054332
9821.000000;0.053039
9820.000000;0.051651
9819.000000;0.050149
9818.000000;0.048562
9817.000000;0.046948
9816.000000;0.045407
9815.000000;0.044031
9814.000000;0.042828
9813.000000;0.041675
9812.000000;0.040384
9811.000000;0.038838
9810.000000;0.037082
9809.000000;0.035271
9808.000000;0.033554
9807.000000;0.031991
9806.000000;0.030554
9805.000000;0.029154
9804.000000;0.027696
9803.000000;0.026135
9802.000000;0.024518
9801.000000;0.022948
9800.000000;0.021497
9799.000000;0.020152
9798.000000;0.018822
9797.000000;0.017397
9796.000000;0.015838
9795.000000;0.014220
9794.000000;0.012666
9793.000000;0.011213
9792.000000;0.009761
9791.000000;0.008211
9790.000000;0.006604
9789.000000;0.005068
9788.000000;0.003646
9787.000000;0.002247
9786.000000;0.000777
9785.000000;-0.000756
9784.000000;-0.002275
9783.000000;-0.003735
9782.000000;-0.005157
9781.000000;-0.006625
9780.000000;-0.008230
9779.000000;-0.009972
9778.000000;-0.011734
9777.000000;-0.013396
9776.000000;-0.014973
9775.000000;-0.016574
9774.000000;-0.018241
9773.000000;-0.019917
9772.000000;-0.021559
9771.000000;-0.023177
9770.000000;-0.024751
9769.000000;-0.026239
9768.000000;-0.027699
9767.000000;-0.029302
9766.000000;-0.031121
9765.000000;-0.033005
9764.000000;-0.034735
9763.000000;-0.036240
9762.000000;-0.037608
9761.000000;-0.038949
9760.000000;-0.040357
9759.000000;-0.041917
9758.000000;-0.043651
9757.000000;-0.045456
9756.000000;-0.047189
9755.000000;-0.048806
9754.000000;-0.050369
9753.000000;-0.051956
9752.000000;-0.053605
9751.000000;-0.055323
9750.000000;-0.057096
9749.000000;-0.058882
9748.000000;-0.060651
9747.000000;-0.062395
9746.000000;-0.064089
9745.000000;-0.065692
9744.000000;-0.067227
9743.000000;-0.068798
9742.000000;-0.070482
9741.000000;-0.072244
9740.000000;-0.074018
9739.000000;-0.075797
9738.000000;-0.077586
9737.000000;-0.079330
9736.000000;-0.080967
9735.000000;-0.082519
9734.000000;-0.084066
9733.000000;-0.085657
9732.000000;-0.087318
9731.000000;-0.089087
9730.000000;-0.090981
9729.000000;-0.092934
9728.000000;-0.094865
9727.000000;-0.096751
9726.000000;-0.098601
9725.000000;-0.100372
9724.000000;-0.102019
9723.000000;-0.103581
9722.000000;-0.105158
9721.000000;-0.106813
9720.000000;-0.108546
9719.000000;-0.110319
9718.000000;-0.112067
9717.000000;-0.113725
9716.000000;-0.115330
9715.000000;-0.117044
9714.000000;-0.118976
9713.000000;-0.121024
9712.000000;-0.122974
9711.000000;-0.124749
9710.000000;-0.126453
9709.000000;-0.128190
9708.000000;-0.129964
9707.000000;-0.131740
9706.000000;-0.133527
9705.000000;-0.135352
9704.000000;-0.137220
9703.000000;-0.139113
9702.000000;-0.141006
9701.000000;-0.142876
9700.000000;-0.144738
9699.000000;-0.146643
9698.000000;-0.148597
9697.000000;-0.150506
9696.000000;-0.152288
9695.000000;-0.153996
9694.000000;-0.155740
9693.000000;-0.157540
9692.000000;-0.159338
9691.000000;-0.161151
9690.000000;-0.163068
9689.000000;-0.165104
9688.000000;-0.167150
9687.000000;-0.169112
9686.000000;-0.171020
9685.000000;-0.172965
9684.000000;-0.174975
9683.000000;-0.176997
9682.000000;-0.178953
9681.000000;-0.180807
9680.000000;-0.182597
9679.000000;-0.184400
9678.000000;-0.186246
9677.000000;-0.188083
9676.000000;-0.189889
9675.000000;-0.191755
9674.000000;-0.193777
9673.000000;-0.195904
9672.000000;-0.197988
9671.000000;-0.199976
9670.000000;-0.201952
9669.000000;-0.203972
9668.000000;-0.205969
9667.000000;-0.207862
9666.000000;-0.209697
9665.000000;-0.211613
9664.000000;-0.213703
9663.000000;-0.215912
9662.000000;-0.218072
9661.000000;-0.220040
9660.000000;-0.221850
9659.000000;-0.223694
9658.000000;-0.225718
9657.000000;-0.227869
9656.000000;-0.230001
9655.000000;-0.232068
9654.000000;-0.234114
9653.000000;-0.236122
9652.000000;-0.238029
9651.000000;-0.239893
9650.000000;-0.241909
9649.000000;-0.244168
9648.000000;-0.246504
9647.000000;-0.248664
9646.000000;-0.250578
9645.000000;-0.252393
9644.000000;-0.254293
9643.000000;-0.256351
9642.000000;-0.258533
9641.000000;-0.260776
9640.000000;-0.263024
9639.000000;-0.265234
9638.000000;-0.267366
9637.000000;-0.269416
9636.000000;-0.271448
9635.000000;-0.273550
9634.000000;-0.275742
9633.000000;-0.277935
9632.000000;-0.280039
9631.000000;-0.282063
9630.000000;-0.284077
9629.000000;-0.286112
9628.000000;-0.288162
9627.000000;-0.290242
9626.000000;-0.292385
9625.000000;-0.294570
9624.000000;-0.296732
9623.000000;-0.298831
9622.000000;-0.300872
9621.000000;-0.302866
9620.000000;-0.304840
9619.000000;-0.306877
9618.000000;-0.309073
9617.000000;-0.311449
9616.000000;-0.313932
9615.000000;-0.316403
9614.000000;-0.318743
9613.000000;-0.320875
9612.000000;-0.322858
9611.000000;-0.324903
9610.000000;-0.327182
9609.000000;-0.329640
9608.000000;-0.332043
9607.000000;-0.334242
9606.000000;-0.336294
9605.000000;-0.338336
9604.000000;-0.340447
9603.000000;-0.342645
9602.000000;-0.344932
9601.000000;-0.347269
9600.000000;-0.349563
9599.000000;-0.351739
9598.000000;-0.353813
9597.000000;-0.355881
9596.000000;-0.358047
9595.000000;-0.360341
9594.000000;-0.362691
9593.000000;-0.364969
9592.000000;-0.367121
9591.000000;-0.369208
9590.000000;-0.371316
9589.000000;-0.373452
9588.000000;-0.375588
9587.000000;-0.377754
9586.000000;-0.380006
9585.000000;-0.382328
9584.000000;-0.384624
9583.000000;-0.386842
9582.000000;-0.389016
9581.000000;-0.391220
9580.000000;-0.393504
9579.000000;-0.395872
9578.000000;-0.398255
9577.000000;-0.400559
9576.000000;-0.402778
9575.000000;-0.405028
9574.000000;-0.407394
9573.000000;-0.409795
9572.000000;-0.412098
9571.000000;-0.414295
9570.000000;-0.416484
9569.000000;-0.418713
9568.000000;-0.420964
9567.000000;-0.423246
9566.000000;-0.425558
9565.000000;-0.427789
9564.000000;-0.429820
9563.000000;-0.431731
9562.000000;-0.433763
9561.000000;-0.436035
9560.000000;-0.438437
9559.000000;-0.440816
9558.000000;-0.443124
9557.000000;-0.445349
9556.000000;-0.447466
9555.000000;-0.449527
9554.000000;-0.451672
9553.000000;-0.453954
9552.000000;-0.456259
9551.000000;-0.458486
9550.000000;-0.460686
9549.000000;-0.462945
9548.000000;-0.465226
9547.000000;-0.467426
9546.000000;-0.469525
9545.000000;-0.471578
9544.000000;-0.473598
9543.000000;-0.475576
9542.000000;-0.477552
9541.000000;-0.479602
9540.000000;-0.481762
9539.000000;-0.484017
9538.000000;-0.486344
9537.000000;-0.488704
9536.000000;-0.491022
9535.000000;-0.493229
9534.000000;-0.495323
9533.000000;-0.497342
9532.000000;-0.499324
9531.000000;-0.501307
9530.000000;-0.503324
9529.000000;-0.505340
9528.000000;-0.507262
9527.000000;-0.509051
9526.000000;-0.510804
9525.000000;-0.512675
9524.000000;-0.514738
9523.000000;-0.516951
9522.000000;-0.519195
9521.000000;-0.521314
9520.000000;-0.523185
9519.000000;-0.524840
9518.000000;-0.526465
9517.000000;-0.528221
9516.000000;-0.530063
9515.000000;-0.531808
9514.000000;-0.533364
9513.000000;-0.534827
9512.000000;-0.536356
9511.000000;-0.538028
9510.000000;-0.539824
9509.000000;-0.541680
9508.000000;-0.543515
9507.000000;-0.545264
9506.000000;-0.546924
9505.000000;-0.548580
9504.000000;-0.550337
9503.000000;-0.552210
9502.000000;-0.554100
9501.000000;-0.555888
9500.000000;-0.557554
9499.000000;-0.559183
9498.000000;-0.560843
9497.000000;-0.562495
9496.000000;-0.564053
9495.000000;-0.565492
9494.000000;-0.566854
9493.000000;-0.568153
9492.000000;-0.569358
9491.000000;-0.570489
9490.000000;-0.571663
9489.000000;-0.572981
9488.000000;-0.574397
9487.000000;-0.575734
9486.000000;-0.576857
9485.000000;-0.577800
9484.000000;-0.578733
9483.000000;-0.579808
9482.000000;-0.581041
9481.000000;-0.582312
9480.000000;-0.583468
9479.000000;-0.584419
9478.000000;-0.585191
9477.000000;-0.585914
9476.000000;-0.586759
9475.000000;-0.587820
9474.000000;-0.589026
9473.000000;-0.590185
9472.000000;-0.591152
9471.000000;-0.591948
9470.000000;-0.592695
9469.000000;-0.593497
9468.000000;-0.594405
9467.000000;-0.595403
9466.000000;-0.596380
9465.000000;-0.597139
9464.000000;-0.597559
9463.000000;-0.597755
9462.000000;-0.598000
9461.000000;-0.598460
9460.000000;-0.599049
9459.000000;-0.599575
9458.000000;-0.599974
9457.000000;-0.600361
9456.000000;-0.600872
9455.000000;-0.601489
9454.000000;-0.602041
9453.000000;-0.602366
9452.000000;-0.602474
9451.000000;-0.602532
9450.000000;-0.602690
9449.000000;-0.602947
9448.000000;-0.603191
9447.000000;-0.603321
9446.000000;-0.603310
9445.000000;-0.603180
9444.000000;-0.603008
9443.000000;-0.602906
9442.000000;-0.602950
9441.000000;-0.603081
9440.000000;-0.603145
9439.000000;-0.603046
9438.000000;-0.602841
9437.000000;-0.602667
9436.000000;-0.602591
9435.000000;-0.602539
9434.000000;-0.602378
9433.000000;-0.602061
9432.000000;-0.601688
9431.000000;-0.601405
9430.000000;-0.601242
9429.000000;-0.601073
9428.000000;-0.600757
9427.000000;-0.600271
9426.000000;-0.599691
9425.000000;-0.599095
9424.000000;-0.598523
9423.000000;-0.598000
9422.000000;-0.597522
9421.000000;-0.597028
9420.000000;-0.596447
9419.000000;-0.595765
9418.000000;-0.595034
9417.000000;-0.594317
9416.000000;-0.593652
9415.000000;-0.593052
9414.000000;-0.592513
9413.000000;-0.592022
9412.000000;-0.591571
9411.000000;-0.591121
9410.000000;-0.590573
9409.000000;-0.589822
9408.000000;-0.588911
9407.000000;-0.588036
9406.000000;-0.587328
9405.000000;-0.586660
9404.000000;-0.585790
9403.000000;-0.584665
9402.000000;-0.583478
9401.000000;-0.582415
9400.000000;-0.581458
9399.000000;-0.580496
9398.000000;-0.579516
9397.000000;-0.578612
9396.000000;-0.577830
9395.000000;-0.577113
9394.000000;-0.576369
9393.000000;-0.575546
9392.000000;-0.574610
9391.000000;-0.573526
9390.000000;-0.572313
9389.000000;-0.571096
9388.000000;-0.570033
9387.000000;-0.569146
9386.000000;-0.568268
9385.000000;-0.567185
9384.000000;-0.565854
9383.000000;-0.564421
9382.000000;-0.563046
9381.000000;-0.561774
9380.000000;-0.560589
9379.000000;-0.559499
9378.000000;-0.558501
9377.000000;-0.557517
9376.000000;-0.556443
9375.000000;-0.555259
9374.000000;-0.554025
9373.000000;-0.552787
9372.000000;-0.551531
9371.000000;-0.550247
9370.000000;-0.548968
9369.000000;-0.547742
9368.000000;-0.546583
9367.000000;-0.545466
9366.000000;-0.544351
9365.000000;-0.543205
9364.000000;-0.542014
9363.000000;-0.540775
9362.000000;-0.539499
9361.000000;-0.538215
9360.000000;-0.536980
9359.000000;-0.535813
9358.000000;-0.534637
9357.000000;-0.533344
9356.000000;-0.531933
9355.000000;-0.530531
9354.000000;-0.529224
9353.000000;-0.527961
9352.000000;-0.526664
9351.000000;-0.525375
9350.000000;-0.524197
9349.000000;-0.523128
9348.000000;-0.522067
9347.000000;-0.520929
9346.000000;-0.519695
9345.000000;-0.518351
9344.000000;-0.516885
9343.000000;-0.515355
9342.000000;-0.513874
9341.000000;-0.512498
9340.000000;-0.511195
9339.000000;-0.509916
9338.000000;-0.508667
9337.000000;-0.507488
9336.000000;-0.506410
9335.000000;-0.505409
9334.000000;-0.504374
9333.000000;-0.503160
9332.000000;-0.501744
9331.000000;-0.500295
9330.000000;-0.499014
9329.000000;-0.497913
9328.000000;-0.496825
9327.000000;-0.495627
9326.000000;-0.494334
9325.000000;-0.492998
9324.000000;-0.491631
9323.000000;-0.490263
9322.000000;-0.488982
9321.000000;-0.487840
9320.000000;-0.486778
9319.000000;-0.485702
9318.000000;-0.484574
9317.000000;-0.483396
9316.000000;-0.482176
9315.000000;-0.480943
9314.000000;-0.479750
9313.000000;-0.478606
9312.000000;-0.477440
9311.000000;-0.476195
9310.000000;-0.474900
9309.000000;-0.473617
9308.000000;-0.472360
9307.000000;-0.471116
9306.000000;-0.469898
9305.000000;-0.468718
9304.000000;-0.467531
9303.000000;-0.466274
9302.000000;-0.464951
9301.000000;-0.463634
9300.000000;-0.462385
9299.000000;-0.461218
9298.000000;-0.460099
9297.000000;-0.458960
9296.000000;-0.457729
9295.000000;-0.456409
9294.000000;-0.455115
9293.000000;-0.453977
9292.000000;-0.453002
9291.000000;-0.452059
9290.000000;-0.451003
9289.000000;-0.449787
9288.000000;-0.448480
9287.000000;-0.447198
9286.000000;-0.446021
9285.000000;-0.444945
9284.000000;-0.443877
9283.000000;-0.442723
9282.000000;-0.441476
9281.000000;-0.440231
9280.000000;-0.439086
9279.000000;-0.438050
9278.000000;-0.437054
9277.000000;-0.436048
9276.000000;-0.435048
9275.000000;-0.434076
9274.000000;-0.433079
9273.000000;-0.431970
9272.000000;-0.430754
9271.000000;-0.429556
9270.000000;-0.428486
9269.000000;-0.427507
9268.000000;-0.426502
9267.000000;-0.425430
9266.000000;-0.424367
9265.000000;-0.423381
9264.000000;-0.422438
9263.000000;-0.421444
9262.000000;-0.420344
9261.000000;-0.419154
9260.000000;-0.417930
9259.000000;-0.416748
9258.000000;-0.415669
9257.000000;-0.414698
9256.000000;-0.413790
9255.000000;-0.412904
9254.000000;-0.412040
9253.000000;-0.411192
9252.000000;-0.410315
9251.000000;-0.409353
9250.000000;-0.408312
9249.000000;-0.407265
9248.000000;-0.406293
9247.000000;-0.405421
9246.000000;-0.404598
9245.000000;-0.403746
9244.000000;-0.402817
9243.000000;-0.401820
9242.000000;-0.400785
9241.000000;-0.399728
9240.000000;-0.398662
9239.000000;-0.397615
9238.000000;-0.396605
9237.000000;-0.395598
9236.000000;-0.394552
9235.000000;-0.393503
9234.000000;-0.392556
9233.000000;-0.391779
9232.000000;-0.391134
9231.000000;-0.390512
9230.000000;-0.389810
9229.000000;-0.388968
9228.000000;-0.387982
9227.000000;-0.386916
9226.000000;-0.385868
9225.000000;-0.384894
9224.000000;-0.383980
9223.000000;-0.383089
9222.000000;-0.382215
9221.000000;-0.381367
9220.000000;-0.380539
9219.000000;-0.379722
9218.000000;-0.378908
9217.000000;-0.378080
9216.000000;-0.377214
9215.000000;-0.376316
9214.000000;-0.375428
9213.000000;-0.374580
9212.000000;-0.373748
9211.000000;-0.372899
9210.000000;-0.372045
9209.000000;-0.371221
9208.000000;-0.370423
9207.000000;-0.369610
9206.000000;-0.368762
9205.000000;-0.367897
9204.000000;-0.367039
9203.000000;-0.366185
9202.000000;-0.365322
9201.000000;-0.364459
9200.000000;-0.363631
9199.000000;-0.362874
9198.000000;-0.362189
9197.000000;-0.361532
9196.000000;-0.360854
9195.000000;-0.360142
9194.000000;-0.359413
9193.000000;-0.358683
9192.000000;-0.357943
9191.000000;-0.357195
9190.000000;-0.356454
9189.000000;-0.355703
9188.000000;-0.354894
9187.000000;-0.354009
9186.000000;-0.353113
9185.000000;-0.352304
9184.000000;-0.351613
9183.000000;-0.350987
9182.000000;-0.350347
9181.000000;-0.349641
9180.000000;-0.348853
9179.000000;-0.348004
9178.000000;-0.347165
9177.000000;-0.346429
9176.000000;-0.345835
9175.000000;-0.345330
9174.000000;-0.344805
9173.000000;-0.344172
9172.000000;-0.343412
9171.000000;-0.342565
9170.000000;-0.341696
9169.000000;-0.340860
9168.000000;-0.340073
9167.000000;-0.339318
9166.000000;-0.338597
9165.000000;-0.337948
9164.000000;-0.337408
9163.000000;-0.336950
9162.000000;-0.336499
9161.000000;-0.336000
9160.000000;-0.335461
9159.000000;-0.334899
9158.000000;-0.334287
9157.000000;-0.333582
9156.000000;-0.332801
9155.000000;-0.332028
9154.000000;-0.331341
9153.000000;-0.330751
9152.000000;-0.330208
9151.000000;-0.329653
9150.000000;-0.329050
9149.000000;-0.328405
9148.000000;-0.327759
9147.000000;-0.327139
9146.000000;-0.326527
9145.000000;-0.325890
9144.000000;-0.325227
9143.000000;-0.324559
9142.000000;-0.323875
9141.000000;-0.323150
9140.000000;-0.322419
9139.000000;-0.321782
9138.000000;-0.321291
9137.000000;-0.320883
9136.000000;-0.320448
9135.000000;-0.319945
9134.000000;-0.319401
9133.000000;-0.318840
9132.000000;-0.318272
9131.000000;-0.317730
9130.000000;-0.317242
9129.000000;-0.316763
9128.000000;-0.316195
9127.000000;-0.315508
9126.000000;-0.314802
9125.000000;-0.314221
9124.000000;-0.313820
9123.000000;-0.313520
9122.000000;-0.313180
9121.000000;-0.312715
9120.000000;-0.312144
9119.000000;-0.311550
9118.000000;-0.310988
9117.000000;-0.310454
9116.000000;-0.309925
9115.000000;-0.309397
9114.000000;-0.308861
9113.000000;-0.308285
9112.000000;-0.307668
9111.000000;-0.307082
9110.000000;-0.306614
9109.000000;-0.306252
9108.000000;-0.305895
9107.000000;-0.305458
9106.000000;-0.304959
9105.000000;-0.304461
9104.000000;-0.303986
9103.000000;-0.303507
9102.000000;-0.302994
9101.000000;-0.302449
9100.000000;-0.301902
9099.000000;-0.301379
9098.000000;-0.300889
9097.000000;-0.300423
9096.000000;-0.299974
9095.000000;-0.299550
9094.000000;-0.299153
9093.000000;-0.298753
9092.000000;-0.298312
9091.000000;-0.297813
9090.000000;-0.297278
9089.000000;-0.296756
9088.000000;-0.296297
9087.000000;-0.295935
9086.000000;-0.295646
