Criado como novo conjunto de dados;"0307_DANIEL.spp","18002.9 Secs"
cm-1;Abs
10000.000000;0.925808
9999.000000;0.924701
9998.000000;0.923597
9997.000000;0.922495
9996.000000;0.921397
9995.000000;0.920302
9994.000000;0.919208
9993.000000;0.918119
9992.000000;0.917030
9991.000000;0.915948
9990.000000;0.914860
9989.000000;0.913796
9988.000000;0.912622
9987.000000;0.911203
9986.000000;0.909657
9985.000000;0.908151
9984.000000;0.906808
9983.000000;0.905692
9982.000000;0.904795
9981.000000;0.903967
9980.000000;0.902998
9979.000000;0.901799
9978.000000;0.900433
9977.000000;0.898952
9976.000000;0.897359
9975.000000;0.895788
9974.000000;0.894564
9973.000000;0.893879
9972.000000;0.893448
9971.000000;0.892678
9970.000000;0.891294
9969.000000;0.889687
9968.000000;0.888464
9967.000000;0.887715
9966.000000;0.886934
9965.000000;0.885691
9964.000000;0.884171
9963.000000;0.882878
9962.000000;0.881967
9961.000000;0.881124
9960.000000;0.880063
9959.000000;0.878842
9958.000000;0.877638
9957.000000;0.876434
9956.000000;0.875049
9955.000000;0.873394
9954.000000;0.871603
9953.000000;0.869999
9952.000000;0.868893
9951.000000;0.868267
9950.000000;0.867658
9949.000000;0.866553
9948.000000;0.864944
9947.000000;0.863300
9946.000000;0.861973
9945.000000;0.860877
9944.000000;0.859802
9943.000000;0.858707
9942.000000;0.857546
9941.000000;0.856094
9940.000000;0.854285
9939.000000;0.852526
9938.000000;0.851360
9937.000000;0.850815
9936.000000;0.850343
9935.000000;0.849396
9934.000000;0.847879
9933.000000;0.846069
9932.000000;0.844318
9931.000000;0.842859
9930.000000;0.841743
9929.000000;0.840834
9928.000000;0.839914
9927.000000;0.838805
9926.000000;0.837395
9925.000000;0.835655
9924.000000;0.833742
9923.000000;0.832005
9922.000000;0.830751
9921.000000;0.829972
9920.000000;0.829377
9919.000000;0.828647
9918.000000;0.827600
9917.000000;0.826193
9916.000000;0.824530
9915.000000;0.822862
9914.000000;0.821428
9913.000000;0.820230
9912.000000;0.819040
9911.000000;0.817670
9910.000000;0.816206
9909.000000;0.814905
9908.000000;0.813881
9907.000000;0.812908
9906.000000;0.811587
9905.000000;0.809746
9904.000000;0.807677
9903.000000;0.805897
9902.000000;0.804682
9901.000000;0.803884
9900.000000;0.803151
9899.000000;0.802217
9898.000000;0.800990
9897.000000;0.799520
9896.000000;0.797952
9895.000000;0.796433
9894.000000;0.794985
9893.000000;0.793513
9892.000000;0.791967
9891.000000;0.790419
9890.000000;0.788956
9889.000000;0.787598
9888.000000;0.786338
9887.000000;0.785172
9886.000000;0.784072
9885.000000;0.783026
9884.000000;0.782085
9883.000000;0.781262
9882.000000;0.780370
9881.000000;0.779162
9880.000000;0.777660
9879.000000;0.776130
9878.000000;0.774658
9877.000000;0.772973
9876.000000;0.770872
9875.000000;0.768647
9874.000000;0.766872
9873.000000;0.765819
9872.000000;0.765222
9871.000000;0.764558
9870.000000;0.763461
9869.000000;0.761925
9868.000000;0.760207
9867.000000;0.758513
9866.000000;0.756779
9865.000000;0.754839
9864.000000;0.752826
9863.000000;0.751202
9862.000000;0.750249
9861.000000;0.749705
9860.000000;0.749029
9859.000000;0.747931
9858.000000;0.746481
9857.000000;0.744828
9856.000000;0.743054
9855.000000;0.741266
9854.000000;0.739615
9853.000000;0.738133
9852.000000;0.736683
9851.000000;0.735108
9850.000000;0.733394
9849.000000;0.731671
9848.000000;0.730089
9847.000000;0.728691
9846.000000;0.727378
9845.000000;0.726051
9844.000000;0.724741
9843.000000;0.723515
9842.000000;0.722248
9841.000000;0.720695
9840.000000;0.718846
9839.000000;0.717034
9838.000000;0.715566
9837.000000;0.714382
9836.000000;0.713212
9835.000000;0.711941
9834.000000;0.710652
9833.000000;0.709372
9832.000000;0.707969
9831.000000;0.706301
9830.000000;0.704371
9829.000000;0.702373
9828.000000;0.700636
9827.000000;0.699418
9826.000000;0.698604
9825.000000;0.697718
9824.000000;0.696355
9823.000000;0.694583
9822.000000;0.692762
9821.000000;0.691093
9820.000000;0.689513
9819.000000;0.687993
9818.000000;0.686668
9817.000000;0.685595
9816.000000;0.684535
9815.000000;0.683143
9814.000000;0.681355
9813.000000;0.679500
9812.000000;0.677951
9811.000000;0.676697
9810.000000;0.675330
9809.000000;0.673537
9808.000000;0.671498
9807.000000;0.669641
9806.000000;0.668084
9805.000000;0.666545
9804.000000;0.664797
9803.000000;0.662942
9802.000000;0.661138
9801.000000;0.659348
9800.000000;0.657545
9799.000000;0.655931
9798.000000;0.654666
9797.000000;0.653542
9796.000000;0.652214
9795.000000;0.650652
9794.000000;0.649116
9793.000000;0.647700
9792.000000;0.646225
9791.000000;0.644567
9790.000000;0.642839
9789.000000;0.641161
9788.000000;0.639486
9787.000000;0.637753
9786.000000;0.636042
9785.000000;0.634456
9784.000000;0.632935
9783.000000;0.631304
9782.000000;0.629477
9781.000000;0.627546
9780.000000;0.625656
9779.000000;0.623852
9778.000000;0.622084
9777.000000;0.620380
9776.000000;0.618930
9775.000000;0.617847
9774.000000;0.616847
9773.000000;0.615367
9772.000000;0.613188
9771.000000;0.610767
9770.000000;0.608792
9769.000000;0.607471
9768.000000;0.606421
9767.000000;0.605161
9766.000000;0.603511
9765.000000;0.601538
9764.000000;0.599381
9763.000000;0.597230
9762.000000;0.595296
9761.000000;0.593663
9760.000000;0.592188
9759.000000;0.590608
9758.000000;0.588754
9757.000000;0.586703
9756.000000;0.584738
9755.000000;0.583100
9754.000000;0.581707
9753.000000;0.580223
9752.000000;0.578478
9751.000000;0.576724
9750.000000;0.575307
9749.000000;0.574163
9748.000000;0.572833
9747.000000;0.571004
9746.000000;0.568847
9745.000000;0.566782
9744.000000;0.565046
9743.000000;0.563551
9742.000000;0.562029
9741.000000;0.560244
9740.000000;0.558137
9739.000000;0.555853
9738.000000;0.553608
9737.000000;0.551520
9736.000000;0.549573
9735.000000;0.547729
9734.000000;0.546004
9733.000000;0.544434
9732.000000;0.542982
9731.000000;0.541473
9730.000000;0.539640
9729.000000;0.537349
9728.000000;0.534851
9727.000000;0.532675
9726.000000;0.531118
9725.000000;0.529930
9724.000000;0.528608
9723.000000;0.526912
9722.000000;0.524957
9721.000000;0.522912
9720.000000;0.520872
9719.000000;0.519000
9718.000000;0.517468
9717.000000;0.516193
9716.000000;0.514829
9715.000000;0.513139
9714.000000;0.511194
9713.000000;0.509135
9712.000000;0.506956
9711.000000;0.504685
9710.000000;0.502567
9709.000000;0.500847
9708.000000;0.499457
9707.000000;0.498098
9706.000000;0.496575
9705.000000;0.494884
9704.000000;0.493034
9703.000000;0.491002
9702.000000;0.488859
9701.000000;0.486758
9700.000000;0.484723
9699.000000;0.482600
9698.000000;0.480314
9697.000000;0.478029
9696.000000;0.475970
9695.000000;0.474144
9694.000000;0.472367
9693.000000;0.470505
9692.000000;0.468572
9691.000000;0.466587
9690.000000;0.464519
9689.000000;0.462411
9688.000000;0.460432
9687.000000;0.458682
9686.000000;0.457010
9685.000000;0.455171
9684.000000;0.453143
9683.000000;0.451158
9682.000000;0.449367
9681.000000;0.447625
9680.000000;0.445678
9679.000000;0.443478
9678.000000;0.441210
9677.000000;0.439064
9676.000000;0.437098
9675.000000;0.435278
9674.000000;0.433532
9673.000000;0.431727
9672.000000;0.429690
9671.000000;0.427341
9670.000000;0.424804
9669.000000;0.422336
9668.000000;0.420120
9667.000000;0.418087
9666.000000;0.415981
9665.000000;0.413631
9664.000000;0.411158
9663.000000;0.408845
9662.000000;0.406806
9661.000000;0.404879
9660.000000;0.402862
9659.000000;0.400720
9658.000000;0.398500
9657.000000;0.396196
9656.000000;0.393834
9655.000000;0.391613
9654.000000;0.389788
9653.000000;0.388398
9652.000000;0.387187
9651.000000;0.385763
9650.000000;0.383820
9649.000000;0.381301
9648.000000;0.378488
9647.000000;0.375878
9646.000000;0.373768
9645.000000;0.371963
9644.000000;0.369989
9643.000000;0.367608
9642.000000;0.364991
9641.000000;0.362428
9640.000000;0.360055
9639.000000;0.357911
9638.000000;0.356018
9637.000000;0.354296
9636.000000;0.352527
9635.000000;0.350530
9634.000000;0.348313
9633.000000;0.345949
9632.000000;0.343449
9631.000000;0.340857
9630.000000;0.338383
9629.000000;0.336217
9628.000000;0.334240
9627.000000;0.332106
9626.000000;0.329682
9625.000000;0.327255
9624.000000;0.325227
9623.000000;0.323653
9622.000000;0.322157
9621.000000;0.320276
9620.000000;0.317834
9619.000000;0.315024
9618.000000;0.312194
9617.000000;0.309584
9616.000000;0.307218
9615.000000;0.304973
9614.000000;0.302705
9613.000000;0.300334
9612.000000;0.297887
9611.000000;0.295488
9610.000000;0.293266
9609.000000;0.291221
9608.000000;0.289168
9607.000000;0.286896
9606.000000;0.284391
9605.000000;0.281891
9604.000000;0.279665
9603.000000;0.277728
9602.000000;0.275797
9601.000000;0.273568
9600.000000;0.271026
9599.000000;0.268479
9598.000000;0.266244
9597.000000;0.264341
9596.000000;0.262508
9595.000000;0.260481
9594.000000;0.258204
9593.000000;0.255773
9592.000000;0.253280
9591.000000;0.250769
9590.000000;0.248286
9589.000000;0.245872
9588.000000;0.243522
9587.000000;0.241213
9586.000000;0.238964
9585.000000;0.236824
9584.000000;0.234787
9583.000000;0.232777
9582.000000;0.230701
9581.000000;0.228475
9580.000000;0.226039
9579.000000;0.223455
9578.000000;0.220965
9577.000000;0.218789
9576.000000;0.216813
9575.000000;0.214645
9574.000000;0.212098
9573.000000;0.209480
9572.000000;0.207217
9571.000000;0.205261
9570.000000;0.203123
9569.000000;0.200507
9568.000000;0.197677
9567.000000;0.195080
9566.000000;0.192802
9565.000000;0.190587
9564.000000;0.188251
9563.000000;0.185868
9562.000000;0.183545
9561.000000;0.181249
9560.000000;0.178909
9559.000000;0.176558
9558.000000;0.174287
9557.000000;0.172123
9556.000000;0.170022
9555.000000;0.167929
9554.000000;0.165807
9553.000000;0.163644
9552.000000;0.161459
9551.000000;0.159251
9550.000000;0.156948
9549.000000;0.154481
9548.000000;0.151930
9547.000000;0.149518
9546.000000;0.147368
9545.000000;0.145363
9544.000000;0.143322
9543.000000;0.141252
9542.000000;0.139298
9541.000000;0.137463
9540.000000;0.135521
9539.000000;0.133243
9538.000000;0.130638
9537.000000;0.127900
9536.000000;0.125209
9535.000000;0.122636
9534.000000;0.120195
9533.000000;0.117871
9532.000000;0.115618
9531.000000;0.113407
9530.000000;0.111314
9529.000000;0.109502
9528.000000;0.108057
9527.000000;0.106853
9526.000000;0.105590
9525.000000;0.103963
9524.000000;0.101829
9523.000000;0.099280
9522.000000;0.096603
9521.000000;0.094093
9520.000000;0.091832
9519.000000;0.089664
9518.000000;0.087424
9517.000000;0.085178
9516.000000;0.083169
9515.000000;0.081525
9514.000000;0.080097
9513.000000;0.078610
9512.000000;0.076917
9511.000000;0.075056
9510.000000;0.073140
9509.000000;0.071270
9508.000000;0.069505
9507.000000;0.067841
9506.000000;0.066197
9505.000000;0.064481
9504.000000;0.062676
9503.000000;0.060836
9502.000000;0.059008
9501.000000;0.057211
9500.000000;0.055482
9499.000000;0.053878
9498.000000;0.052399
9497.000000;0.050947
9496.000000;0.049407
9495.000000;0.047784
9494.000000;0.046231
9493.000000;0.044910
9492.000000;0.043821
9491.000000;0.042747
9490.000000;0.041439
9489.000000;0.039887
9488.000000;0.038370
9487.000000;0.037186
9486.000000;0.036318
9485.000000;0.035431
9484.000000;0.034210
9483.000000;0.032659
9482.000000;0.031055
9481.000000;0.029661
9480.000000;0.028530
9479.000000;0.027529
9478.000000;0.026484
9477.000000;0.025319
9476.000000;0.024098
9475.000000;0.022965
9474.000000;0.021989
9473.000000;0.021079
9472.000000;0.020072
9471.000000;0.018948
9470.000000;0.017891
9469.000000;0.017086
9468.000000;0.016470
9467.000000;0.015744
9466.000000;0.014684
9465.000000;0.013408
9464.000000;0.012266
9463.000000;0.011477
9462.000000;0.010923
9461.000000;0.010345
9460.000000;0.009676
9459.000000;0.009099
9458.000000;0.008782
9457.000000;0.008632
9456.000000;0.008375
9455.000000;0.007852
9454.000000;0.007175
9453.000000;0.006599
9452.000000;0.006282
9451.000000;0.006185
9450.000000;0.006147
9449.000000;0.006027
9448.000000;0.005805
9447.000000;0.005605
9446.000000;0.005618
9445.000000;0.005926
9444.000000;0.006358
9443.000000;0.006556
9442.000000;0.006276
9441.000000;0.005643
9440.000000;0.005090
9439.000000;0.004977
9438.000000;0.005270
9437.000000;0.005591
9436.000000;0.005588
9435.000000;0.005241
9434.000000;0.004827
9433.000000;0.004643
9432.000000;0.004793
9431.000000;0.005217
9430.000000;0.005815
9429.000000;0.006520
9428.000000;0.007274
9427.000000;0.007989
9426.000000;0.008581
9425.000000;0.009018
9424.000000;0.009353
9423.000000;0.009677
9422.000000;0.010046
9421.000000;0.010426
9420.000000;0.010740
9419.000000;0.010969
9418.000000;0.011187
9417.000000;0.011484
9416.000000;0.011904
9415.000000;0.012496
9414.000000;0.013347
9413.000000;0.014473
9412.000000;0.015676
9411.000000;0.016640
9410.000000;0.017238
9409.000000;0.017652
9408.000000;0.018149
9407.000000;0.018790
9406.000000;0.019466
9405.000000;0.020110
9404.000000;0.020765
9403.000000;0.021448
9402.000000;0.022092
9401.000000;0.022661
9400.000000;0.023217
9399.000000;0.023827
9398.000000;0.024495
9397.000000;0.025253
9396.000000;0.026218
9395.000000;0.027454
9394.000000;0.028794
9393.000000;0.029949
9392.000000;0.030813
9391.000000;0.031591
9390.000000;0.032545
9389.000000;0.033686
9388.000000;0.034776
9387.000000;0.035655
9386.000000;0.036471
9385.000000;0.037525
9384.000000;0.038898
9383.000000;0.040320
9382.000000;0.041454
9381.000000;0.042237
9380.000000;0.042901
9379.000000;0.043669
9378.000000;0.044555
9377.000000;0.045490
9376.000000;0.046518
9375.000000;0.047774
9374.000000;0.049274
9373.000000;0.050826
9372.000000;0.052193
9371.000000;0.053312
9370.000000;0.054318
9369.000000;0.055350
9368.000000;0.056404
9367.000000;0.057404
9366.000000;0.058390
9365.000000;0.059546
9364.000000;0.060982
9363.000000;0.062562
9362.000000;0.064016
9361.000000;0.065230
9360.000000;0.066326
9359.000000;0.067450
9358.000000;0.068590
9357.000000;0.069655
9356.000000;0.070664
9355.000000;0.071768
9354.000000;0.073080
9353.000000;0.074539
9352.000000;0.075940
9351.000000;0.077094
9350.000000;0.078016
9349.000000;0.078953
9348.000000;0.080174
9347.000000;0.081674
9346.000000;0.083142
9345.000000;0.084286
9344.000000;0.085163
9343.000000;0.086107
9342.000000;0.087356
9341.000000;0.088817
9340.000000;0.090203
9339.000000;0.091320
9338.000000;0.092195
9337.000000;0.092992
9336.000000;0.093864
9335.000000;0.094868
9334.000000;0.095971
9333.000000;0.097120
9332.000000;0.098299
9331.000000;0.099522
9330.000000;0.100794
9329.000000;0.102072
9328.000000;0.103285
9327.000000;0.104397
9326.000000;0.105479
9325.000000;0.106679
9324.000000;0.108079
9323.000000;0.109584
9322.000000;0.110999
9321.000000;0.112224
9320.000000;0.113305
9319.000000;0.114320
9318.000000;0.115298
9317.000000;0.116306
9316.000000;0.117463
9315.000000;0.118773
9314.000000;0.120010
9313.000000;0.120940
9312.000000;0.121642
9311.000000;0.122473
9310.000000;0.123689
9309.000000;0.125198
9308.000000;0.126722
9307.000000;0.128114
9306.000000;0.129426
9305.000000;0.130738
9304.000000;0.132037
9303.000000;0.133245
9302.000000;0.134318
9301.000000;0.135288
9300.000000;0.136238
9299.000000;0.137237
9298.000000;0.138274
9297.000000;0.139274
9296.000000;0.140199
9295.000000;0.141102
9294.000000;0.142079
9293.000000;0.143183
9292.000000;0.144397
9291.000000;0.145656
9290.000000;0.146873
9289.000000;0.147962
9288.000000;0.148898
9287.000000;0.149752
9286.000000;0.150631
9285.000000;0.151580
9284.000000;0.152582
9283.000000;0.153646
9282.000000;0.154835
9281.000000;0.156190
9280.000000;0.157643
9279.000000;0.159051
9278.000000;0.160288
9277.000000;0.161266
9276.000000;0.161951
9275.000000;0.162439
9274.000000;0.163005
9273.000000;0.163940
9272.000000;0.165270
9271.000000;0.166692
9270.000000;0.167864
9269.000000;0.168732
9268.000000;0.169524
9267.000000;0.170469
9266.000000;0.171589
9265.000000;0.172733
9264.000000;0.173718
9263.000000;0.174476
9262.000000;0.175126
9261.000000;0.175922
9260.000000;0.177015
9259.000000;0.178280
9258.000000;0.179422
9257.000000;0.180310
9256.000000;0.181099
9255.000000;0.181998
9254.000000;0.183007
9253.000000;0.183950
9252.000000;0.184731
9251.000000;0.185437
9250.000000;0.186203
9249.000000;0.187035
9248.000000;0.187821
9247.000000;0.188497
9246.000000;0.189169
9245.000000;0.190032
9244.000000;0.191159
9243.000000;0.192394
9242.000000;0.193485
9241.000000;0.194299
9240.000000;0.194908
9239.000000;0.195492
9238.000000;0.196225
9237.000000;0.197215
9236.000000;0.198443
9235.000000;0.199736
9234.000000;0.200862
9233.000000;0.201701
9232.000000;0.202317
9231.000000;0.202894
9230.000000;0.203605
9229.000000;0.204539
9228.000000;0.205653
9227.000000;0.206800
9226.000000;0.207839
9225.000000;0.208723
9224.000000;0.209463
9223.000000;0.210070
9222.000000;0.210604
9221.000000;0.211201
9220.000000;0.211950
9219.000000;0.212777
9218.000000;0.213580
9217.000000;0.214413
9216.000000;0.215376
9215.000000;0.216361
9214.000000;0.217116
9213.000000;0.217616
9212.000000;0.218146
9211.000000;0.218935
9210.000000;0.219893
9209.000000;0.220807
9208.000000;0.221606
9207.000000;0.222287
9206.000000;0.222777
9205.000000;0.223085
9204.000000;0.223480
9203.000000;0.224271
9202.000000;0.225432
9201.000000;0.226629
9200.000000;0.227605
9199.000000;0.228384
9198.000000;0.229087
9197.000000;0.229744
9196.000000;0.230341
9195.000000;0.230938
9194.000000;0.231622
9193.000000;0.232410
9192.000000;0.233218
9191.000000;0.233944
9190.000000;0.234561
9189.000000;0.235145
9188.000000;0.235784
9187.000000;0.236455
9186.000000;0.237068
9185.000000;0.237629
9184.000000;0.238246
9183.000000;0.238945
9182.000000;0.239582
9181.000000;0.240044
9180.000000;0.240437
9179.000000;0.240934
9178.000000;0.241555
9177.000000;0.242216
9176.000000;0.242928
9175.000000;0.243758
9174.000000;0.244641
9173.000000;0.245408
9172.000000;0.246026
9171.000000;0.246637
9170.000000;0.247329
9169.000000;0.248010
9168.000000;0.248564
9167.000000;0.249017
9166.000000;0.249483
9165.000000;0.250034
9164.000000;0.250667
9163.000000;0.251347
9162.000000;0.252011
9161.000000;0.252583
9160.000000;0.253028
9159.000000;0.253391
9158.000000;0.253759
9157.000000;0.254209
9156.000000;0.254776
9155.000000;0.255429
9154.000000;0.256074
9153.000000;0.256639
9152.000000;0.257157
9151.000000;0.257720
9150.000000;0.258370
9149.000000;0.259058
9148.000000;0.259706
9147.000000;0.260286
9146.000000;0.260833
9145.000000;0.261420
9144.000000;0.262068
9143.000000;0.262699
9142.000000;0.263207
9141.000000;0.263619
9140.000000;0.264094
9139.000000;0.264710
9138.000000;0.265358
9137.000000;0.265895
9136.000000;0.266335
9135.000000;0.266780
9134.000000;0.267254
9133.000000;0.267700
9132.000000;0.268109
9131.000000;0.268513
9130.000000;0.268914
9129.000000;0.269308
9128.000000;0.269749
9127.000000;0.270287
9126.000000;0.270859
9125.000000;0.271368
9124.000000;0.271831
9123.000000;0.272329
9122.000000;0.272857
9121.000000;0.273321
9120.000000;0.273679
9119.000000;0.273969
9118.000000;0.274230
9117.000000;0.274515
9116.000000;0.274951
9115.000000;0.275627
9114.000000;0.276410
9113.000000;0.277028
9112.000000;0.277366
9111.000000;0.277575
9110.000000;0.277847
9109.000000;0.278213
9108.000000;0.278593
9107.000000;0.278945
9106.000000;0.279279
9105.000000;0.279604
9104.000000;0.279929
9103.000000;0.280270
9102.000000;0.280619
9101.000000;0.280958
9100.000000;0.281303
9099.000000;0.281713
9098.000000;0.282225
9097.000000;0.282838
9096.000000;0.283531
9095.000000;0.284240
9094.000000;0.284854
9093.000000;0.285301
9092.000000;0.285632
9091.000000;0.285919
9090.000000;0.286114
9089.000000;0.286126
9088.000000;0.286025
9087.000000;0.286033
9086.000000;0.286282
9085.000000;0.286702
9084.000000;0.287178
9083.000000;0.287696
9082.000000;0.288264
9081.000000;0.288798
9080.000000;0.289171
9079.000000;0.289341
9078.000000;0.289397
9077.000000;0.289489
9076.000000;0.289739
9075.000000;0.290162
9074.000000;0.290670
9073.000000;0.291176
9072.000000;0.291682
9071.000000;0.292202
9070.000000;0.292660
9069.000000;0.292961
9068.000000;0.293158
9067.000000;0.293395
9066.000000;0.293719
9065.000000;0.294046
9064.000000;0.294346
9063.000000;0.294696
9062.000000;0.295113
9061.000000;0.295488
9060.000000;0.295755
9059.000000;0.296011
9058.000000;0.296356
9057.000000;0.296718
9056.000000;0.296946
9055.000000;0.297020
9054.000000;0.297075
9053.000000;0.297236
