Criado como novo conjunto de dados;"0307_DANIEL.spp","74345.9 Secs"
cm-1;Abs
10000.000000;0.563780
9999.000000;0.562990
9998.000000;0.562201
9997.000000;0.561413
9996.000000;0.560627
9995.000000;0.559842
9994.000000;0.559059
9993.000000;0.558277
9992.000000;0.557497
9991.000000;0.556716
9990.000000;0.555943
9989.000000;0.555127
9988.000000;0.554131
9987.000000;0.552894
9986.000000;0.551555
9985.000000;0.550304
9984.000000;0.549180
9983.000000;0.548098
9982.000000;0.547052
9981.000000;0.546196
9980.000000;0.545683
9979.000000;0.545465
9978.000000;0.545289
9977.000000;0.544907
9976.000000;0.544270
9975.000000;0.543518
9974.000000;0.542797
9973.000000;0.542123
9972.000000;0.541416
9971.000000;0.540573
9970.000000;0.539506
9969.000000;0.538169
9968.000000;0.536681
9967.000000;0.535342
9966.000000;0.534425
9965.000000;0.533931
9964.000000;0.533645
9963.000000;0.533396
9962.000000;0.533136
9961.000000;0.532754
9960.000000;0.532037
9959.000000;0.530920
9958.000000;0.529656
9957.000000;0.528580
9956.000000;0.527792
9955.000000;0.527155
9954.000000;0.526549
9953.000000;0.525954
9952.000000;0.525334
9951.000000;0.524599
9950.000000;0.523701
9949.000000;0.522688
9948.000000;0.521626
9947.000000;0.520533
9946.000000;0.519416
9945.000000;0.518308
9944.000000;0.517260
9943.000000;0.516366
9942.000000;0.515744
9941.000000;0.515389
9940.000000;0.515049
9939.000000;0.514377
9938.000000;0.513275
9937.000000;0.512000
9936.000000;0.510864
9935.000000;0.509909
9934.000000;0.508951
9933.000000;0.507884
9932.000000;0.506828
9931.000000;0.505960
9930.000000;0.505291
9929.000000;0.504648
9928.000000;0.503866
9927.000000;0.502926
9926.000000;0.501901
9925.000000;0.500825
9924.000000;0.499687
9923.000000;0.498525
9922.000000;0.497462
9921.000000;0.496603
9920.000000;0.495934
9919.000000;0.495358
9918.000000;0.494774
9917.000000;0.494090
9916.000000;0.493219
9915.000000;0.492144
9914.000000;0.490957
9913.000000;0.489775
9912.000000;0.488636
9911.000000;0.487548
9910.000000;0.486572
9909.000000;0.485745
9908.000000;0.484935
9907.000000;0.483937
9906.000000;0.482733
9905.000000;0.481551
9904.000000;0.480597
9903.000000;0.479841
9902.000000;0.479127
9901.000000;0.478379
9900.000000;0.477588
9899.000000;0.476713
9898.000000;0.475724
9897.000000;0.474715
9896.000000;0.473801
9895.000000;0.472905
9894.000000;0.471814
9893.000000;0.470474
9892.000000;0.469108
9891.000000;0.467955
9890.000000;0.467009
9889.000000;0.466108
9888.000000;0.465197
9887.000000;0.464362
9886.000000;0.463623
9885.000000;0.462845
9884.000000;0.461915
9883.000000;0.460905
9882.000000;0.459982
9881.000000;0.459204
9880.000000;0.458501
9879.000000;0.457834
9878.000000;0.457276
9877.000000;0.456870
9876.000000;0.456458
9875.000000;0.455721
9874.000000;0.454443
9873.000000;0.452708
9872.000000;0.450847
9871.000000;0.449182
9870.000000;0.447811
9869.000000;0.446625
9868.000000;0.445509
9867.000000;0.444468
9866.000000;0.443542
9865.000000;0.442646
9864.000000;0.441557
9863.000000;0.440130
9862.000000;0.438480
9861.000000;0.436953
9860.000000;0.435870
9859.000000;0.435261
9858.000000;0.434809
9857.000000;0.434097
9856.000000;0.432966
9855.000000;0.431623
9854.000000;0.430351
9853.000000;0.429200
9852.000000;0.428061
9851.000000;0.426958
9850.000000;0.426083
9849.000000;0.425473
9848.000000;0.424853
9847.000000;0.423891
9846.000000;0.422519
9845.000000;0.420926
9844.000000;0.419361
9843.000000;0.418064
9842.000000;0.417225
9841.000000;0.416796
9840.000000;0.416402
9839.000000;0.415626
9838.000000;0.414417
9837.000000;0.413039
9836.000000;0.411666
9835.000000;0.410225
9834.000000;0.408677
9833.000000;0.407226
9832.000000;0.406114
9831.000000;0.405309
9830.000000;0.404538
9829.000000;0.403572
9828.000000;0.402415
9827.000000;0.401231
9826.000000;0.400142
9825.000000;0.399108
9824.000000;0.397993
9823.000000;0.396752
9822.000000;0.395506
9821.000000;0.394353
9820.000000;0.393182
9819.000000;0.391808
9818.000000;0.390277
9817.000000;0.388859
9816.000000;0.387706
9815.000000;0.386671
9814.000000;0.385563
9813.000000;0.384405
9812.000000;0.383323
9811.000000;0.382287
9810.000000;0.381137
9809.000000;0.379822
9808.000000;0.378464
9807.000000;0.377197
9806.000000;0.376015
9805.000000;0.374788
9804.000000;0.373376
9803.000000;0.371768
9802.000000;0.370163
9801.000000;0.368854
9800.000000;0.367968
9799.000000;0.367322
9798.000000;0.366602
9797.000000;0.365635
9796.000000;0.364471
9795.000000;0.363229
9794.000000;0.361957
9793.000000;0.360626
9792.000000;0.359216
9791.000000;0.357779
9790.000000;0.356392
9789.000000;0.355045
9788.000000;0.353630
9787.000000;0.352125
9786.000000;0.350744
9785.000000;0.349718
9784.000000;0.348941
9783.000000;0.348015
9782.000000;0.346700
9781.000000;0.345154
9780.000000;0.343633
9779.000000;0.342208
9778.000000;0.340917
9777.000000;0.339910
9776.000000;0.339168
9775.000000;0.338245
9774.000000;0.336669
9773.000000;0.334592
9772.000000;0.332716
9771.000000;0.331531
9770.000000;0.330858
9769.000000;0.330183
9768.000000;0.329178
9767.000000;0.327800
9766.000000;0.326096
9765.000000;0.324138
9764.000000;0.322060
9763.000000;0.320051
9762.000000;0.318300
9761.000000;0.316942
9760.000000;0.315943
9759.000000;0.315014
9758.000000;0.313813
9757.000000;0.312309
9756.000000;0.310828
9755.000000;0.309655
9754.000000;0.308720
9753.000000;0.307740
9752.000000;0.306547
9751.000000;0.305172
9750.000000;0.303699
9749.000000;0.302178
9748.000000;0.300640
9747.000000;0.299086
9746.000000;0.297496
9745.000000;0.295892
9744.000000;0.294333
9743.000000;0.292803
9742.000000;0.291179
9741.000000;0.289410
9740.000000;0.287637
9739.000000;0.286071
9738.000000;0.284813
9737.000000;0.283847
9736.000000;0.283110
9735.000000;0.282458
9734.000000;0.281650
9733.000000;0.280503
9732.000000;0.279051
9731.000000;0.277446
9730.000000;0.275738
9729.000000;0.273880
9728.000000;0.271936
9727.000000;0.270116
9726.000000;0.268554
9725.000000;0.267159
9724.000000;0.265773
9723.000000;0.264381
9722.000000;0.263094
9721.000000;0.261937
9720.000000;0.260750
9719.000000;0.259329
9718.000000;0.257613
9717.000000;0.255682
9716.000000;0.253644
9715.000000;0.251574
9714.000000;0.249576
9713.000000;0.247775
9712.000000;0.246184
9711.000000;0.244654
9710.000000;0.243062
9709.000000;0.241509
9708.000000;0.240212
9707.000000;0.239183
9706.000000;0.238171
9705.000000;0.236951
9704.000000;0.235541
9703.000000;0.234070
9702.000000;0.232546
9701.000000;0.230888
9700.000000;0.229133
9699.000000;0.227432
9698.000000;0.225833
9697.000000;0.224167
9696.000000;0.222239
9695.000000;0.220102
9694.000000;0.218073
9693.000000;0.216434
9692.000000;0.215135
9691.000000;0.213836
9690.000000;0.212291
9689.000000;0.210634
9688.000000;0.209182
9687.000000;0.207969
9686.000000;0.206641
9685.000000;0.204846
9684.000000;0.202631
9683.000000;0.200357
9682.000000;0.198328
9681.000000;0.196600
9680.000000;0.195093
9679.000000;0.193753
9678.000000;0.192570
9677.000000;0.191499
9676.000000;0.190402
9675.000000;0.189077
9674.000000;0.187378
9673.000000;0.185352
9672.000000;0.183201
9671.000000;0.181095
9670.000000;0.179073
9669.000000;0.177139
9668.000000;0.175356
9667.000000;0.173776
9666.000000;0.172336
9665.000000;0.170891
9664.000000;0.169326
9663.000000;0.167590
9662.000000;0.165720
9661.000000;0.163884
9660.000000;0.162284
9659.000000;0.160885
9658.000000;0.159334
9657.000000;0.157302
9656.000000;0.154898
9655.000000;0.152594
9654.000000;0.150714
9653.000000;0.149129
9652.000000;0.147476
9651.000000;0.145586
9650.000000;0.143632
9649.000000;0.141896
9648.000000;0.140428
9647.000000;0.138944
9646.000000;0.137084
9645.000000;0.134809
9644.000000;0.132442
9643.000000;0.130296
9642.000000;0.128349
9641.000000;0.126403
9640.000000;0.124452
9639.000000;0.122688
9638.000000;0.121155
9637.000000;0.119599
9636.000000;0.117753
9635.000000;0.115621
9634.000000;0.113421
9633.000000;0.111357
9632.000000;0.109538
9631.000000;0.108002
9630.000000;0.106689
9629.000000;0.105413
9628.000000;0.103949
9627.000000;0.102163
9626.000000;0.100047
9625.000000;0.097703
9624.000000;0.095305
9623.000000;0.093024
9622.000000;0.090915
9621.000000;0.088904
9620.000000;0.086928
9619.000000;0.085030
9618.000000;0.083260
9617.000000;0.081538
9616.000000;0.079692
9615.000000;0.077628
9614.000000;0.075427
9613.000000;0.073283
9612.000000;0.071380
9611.000000;0.069776
9610.000000;0.068375
9609.000000;0.066984
9608.000000;0.065425
9607.000000;0.063611
9606.000000;0.061550
9605.000000;0.059342
9604.000000;0.057171
9603.000000;0.055190
9602.000000;0.053362
9601.000000;0.051482
9600.000000;0.049407
9599.000000;0.047219
9598.000000;0.045096
9597.000000;0.043079
9596.000000;0.041041
9595.000000;0.038869
9594.000000;0.036592
9593.000000;0.034352
9592.000000;0.032312
9591.000000;0.030564
9590.000000;0.029026
9589.000000;0.027428
9588.000000;0.025494
9587.000000;0.023176
9586.000000;0.020687
9585.000000;0.018291
9584.000000;0.016116
9583.000000;0.014129
9582.000000;0.012211
9581.000000;0.010236
9580.000000;0.008133
9579.000000;0.005935
9578.000000;0.003739
9577.000000;0.001612
9576.000000;-0.000421
9575.000000;-0.002326
9574.000000;-0.004079
9573.000000;-0.005773
9572.000000;-0.007584
9571.000000;-0.009576
9570.000000;-0.011616
9569.000000;-0.013599
9568.000000;-0.015677
9567.000000;-0.018099
9566.000000;-0.020815
9565.000000;-0.023400
9564.000000;-0.025465
9563.000000;-0.027068
9562.000000;-0.028630
9561.000000;-0.030472
9560.000000;-0.032514
9559.000000;-0.034427
9558.000000;-0.035992
9557.000000;-0.037301
9556.000000;-0.038662
9555.000000;-0.040340
9554.000000;-0.042376
9553.000000;-0.044603
9552.000000;-0.046834
9551.000000;-0.049019
9550.000000;-0.051247
9549.000000;-0.053610
9548.000000;-0.056082
9547.000000;-0.058495
9546.000000;-0.060642
9545.000000;-0.062436
9544.000000;-0.063991
9543.000000;-0.065538
9542.000000;-0.067224
9541.000000;-0.068996
9540.000000;-0.070702
9539.000000;-0.072296
9538.000000;-0.073929
9537.000000;-0.075819
9536.000000;-0.078039
9535.000000;-0.080424
9534.000000;-0.082680
9533.000000;-0.084617
9532.000000;-0.086321
9531.000000;-0.088057
9530.000000;-0.089991
9529.000000;-0.091998
9528.000000;-0.093813
9527.000000;-0.095324
9526.000000;-0.096674
9525.000000;-0.098077
9524.000000;-0.099619
9523.000000;-0.101269
9522.000000;-0.103027
9521.000000;-0.104963
9520.000000;-0.107119
9519.000000;-0.109409
9518.000000;-0.111633
9517.000000;-0.113589
9516.000000;-0.115181
9515.000000;-0.116462
9514.000000;-0.117584
9513.000000;-0.118718
9512.000000;-0.119990
9511.000000;-0.121463
9510.000000;-0.123115
9509.000000;-0.124826
9508.000000;-0.126421
9507.000000;-0.127764
9506.000000;-0.128867
9505.000000;-0.129902
9504.000000;-0.131109
9503.000000;-0.132657
9502.000000;-0.134540
9501.000000;-0.136602
9500.000000;-0.138650
9499.000000;-0.140558
9498.000000;-0.142268
9497.000000;-0.143756
9496.000000;-0.145021
9495.000000;-0.146093
9494.000000;-0.147001
9493.000000;-0.147773
9492.000000;-0.148492
9491.000000;-0.149300
9490.000000;-0.150259
9489.000000;-0.151227
9488.000000;-0.151996
9487.000000;-0.152599
9486.000000;-0.153365
9485.000000;-0.154592
9484.000000;-0.156197
9483.000000;-0.157785
9482.000000;-0.159030
9481.000000;-0.159909
9480.000000;-0.160582
9479.000000;-0.161153
9478.000000;-0.161616
9477.000000;-0.161985
9476.000000;-0.162389
9475.000000;-0.162980
9474.000000;-0.163782
9473.000000;-0.164680
9472.000000;-0.165550
9471.000000;-0.166361
9470.000000;-0.167114
9469.000000;-0.167744
9468.000000;-0.168177
9467.000000;-0.168490
9466.000000;-0.168897
9465.000000;-0.169505
9464.000000;-0.170150
9463.000000;-0.170558
9462.000000;-0.170651
9461.000000;-0.170619
9460.000000;-0.170721
9459.000000;-0.171083
9458.000000;-0.171639
9457.000000;-0.172172
9456.000000;-0.172433
9455.000000;-0.172352
9454.000000;-0.172177
9453.000000;-0.172294
9452.000000;-0.172839
9451.000000;-0.173556
9450.000000;-0.174080
9449.000000;-0.174272
9448.000000;-0.174204
9447.000000;-0.173956
9446.000000;-0.173567
9445.000000;-0.173144
9444.000000;-0.172854
9443.000000;-0.172789
9442.000000;-0.172906
9441.000000;-0.173102
9440.000000;-0.173232
9439.000000;-0.173076
9438.000000;-0.172458
9437.000000;-0.171468
9436.000000;-0.170472
9435.000000;-0.169805
9434.000000;-0.169494
9433.000000;-0.169299
9432.000000;-0.168951
9431.000000;-0.168333
9430.000000;-0.167540
9429.000000;-0.166860
9428.000000;-0.166560
9427.000000;-0.166569
9426.000000;-0.166440
9425.000000;-0.165788
9424.000000;-0.164724
9423.000000;-0.163723
9422.000000;-0.163061
9421.000000;-0.162549
9420.000000;-0.161832
9419.000000;-0.160798
9418.000000;-0.159602
9417.000000;-0.158425
9416.000000;-0.157351
9415.000000;-0.156439
9414.000000;-0.155771
9413.000000;-0.155394
9412.000000;-0.155220
9411.000000;-0.155004
9410.000000;-0.154447
9409.000000;-0.153405
9408.000000;-0.152045
9407.000000;-0.150733
9406.000000;-0.149667
9405.000000;-0.148676
9404.000000;-0.147464
9403.000000;-0.146008
9402.000000;-0.144609
9401.000000;-0.143550
9400.000000;-0.142819
9399.000000;-0.142205
9398.000000;-0.141541
9397.000000;-0.140733
9396.000000;-0.139639
9395.000000;-0.138120
9394.000000;-0.136290
9393.000000;-0.134541
9392.000000;-0.133203
9391.000000;-0.132221
9390.000000;-0.131292
9389.000000;-0.130271
9388.000000;-0.129285
9387.000000;-0.128419
9386.000000;-0.127492
9385.000000;-0.126253
9384.000000;-0.124722
9383.000000;-0.123172
9382.000000;-0.121808
9381.000000;-0.120565
9380.000000;-0.119261
9379.000000;-0.117810
9378.000000;-0.116281
9377.000000;-0.114821
9376.000000;-0.113564
9375.000000;-0.112538
9374.000000;-0.111580
9373.000000;-0.110409
9372.000000;-0.108865
9371.000000;-0.107080
9370.000000;-0.105363
9369.000000;-0.103911
9368.000000;-0.102658
9367.000000;-0.101409
9366.000000;-0.100065
9365.000000;-0.098687
9364.000000;-0.097348
9363.000000;-0.095994
9362.000000;-0.094532
9361.000000;-0.093001
9360.000000;-0.091548
9359.000000;-0.090200
9358.000000;-0.088786
9357.000000;-0.087181
9356.000000;-0.085529
9355.000000;-0.084071
9354.000000;-0.082801
9353.000000;-0.081448
9352.000000;-0.079832
9351.000000;-0.078070
9350.000000;-0.076415
9349.000000;-0.075027
9348.000000;-0.073973
9347.000000;-0.073241
9346.000000;-0.072624
9345.000000;-0.071740
9344.000000;-0.070325
9343.000000;-0.068504
9342.000000;-0.066613
9341.000000;-0.064837
9340.000000;-0.063134
9339.000000;-0.061484
9338.000000;-0.060006
9337.000000;-0.058789
9336.000000;-0.057702
9335.000000;-0.056474
9334.000000;-0.054924
9333.000000;-0.053105
9332.000000;-0.051272
9331.000000;-0.049702
9330.000000;-0.048477
9329.000000;-0.047422
9328.000000;-0.046301
9327.000000;-0.045074
9326.000000;-0.043890
9325.000000;-0.042835
9324.000000;-0.041756
9323.000000;-0.040380
9322.000000;-0.038622
9321.000000;-0.036733
9320.000000;-0.035114
9319.000000;-0.033931
9318.000000;-0.032896
9317.000000;-0.031527
9316.000000;-0.029663
9315.000000;-0.027627
9314.000000;-0.025835
9313.000000;-0.024360
9312.000000;-0.023022
9311.000000;-0.021787
9310.000000;-0.020826
9309.000000;-0.020167
9308.000000;-0.019526
9307.000000;-0.018595
9306.000000;-0.017326
9305.000000;-0.015840
9304.000000;-0.014214
9303.000000;-0.012501
9302.000000;-0.010857
9301.000000;-0.009451
9300.000000;-0.008244
9299.000000;-0.007012
9298.000000;-0.005602
9297.000000;-0.004084
9296.000000;-0.002634
9295.000000;-0.001341
9294.000000;-0.000152
9293.000000;0.001048
9292.000000;0.002369
9291.000000;0.003867
9290.000000;0.005499
9289.000000;0.007119
9288.000000;0.008573
9287.000000;0.009805
9286.000000;0.010867
9285.000000;0.011816
9284.000000;0.012681
9283.000000;0.013549
9282.000000;0.014598
9281.000000;0.015933
9280.000000;0.017405
9279.000000;0.018752
9278.000000;0.019947
9277.000000;0.021267
9276.000000;0.022883
9275.000000;0.024555
9274.000000;0.025920
9273.000000;0.026990
9272.000000;0.028113
9271.000000;0.029439
9270.000000;0.030710
9269.000000;0.031683
9268.000000;0.032545
9267.000000;0.033694
9266.000000;0.035251
9265.000000;0.036955
9264.000000;0.038483
9263.000000;0.039703
9262.000000;0.040658
9261.000000;0.041462
9260.000000;0.042259
9259.000000;0.043161
9258.000000;0.044184
9257.000000;0.045300
9256.000000;0.046510
9255.000000;0.047787
9254.000000;0.048983
9253.000000;0.049917
9252.000000;0.050608
9251.000000;0.051337
9250.000000;0.052382
9249.000000;0.053755
9248.000000;0.055226
9247.000000;0.056595
9246.000000;0.057872
9245.000000;0.059183
9244.000000;0.060555
9243.000000;0.061852
9242.000000;0.062925
9241.000000;0.063773
9240.000000;0.064528
9239.000000;0.065303
9238.000000;0.066149
9237.000000;0.067137
9236.000000;0.068355
9235.000000;0.069770
9234.000000;0.071186
9233.000000;0.072433
9232.000000;0.073554
9231.000000;0.074732
9230.000000;0.076025
9229.000000;0.077231
9228.000000;0.078063
9227.000000;0.078438
9226.000000;0.078611
9225.000000;0.079002
9224.000000;0.079872
9223.000000;0.081106
9222.000000;0.082362
9221.000000;0.083416
9220.000000;0.084348
9219.000000;0.085386
9218.000000;0.086624
9217.000000;0.087952
9216.000000;0.089192
9215.000000;0.090245
9214.000000;0.091133
9213.000000;0.091949
9212.000000;0.092736
9211.000000;0.093420
9210.000000;0.093919
9209.000000;0.094336
9208.000000;0.094966
9207.000000;0.096009
9206.000000;0.097343
9205.000000;0.098658
9204.000000;0.099768
9203.000000;0.100740
9202.000000;0.101745
9201.000000;0.102874
9200.000000;0.104083
9199.000000;0.105235
9198.000000;0.106201
9197.000000;0.106965
9196.000000;0.107664
9195.000000;0.108479
9194.000000;0.109480
9193.000000;0.110567
9192.000000;0.111522
9191.000000;0.112131
9190.000000;0.112369
9189.000000;0.112499
9188.000000;0.112918
9187.000000;0.113809
9186.000000;0.114997
9185.000000;0.116188
9184.000000;0.117252
9183.000000;0.118211
9182.000000;0.119078
9181.000000;0.119861
9180.000000;0.120659
9179.000000;0.121578
9178.000000;0.122571
9177.000000;0.123501
9176.000000;0.124329
9175.000000;0.125087
9174.000000;0.125716
9173.000000;0.126160
9172.000000;0.126611
9171.000000;0.127416
9170.000000;0.128640
9169.000000;0.129929
9168.000000;0.130927
9167.000000;0.131675
9166.000000;0.132455
9165.000000;0.133387
9164.000000;0.134345
9163.000000;0.135187
9162.000000;0.135856
9161.000000;0.136329
9160.000000;0.136657
9159.000000;0.137050
9158.000000;0.137727
9157.000000;0.138641
9156.000000;0.139496
9155.000000;0.140098
9154.000000;0.140580
9153.000000;0.141200
9152.000000;0.142025
9151.000000;0.142894
9150.000000;0.143639
9149.000000;0.144235
9148.000000;0.144758
9147.000000;0.145315
9146.000000;0.146039
9145.000000;0.147059
9144.000000;0.148353
9143.000000;0.149653
9142.000000;0.150587
9141.000000;0.151012
9140.000000;0.151166
9139.000000;0.151430
9138.000000;0.151955
9137.000000;0.152601
9136.000000;0.153220
9135.000000;0.153873
9134.000000;0.154676
9133.000000;0.155543
9132.000000;0.156233
9131.000000;0.156685
9130.000000;0.157161
9129.000000;0.157975
9128.000000;0.159128
9127.000000;0.160285
9126.000000;0.161097
9125.000000;0.161524
9124.000000;0.161839
9123.000000;0.162347
9122.000000;0.163114
9121.000000;0.163945
9120.000000;0.164621
9119.000000;0.165100
9118.000000;0.165505
9117.000000;0.165949
9116.000000;0.166441
9115.000000;0.166955
9114.000000;0.167501
9113.000000;0.168082
9112.000000;0.168652
9111.000000;0.169170
9110.000000;0.169675
9109.000000;0.170244
9108.000000;0.170896
9107.000000;0.171578
9106.000000;0.172210
9105.000000;0.172715
9104.000000;0.173052
9103.000000;0.173305
9102.000000;0.173697
9101.000000;0.174392
9100.000000;0.175290
9099.000000;0.176127
9098.000000;0.176797
9097.000000;0.177441
9096.000000;0.178177
9095.000000;0.178881
9094.000000;0.179356
9093.000000;0.179635
9092.000000;0.179941
9091.000000;0.180407
9090.000000;0.180934
9089.000000;0.181355
9088.000000;0.181612
9087.000000;0.181794
9086.000000;0.182065
9085.000000;0.182590
9084.000000;0.183410
9083.000000;0.184356
9082.000000;0.185165
9081.000000;0.185704
9080.000000;0.186069
9079.000000;0.186450
9078.000000;0.186960
9077.000000;0.187577
9076.000000;0.188168
9075.000000;0.188594
9074.000000;0.188865
9073.000000;0.189165
9072.000000;0.189664
9071.000000;0.190306
9070.000000;0.190893
9069.000000;0.191344
9068.000000;0.191761
9067.000000;0.192197
9066.000000;0.192539
