Criado como novo conjunto de dados;"0307_DANIEL.spp","64805.5 Secs"
cm-1;Abs
10000.000000;0.570518
9999.000000;0.569506
9998.000000;0.568314
9997.000000;0.567088
9996.000000;0.566085
9995.000000;0.565338
9994.000000;0.564692
9993.000000;0.563982
9992.000000;0.563222
9991.000000;0.562520
9990.000000;0.561890
9989.000000;0.561162
9988.000000;0.560142
9987.000000;0.558874
9986.000000;0.557688
9985.000000;0.556908
9984.000000;0.556499
9983.000000;0.556090
9982.000000;0.555394
9981.000000;0.554531
9980.000000;0.553807
9979.000000;0.553250
9978.000000;0.552530
9977.000000;0.551386
9976.000000;0.550001
9975.000000;0.548843
9974.000000;0.548176
9973.000000;0.547844
9972.000000;0.547487
9971.000000;0.546858
9970.000000;0.545922
9969.000000;0.544769
9968.000000;0.543547
9967.000000;0.542416
9966.000000;0.541465
9965.000000;0.540645
9964.000000;0.539830
9963.000000;0.538944
9962.000000;0.538012
9961.000000;0.537083
9960.000000;0.536155
9959.000000;0.535208
9958.000000;0.534289
9957.000000;0.533519
9956.000000;0.532990
9955.000000;0.532652
9954.000000;0.532334
9953.000000;0.531881
9952.000000;0.531271
9951.000000;0.530588
9950.000000;0.529881
9949.000000;0.529082
9948.000000;0.528067
9947.000000;0.526776
9946.000000;0.525313
9945.000000;0.523942
9944.000000;0.522964
9943.000000;0.522475
9942.000000;0.522197
9941.000000;0.521647
9940.000000;0.520607
9939.000000;0.519389
9938.000000;0.518521
9937.000000;0.518153
9936.000000;0.517906
9935.000000;0.517332
9934.000000;0.516405
9933.000000;0.515429
9932.000000;0.514593
9931.000000;0.513797
9930.000000;0.512898
9929.000000;0.511923
9928.000000;0.510953
9927.000000;0.509935
9926.000000;0.508788
9925.000000;0.507582
9924.000000;0.506466
9923.000000;0.505395
9922.000000;0.504153
9921.000000;0.502707
9920.000000;0.501398
9919.000000;0.500597
9918.000000;0.500235
9917.000000;0.499829
9916.000000;0.498997
9915.000000;0.497837
9914.000000;0.496756
9913.000000;0.496020
9912.000000;0.495548
9911.000000;0.495067
9910.000000;0.494368
9909.000000;0.493432
9908.000000;0.492374
9907.000000;0.491292
9906.000000;0.490190
9905.000000;0.489056
9904.000000;0.487981
9903.000000;0.487099
9902.000000;0.486383
9901.000000;0.485591
9900.000000;0.484503
9899.000000;0.483149
9898.000000;0.481723
9897.000000;0.480342
9896.000000;0.479000
9895.000000;0.477730
9894.000000;0.476672
9893.000000;0.475919
9892.000000;0.475373
9891.000000;0.474815
9890.000000;0.474099
9889.000000;0.473273
9888.000000;0.472503
9887.000000;0.471858
9886.000000;0.471154
9885.000000;0.470079
9884.000000;0.468537
9883.000000;0.466833
9882.000000;0.465421
9881.000000;0.464478
9880.000000;0.463836
9879.000000;0.463264
9878.000000;0.462679
9877.000000;0.462056
9876.000000;0.461312
9875.000000;0.460394
9874.000000;0.459367
9873.000000;0.458285
9872.000000;0.457071
9871.000000;0.455675
9870.000000;0.454288
9869.000000;0.453214
9868.000000;0.452516
9867.000000;0.451930
9866.000000;0.451157
9865.000000;0.450110
9864.000000;0.448847
9863.000000;0.447444
9862.000000;0.446043
9861.000000;0.444881
9860.000000;0.444083
9859.000000;0.443435
9858.000000;0.442522
9857.000000;0.441151
9856.000000;0.439524
9855.000000;0.437979
9854.000000;0.436686
9853.000000;0.435638
9852.000000;0.434791
9851.000000;0.434050
9850.000000;0.433197
9849.000000;0.432032
9848.000000;0.430616
9847.000000;0.429260
9846.000000;0.428206
9845.000000;0.427427
9844.000000;0.426753
9843.000000;0.426042
9842.000000;0.425138
9841.000000;0.423829
9840.000000;0.422073
9839.000000;0.420215
9838.000000;0.418757
9837.000000;0.417851
9836.000000;0.417172
9835.000000;0.416342
9834.000000;0.415313
9833.000000;0.414260
9832.000000;0.413242
9831.000000;0.412147
9830.000000;0.410920
9829.000000;0.409655
9828.000000;0.408471
9827.000000;0.407393
9826.000000;0.406384
9825.000000;0.405379
9824.000000;0.404280
9823.000000;0.403013
9822.000000;0.401624
9821.000000;0.400258
9820.000000;0.399001
9819.000000;0.397794
9818.000000;0.396518
9817.000000;0.395123
9816.000000;0.393695
9815.000000;0.392423
9814.000000;0.391476
9813.000000;0.390810
9812.000000;0.390083
9811.000000;0.388922
9810.000000;0.387321
9809.000000;0.385672
9808.000000;0.384328
9807.000000;0.383228
9806.000000;0.382057
9805.000000;0.380688
9804.000000;0.379292
9803.000000;0.378060
9802.000000;0.377007
9801.000000;0.376084
9800.000000;0.375278
9799.000000;0.374502
9798.000000;0.373529
9797.000000;0.372206
9796.000000;0.370695
9795.000000;0.369328
9794.000000;0.368209
9793.000000;0.367090
9792.000000;0.365714
9791.000000;0.364162
9790.000000;0.362757
9789.000000;0.361668
9788.000000;0.360698
9787.000000;0.359501
9786.000000;0.357953
9785.000000;0.356293
9784.000000;0.354901
9783.000000;0.353960
9782.000000;0.353265
9781.000000;0.352379
9780.000000;0.351009
9779.000000;0.349278
9778.000000;0.347602
9777.000000;0.346301
9776.000000;0.345341
9775.000000;0.344453
9774.000000;0.343419
9773.000000;0.342193
9772.000000;0.340808
9771.000000;0.339310
9770.000000;0.337786
9769.000000;0.336368
9768.000000;0.335119
9767.000000;0.333988
9766.000000;0.332889
9765.000000;0.331770
9764.000000;0.330542
9763.000000;0.329054
9762.000000;0.327254
9761.000000;0.325346
9760.000000;0.323650
9759.000000;0.322299
9758.000000;0.321159
9757.000000;0.320056
9756.000000;0.318955
9755.000000;0.317874
9754.000000;0.316744
9753.000000;0.315452
9752.000000;0.313981
9751.000000;0.312398
9750.000000;0.310762
9749.000000;0.309114
9748.000000;0.307550
9747.000000;0.306191
9746.000000;0.305034
9745.000000;0.303909
9744.000000;0.302646
9743.000000;0.301252
9742.000000;0.299881
9741.000000;0.298606
9740.000000;0.297294
9739.000000;0.295759
9738.000000;0.294037
9737.000000;0.292382
9736.000000;0.290939
9735.000000;0.289502
9734.000000;0.287721
9733.000000;0.285528
9732.000000;0.283223
9731.000000;0.281154
9730.000000;0.279450
9729.000000;0.278085
9728.000000;0.276990
9727.000000;0.275988
9726.000000;0.274794
9725.000000;0.273284
9724.000000;0.271660
9723.000000;0.270177
9722.000000;0.268777
9721.000000;0.267210
9720.000000;0.265484
9719.000000;0.263954
9718.000000;0.262872
9717.000000;0.262061
9716.000000;0.261138
9715.000000;0.259940
9714.000000;0.258569
9713.000000;0.257132
9712.000000;0.255566
9711.000000;0.253747
9710.000000;0.251666
9709.000000;0.249501
9708.000000;0.247544
9707.000000;0.246020
9706.000000;0.244904
9705.000000;0.243917
9704.000000;0.242720
9703.000000;0.241113
9702.000000;0.239099
9701.000000;0.236868
9700.000000;0.234744
9699.000000;0.233023
9698.000000;0.231725
9697.000000;0.230551
9696.000000;0.229163
9695.000000;0.227509
9694.000000;0.225806
9693.000000;0.224261
9692.000000;0.222883
9691.000000;0.221549
9690.000000;0.220128
9689.000000;0.218553
9688.000000;0.216839
9687.000000;0.215060
9686.000000;0.213265
9685.000000;0.211426
9684.000000;0.209517
9683.000000;0.207611
9682.000000;0.205821
9681.000000;0.204149
9680.000000;0.202503
9679.000000;0.200848
9678.000000;0.199271
9677.000000;0.197835
9676.000000;0.196476
9675.000000;0.195076
9674.000000;0.193588
9673.000000;0.192004
9672.000000;0.190294
9671.000000;0.188453
9670.000000;0.186589
9669.000000;0.184848
9668.000000;0.183224
9667.000000;0.181541
9666.000000;0.179643
9665.000000;0.177554
9664.000000;0.175412
9663.000000;0.173304
9662.000000;0.171251
9661.000000;0.169307
9660.000000;0.167567
9659.000000;0.166024
9658.000000;0.164501
9657.000000;0.162796
9656.000000;0.160900
9655.000000;0.159009
9654.000000;0.157304
9653.000000;0.155777
9652.000000;0.154268
9651.000000;0.152650
9650.000000;0.150923
9649.000000;0.149140
9648.000000;0.147302
9647.000000;0.145374
9646.000000;0.143376
9645.000000;0.141417
9644.000000;0.139590
9643.000000;0.137876
9642.000000;0.136150
9641.000000;0.134289
9640.000000;0.132251
9639.000000;0.130083
9638.000000;0.127921
9637.000000;0.125984
9636.000000;0.124453
9635.000000;0.123255
9634.000000;0.121992
9633.000000;0.120202
9632.000000;0.117771
9631.000000;0.115076
9630.000000;0.112697
9629.000000;0.110974
9628.000000;0.109784
9627.000000;0.108704
9626.000000;0.107356
9625.000000;0.105660
9624.000000;0.103784
9623.000000;0.101880
9622.000000;0.099937
9621.000000;0.097868
9620.000000;0.095673
9619.000000;0.093436
9618.000000;0.091189
9617.000000;0.088906
9616.000000;0.086630
9615.000000;0.084515
9614.000000;0.082693
9613.000000;0.081125
9612.000000;0.079646
9611.000000;0.078083
9610.000000;0.076342
9609.000000;0.074439
9608.000000;0.072526
9607.000000;0.070798
9606.000000;0.069278
9605.000000;0.067681
9604.000000;0.065595
9603.000000;0.062879
9602.000000;0.059848
9601.000000;0.057058
9600.000000;0.054868
9599.000000;0.053167
9598.000000;0.051514
9597.000000;0.049538
9596.000000;0.047252
9595.000000;0.044982
9594.000000;0.042999
9593.000000;0.041266
9592.000000;0.039560
9591.000000;0.037743
9590.000000;0.035839
9589.000000;0.033905
9588.000000;0.031952
9587.000000;0.030013
9586.000000;0.028136
9585.000000;0.026273
9584.000000;0.024271
9583.000000;0.022070
9582.000000;0.019833
9581.000000;0.017791
9580.000000;0.015995
9579.000000;0.014324
9578.000000;0.012688
9577.000000;0.011054
9576.000000;0.009298
9575.000000;0.007220
9574.000000;0.004816
9573.000000;0.002414
9572.000000;0.000357
9571.000000;-0.001393
9570.000000;-0.003216
9569.000000;-0.005378
9568.000000;-0.007750
9567.000000;-0.010009
9566.000000;-0.012015
9565.000000;-0.013891
9564.000000;-0.015810
9563.000000;-0.017799
9562.000000;-0.019781
9561.000000;-0.021744
9560.000000;-0.023809
9559.000000;-0.026111
9558.000000;-0.028616
9557.000000;-0.031084
9556.000000;-0.033232
9555.000000;-0.034949
9554.000000;-0.036349
9553.000000;-0.037658
9552.000000;-0.039086
9551.000000;-0.040770
9550.000000;-0.042759
9549.000000;-0.044990
9548.000000;-0.047313
9547.000000;-0.049571
9546.000000;-0.051684
9545.000000;-0.053674
9544.000000;-0.055638
9543.000000;-0.057663
9542.000000;-0.059747
9541.000000;-0.061816
9540.000000;-0.063833
9539.000000;-0.065846
9538.000000;-0.067866
9537.000000;-0.069775
9536.000000;-0.071466
9535.000000;-0.073057
9534.000000;-0.074803
9533.000000;-0.076799
9532.000000;-0.078869
9531.000000;-0.080791
9530.000000;-0.082490
9529.000000;-0.083980
9528.000000;-0.085277
9527.000000;-0.086495
9526.000000;-0.087902
9525.000000;-0.089698
9524.000000;-0.091793
9523.000000;-0.093888
9522.000000;-0.095752
9521.000000;-0.097334
9520.000000;-0.098733
9519.000000;-0.100166
9518.000000;-0.101874
9517.000000;-0.103877
9516.000000;-0.105862
9515.000000;-0.107480
9514.000000;-0.108729
9513.000000;-0.109914
9512.000000;-0.111252
9511.000000;-0.112710
9510.000000;-0.114217
9509.000000;-0.115830
9508.000000;-0.117571
9507.000000;-0.119270
9506.000000;-0.120702
9505.000000;-0.121836
9504.000000;-0.122871
9503.000000;-0.124079
9502.000000;-0.125620
9501.000000;-0.127440
9500.000000;-0.129306
9499.000000;-0.130994
9498.000000;-0.132478
9497.000000;-0.133892
9496.000000;-0.135342
9495.000000;-0.136836
9494.000000;-0.138365
9493.000000;-0.139892
9492.000000;-0.141252
9491.000000;-0.142252
9490.000000;-0.142911
9489.000000;-0.143479
9488.000000;-0.144125
9487.000000;-0.144787
9486.000000;-0.145422
9485.000000;-0.146217
9484.000000;-0.147377
9483.000000;-0.148819
9482.000000;-0.150254
9481.000000;-0.151483
9480.000000;-0.152462
9479.000000;-0.153169
9478.000000;-0.153638
9477.000000;-0.154086
9476.000000;-0.154776
9475.000000;-0.155719
9474.000000;-0.156670
9473.000000;-0.157451
9472.000000;-0.158114
9471.000000;-0.158762
9470.000000;-0.159382
9469.000000;-0.159959
9468.000000;-0.160586
9467.000000;-0.161341
9466.000000;-0.162142
9465.000000;-0.162854
9464.000000;-0.163470
9463.000000;-0.164068
9462.000000;-0.164606
9461.000000;-0.164893
9460.000000;-0.164795
9459.000000;-0.164415
9458.000000;-0.164032
9457.000000;-0.163885
9456.000000;-0.164026
9455.000000;-0.164343
9454.000000;-0.164673
9453.000000;-0.164890
9452.000000;-0.164901
9451.000000;-0.164665
9450.000000;-0.164246
9449.000000;-0.163843
9448.000000;-0.163658
9447.000000;-0.163741
9446.000000;-0.163967
9445.000000;-0.164190
9444.000000;-0.164350
9443.000000;-0.164452
9442.000000;-0.164489
9441.000000;-0.164406
9440.000000;-0.164118
9439.000000;-0.163575
9438.000000;-0.162864
9437.000000;-0.162229
9436.000000;-0.161914
9435.000000;-0.161918
9434.000000;-0.161954
9433.000000;-0.161687
9432.000000;-0.161012
9431.000000;-0.160135
9430.000000;-0.159425
9429.000000;-0.159153
9428.000000;-0.159271
9427.000000;-0.159424
9426.000000;-0.159228
9425.000000;-0.158569
9424.000000;-0.157604
9423.000000;-0.156506
9422.000000;-0.155340
9421.000000;-0.154191
9420.000000;-0.153243
9419.000000;-0.152605
9418.000000;-0.152133
9417.000000;-0.151554
9416.000000;-0.150733
9415.000000;-0.149766
9414.000000;-0.148842
9413.000000;-0.148100
9412.000000;-0.147545
9411.000000;-0.146993
9410.000000;-0.146120
9409.000000;-0.144726
9408.000000;-0.142983
9407.000000;-0.141326
9406.000000;-0.140060
9405.000000;-0.139144
9404.000000;-0.138387
9403.000000;-0.137729
9402.000000;-0.137232
9401.000000;-0.136831
9400.000000;-0.136248
9399.000000;-0.135214
9398.000000;-0.133719
9397.000000;-0.132025
9396.000000;-0.130428
9395.000000;-0.129049
9394.000000;-0.127825
9393.000000;-0.126654
9392.000000;-0.125511
9391.000000;-0.124447
9390.000000;-0.123524
9389.000000;-0.122728
9388.000000;-0.121910
9387.000000;-0.120856
9386.000000;-0.119491
9385.000000;-0.118003
9384.000000;-0.116649
9383.000000;-0.115410
9382.000000;-0.113980
9381.000000;-0.112196
9380.000000;-0.110322
9379.000000;-0.108742
9378.000000;-0.107452
9377.000000;-0.106108
9376.000000;-0.104570
9375.000000;-0.103125
9374.000000;-0.102046
9373.000000;-0.101136
9372.000000;-0.099953
9371.000000;-0.098381
9370.000000;-0.096748
9369.000000;-0.095373
9368.000000;-0.094223
9367.000000;-0.093098
9366.000000;-0.091976
9365.000000;-0.090986
9364.000000;-0.090090
9363.000000;-0.088992
9362.000000;-0.087413
9361.000000;-0.085392
9360.000000;-0.083232
9359.000000;-0.081212
9358.000000;-0.079423
9357.000000;-0.077868
9356.000000;-0.076581
9355.000000;-0.075551
9354.000000;-0.074590
9353.000000;-0.073425
9352.000000;-0.071947
9351.000000;-0.070308
9350.000000;-0.068737
9349.000000;-0.067337
9348.000000;-0.066077
9347.000000;-0.064896
9346.000000;-0.063736
9345.000000;-0.062521
9344.000000;-0.061176
9343.000000;-0.059689
9342.000000;-0.058094
9341.000000;-0.056429
9340.000000;-0.054742
9339.000000;-0.053108
9338.000000;-0.051593
9337.000000;-0.050209
9336.000000;-0.048932
9335.000000;-0.047728
9334.000000;-0.046509
9333.000000;-0.045133
9332.000000;-0.043555
9331.000000;-0.041929
9330.000000;-0.040472
9329.000000;-0.039248
9328.000000;-0.038162
9327.000000;-0.037128
9326.000000;-0.036099
9325.000000;-0.034947
9324.000000;-0.033494
9323.000000;-0.031732
9322.000000;-0.029895
9321.000000;-0.028257
9320.000000;-0.026923
9319.000000;-0.025805
9318.000000;-0.024692
9317.000000;-0.023320
9316.000000;-0.021570
9315.000000;-0.019683
9314.000000;-0.018108
9313.000000;-0.017008
9312.000000;-0.016036
9311.000000;-0.014754
9310.000000;-0.013149
9309.000000;-0.011547
9308.000000;-0.010130
9307.000000;-0.008792
9306.000000;-0.007430
9305.000000;-0.006111
9304.000000;-0.004869
9303.000000;-0.003555
9302.000000;-0.002041
9301.000000;-0.000459
9300.000000;0.000906
9299.000000;0.001949
9298.000000;0.002885
9297.000000;0.004045
9296.000000;0.005572
9295.000000;0.007290
9294.000000;0.008875
9293.000000;0.010163
9292.000000;0.011283
9291.000000;0.012483
9290.000000;0.013841
9289.000000;0.015232
9288.000000;0.016525
9287.000000;0.017715
9286.000000;0.018855
9285.000000;0.019974
9284.000000;0.021095
9283.000000;0.022254
9282.000000;0.023439
9281.000000;0.024569
9280.000000;0.025606
9279.000000;0.026639
9278.000000;0.027820
9277.000000;0.029196
9276.000000;0.030660
9275.000000;0.032053
9274.000000;0.033314
9273.000000;0.034524
9272.000000;0.035812
9271.000000;0.037246
9270.000000;0.038801
9269.000000;0.040391
9268.000000;0.041886
9267.000000;0.043120
9266.000000;0.044015
9265.000000;0.044716
9264.000000;0.045529
9263.000000;0.046627
9262.000000;0.047904
9261.000000;0.049166
9260.000000;0.050379
9259.000000;0.051604
9258.000000;0.052797
9257.000000;0.053837
9256.000000;0.054749
9255.000000;0.055720
9254.000000;0.056879
9253.000000;0.058177
9252.000000;0.059518
9251.000000;0.060865
9250.000000;0.062169
9249.000000;0.063334
9248.000000;0.064329
9247.000000;0.065270
9246.000000;0.066322
9245.000000;0.067533
9244.000000;0.068775
9243.000000;0.069825
9242.000000;0.070535
9241.000000;0.071026
9240.000000;0.071673
9239.000000;0.072788
9238.000000;0.074289
9237.000000;0.075792
9236.000000;0.077040
9235.000000;0.078113
9234.000000;0.079190
9233.000000;0.080276
9232.000000;0.081288
9231.000000;0.082273
9230.000000;0.083382
9229.000000;0.084662
9228.000000;0.085961
9227.000000;0.087054
9226.000000;0.087809
9225.000000;0.088306
9224.000000;0.088849
9223.000000;0.089787
9222.000000;0.091238
9221.000000;0.092964
9220.000000;0.094562
9219.000000;0.095769
9218.000000;0.096597
9217.000000;0.097229
9216.000000;0.097863
9215.000000;0.098607
9214.000000;0.099463
9213.000000;0.100372
9212.000000;0.101292
9211.000000;0.102215
9210.000000;0.103141
9209.000000;0.104082
9208.000000;0.105062
9207.000000;0.106089
9206.000000;0.107115
9205.000000;0.108109
9204.000000;0.109121
9203.000000;0.110202
9202.000000;0.111274
9201.000000;0.112188
9200.000000;0.112915
9199.000000;0.113569
9198.000000;0.114263
9197.000000;0.115052
9196.000000;0.116007
9195.000000;0.117174
9194.000000;0.118423
9193.000000;0.119487
9192.000000;0.120248
9191.000000;0.120844
9190.000000;0.121431
9189.000000;0.121997
9188.000000;0.122511
9187.000000;0.123108
9186.000000;0.123988
9185.000000;0.125190
9184.000000;0.126585
9183.000000;0.128004
9182.000000;0.129268
9181.000000;0.130193
9180.000000;0.130766
9179.000000;0.131255
9178.000000;0.131982
9177.000000;0.132990
9176.000000;0.134038
9175.000000;0.134893
9174.000000;0.135509
9173.000000;0.135966
9172.000000;0.136389
9171.000000;0.136932
9170.000000;0.137689
9169.000000;0.138578
9168.000000;0.139397
9167.000000;0.140033
9166.000000;0.140543
9165.000000;0.141044
9164.000000;0.141612
9163.000000;0.142318
9162.000000;0.143239
9161.000000;0.144360
9160.000000;0.145541
9159.000000;0.146623
9158.000000;0.147542
9157.000000;0.148289
9156.000000;0.148837
9155.000000;0.149163
9154.000000;0.149340
9153.000000;0.149569
9152.000000;0.150073
9151.000000;0.150944
9150.000000;0.152043
9149.000000;0.153071
9148.000000;0.153782
9147.000000;0.154189
9146.000000;0.154546
9145.000000;0.155154
9144.000000;0.156138
9143.000000;0.157380
9142.000000;0.158630
9141.000000;0.159681
9140.000000;0.160497
9139.000000;0.161184
9138.000000;0.161865
9137.000000;0.162600
9136.000000;0.163389
9135.000000;0.164202
9134.000000;0.164991
9133.000000;0.165690
9132.000000;0.166260
9131.000000;0.166732
9130.000000;0.167200
9129.000000;0.167790
9128.000000;0.168572
9127.000000;0.169465
9126.000000;0.170252
9125.000000;0.170786
9124.000000;0.171151
9123.000000;0.171550
9122.000000;0.172025
9121.000000;0.172435
9120.000000;0.172713
9119.000000;0.173021
9118.000000;0.173538
9117.000000;0.174213
9116.000000;0.174838
9115.000000;0.175326
9114.000000;0.175798
9113.000000;0.176436
9112.000000;0.177321
9111.000000;0.178384
9110.000000;0.179429
9109.000000;0.180237
9108.000000;0.180741
9107.000000;0.181095
9106.000000;0.181531
9105.000000;0.182146
9104.000000;0.182852
9103.000000;0.183494
9102.000000;0.183972
9101.000000;0.184296
9100.000000;0.184588
9099.000000;0.184998
9098.000000;0.185550
9097.000000;0.186115
9096.000000;0.186602
9095.000000;0.187113
9094.000000;0.187813
9093.000000;0.188670
9092.000000;0.189460
9091.000000;0.190023
9090.000000;0.190437
9089.000000;0.190882
9088.000000;0.191433
9087.000000;0.192020
9086.000000;0.192568
9085.000000;0.193115
9084.000000;0.193786
9083.000000;0.194634
9082.000000;0.195527
9081.000000;0.196233
9080.000000;0.196649
9079.000000;0.196866
9078.000000;0.197020
9077.000000;0.197159
9076.000000;0.197337
9075.000000;0.197716
9074.000000;0.198404
9073.000000;0.199234
9072.000000;0.199871
9071.000000;0.200174
9070.000000;0.200325
9069.000000;0.200582
9068.000000;0.201017
9067.000000;0.201574
9066.000000;0.202216
