Criado como novo conjunto de dados;"0307_DANIEL.spp","3781.7 Secs"
cm-1;Abs
10000.000000;0.237572
9999.000000;0.236545
9998.000000;0.235521
9997.000000;0.234499
9996.000000;0.233479
9995.000000;0.232462
9994.000000;0.231448
9993.000000;0.230434
9992.000000;0.229426
9991.000000;0.228414
9990.000000;0.227418
9989.000000;0.226372
9988.000000;0.225261
9987.000000;0.224040
9986.000000;0.222668
9985.000000;0.221409
9984.000000;0.220511
9983.000000;0.219832
9982.000000;0.219017
9981.000000;0.217975
9980.000000;0.216847
9979.000000;0.215639
9978.000000;0.214267
9977.000000;0.212858
9976.000000;0.211669
9975.000000;0.210729
9974.000000;0.209863
9973.000000;0.208976
9972.000000;0.208044
9971.000000;0.206934
9970.000000;0.205552
9969.000000;0.204092
9968.000000;0.202824
9967.000000;0.201723
9966.000000;0.200604
9965.000000;0.199477
9964.000000;0.198479
9963.000000;0.197524
9962.000000;0.196381
9961.000000;0.195014
9960.000000;0.193588
9959.000000;0.192209
9958.000000;0.190922
9957.000000;0.189841
9956.000000;0.188989
9955.000000;0.188124
9954.000000;0.187037
9953.000000;0.185863
9952.000000;0.184826
9951.000000;0.183825
9950.000000;0.182615
9949.000000;0.181270
9948.000000;0.180056
9947.000000;0.178964
9946.000000;0.177760
9945.000000;0.176417
9944.000000;0.175136
9943.000000;0.173966
9942.000000;0.172780
9941.000000;0.171595
9940.000000;0.170558
9939.000000;0.169630
9938.000000;0.168604
9937.000000;0.167437
9936.000000;0.166277
9935.000000;0.165164
9934.000000;0.163985
9933.000000;0.162718
9932.000000;0.161446
9931.000000;0.160158
9930.000000;0.158790
9929.000000;0.157412
9928.000000;0.156150
9927.000000;0.154951
9926.000000;0.153683
9925.000000;0.152382
9924.000000;0.151168
9923.000000;0.149998
9922.000000;0.148750
9921.000000;0.147476
9920.000000;0.146313
9919.000000;0.145217
9918.000000;0.144058
9917.000000;0.142876
9916.000000;0.141791
9915.000000;0.140728
9914.000000;0.139516
9913.000000;0.138166
9912.000000;0.136815
9911.000000;0.135460
9910.000000;0.134029
9909.000000;0.132632
9908.000000;0.131460
9907.000000;0.130498
9906.000000;0.129564
9905.000000;0.128566
9904.000000;0.127492
9903.000000;0.126256
9902.000000;0.124813
9901.000000;0.123345
9900.000000;0.122063
9899.000000;0.120913
9898.000000;0.119700
9897.000000;0.118389
9896.000000;0.117061
9895.000000;0.115688
9894.000000;0.114224
9893.000000;0.112792
9892.000000;0.111542
9891.000000;0.110402
9890.000000;0.109235
9889.000000;0.108095
9888.000000;0.107072
9887.000000;0.106018
9886.000000;0.104711
9885.000000;0.103201
9884.000000;0.101709
9883.000000;0.100309
9882.000000;0.098960
9881.000000;0.097713
9880.000000;0.096586
9879.000000;0.095395
9878.000000;0.093994
9877.000000;0.092576
9876.000000;0.091407
9875.000000;0.090381
9874.000000;0.089174
9873.000000;0.087726
9872.000000;0.086230
9871.000000;0.084748
9870.000000;0.083207
9869.000000;0.081696
9868.000000;0.080404
9867.000000;0.079275
9866.000000;0.078046
9865.000000;0.076621
9864.000000;0.075139
9863.000000;0.073706
9862.000000;0.072327
9861.000000;0.071057
9860.000000;0.069940
9859.000000;0.068829
9858.000000;0.067523
9857.000000;0.066058
9856.000000;0.064632
9855.000000;0.063292
9854.000000;0.061951
9853.000000;0.060618
9852.000000;0.059363
9851.000000;0.058110
9850.000000;0.056732
9849.000000;0.055283
9848.000000;0.053902
9847.000000;0.052547
9846.000000;0.051099
9845.000000;0.049616
9844.000000;0.048232
9843.000000;0.046893
9842.000000;0.045445
9841.000000;0.043933
9840.000000;0.042527
9839.000000;0.041224
9838.000000;0.039893
9837.000000;0.038538
9836.000000;0.037253
9835.000000;0.035979
9834.000000;0.034577
9833.000000;0.033069
9832.000000;0.031571
9831.000000;0.030041
9830.000000;0.028384
9829.000000;0.026725
9828.000000;0.025313
9827.000000;0.024155
9826.000000;0.023003
9825.000000;0.021678
9824.000000;0.020206
9823.000000;0.018658
9822.000000;0.017088
9821.000000;0.015590
9820.000000;0.014206
9819.000000;0.012832
9818.000000;0.011351
9817.000000;0.009813
9816.000000;0.008317
9815.000000;0.006844
9814.000000;0.005375
9813.000000;0.003996
9812.000000;0.002711
9811.000000;0.001302
9810.000000;-0.000388
9809.000000;-0.002180
9808.000000;-0.003807
9807.000000;-0.005279
9806.000000;-0.006745
9805.000000;-0.008195
9804.000000;-0.009570
9803.000000;-0.011020
9802.000000;-0.012714
9801.000000;-0.014485
9800.000000;-0.016004
9799.000000;-0.017226
9798.000000;-0.018393
9797.000000;-0.019670
9796.000000;-0.021046
9795.000000;-0.022521
9794.000000;-0.024114
9793.000000;-0.025713
9792.000000;-0.027184
9791.000000;-0.028578
9790.000000;-0.030040
9789.000000;-0.031580
9788.000000;-0.033151
9787.000000;-0.034831
9786.000000;-0.036689
9785.000000;-0.038577
9784.000000;-0.040298
9783.000000;-0.041886
9782.000000;-0.043487
9781.000000;-0.045083
9780.000000;-0.046571
9779.000000;-0.048015
9778.000000;-0.049536
9777.000000;-0.051083
9776.000000;-0.052541
9775.000000;-0.053976
9774.000000;-0.055529
9773.000000;-0.057151
9772.000000;-0.058703
9771.000000;-0.060187
9770.000000;-0.061671
9769.000000;-0.063122
9768.000000;-0.064564
9767.000000;-0.066224
9766.000000;-0.068242
9765.000000;-0.070353
9764.000000;-0.072183
9763.000000;-0.073713
9762.000000;-0.075176
9761.000000;-0.076629
9760.000000;-0.077969
9759.000000;-0.079278
9758.000000;-0.080771
9757.000000;-0.082450
9756.000000;-0.084103
9755.000000;-0.085649
9754.000000;-0.087210
9753.000000;-0.088878
9752.000000;-0.090660
9751.000000;-0.092588
9750.000000;-0.094639
9749.000000;-0.096591
9748.000000;-0.098236
9747.000000;-0.099682
9746.000000;-0.101214
9745.000000;-0.102924
9744.000000;-0.104702
9743.000000;-0.106492
9742.000000;-0.108316
9741.000000;-0.110118
9740.000000;-0.111819
9739.000000;-0.113470
9738.000000;-0.115140
9737.000000;-0.116738
9736.000000;-0.118176
9735.000000;-0.119583
9734.000000;-0.121145
9733.000000;-0.122850
9732.000000;-0.124619
9731.000000;-0.126534
9730.000000;-0.128658
9729.000000;-0.130778
9728.000000;-0.132619
9727.000000;-0.134203
9726.000000;-0.135736
9725.000000;-0.137282
9724.000000;-0.138817
9723.000000;-0.140470
9722.000000;-0.142358
9721.000000;-0.144303
9720.000000;-0.146038
9719.000000;-0.147614
9718.000000;-0.149306
9717.000000;-0.151178
9716.000000;-0.153062
9715.000000;-0.154888
9714.000000;-0.156724
9713.000000;-0.158538
9712.000000;-0.160242
9711.000000;-0.161915
9710.000000;-0.163718
9709.000000;-0.165614
9708.000000;-0.167448
9707.000000;-0.169249
9706.000000;-0.171181
9705.000000;-0.173233
9704.000000;-0.175243
9703.000000;-0.177175
9702.000000;-0.179109
9701.000000;-0.181008
9700.000000;-0.182764
9699.000000;-0.184440
9698.000000;-0.186209
9697.000000;-0.188086
9696.000000;-0.189959
9695.000000;-0.191823
9694.000000;-0.193744
9693.000000;-0.195659
9692.000000;-0.197467
9691.000000;-0.199246
9690.000000;-0.201149
9689.000000;-0.203124
9688.000000;-0.205010
9687.000000;-0.206813
9686.000000;-0.208668
9685.000000;-0.210571
9684.000000;-0.212434
9683.000000;-0.214309
9682.000000;-0.216317
9681.000000;-0.218404
9680.000000;-0.220410
9679.000000;-0.222314
9678.000000;-0.224203
9677.000000;-0.226064
9676.000000;-0.227857
9675.000000;-0.229699
9674.000000;-0.231713
9673.000000;-0.233782
9672.000000;-0.235723
9671.000000;-0.237607
9670.000000;-0.239627
9669.000000;-0.241730
9668.000000;-0.243697
9667.000000;-0.245520
9666.000000;-0.247424
9665.000000;-0.249519
9664.000000;-0.251699
9663.000000;-0.253848
9662.000000;-0.255916
9661.000000;-0.257828
9660.000000;-0.259591
9659.000000;-0.261418
9658.000000;-0.263512
9657.000000;-0.265772
9656.000000;-0.267948
9655.000000;-0.270007
9654.000000;-0.272093
9653.000000;-0.274204
9652.000000;-0.276210
9651.000000;-0.278136
9650.000000;-0.280146
9649.000000;-0.282255
9648.000000;-0.284335
9647.000000;-0.286384
9646.000000;-0.288518
9645.000000;-0.290714
9644.000000;-0.292812
9643.000000;-0.294795
9642.000000;-0.296819
9641.000000;-0.298961
9640.000000;-0.301119
9639.000000;-0.303201
9638.000000;-0.305213
9637.000000;-0.307179
9636.000000;-0.309125
9635.000000;-0.311135
9634.000000;-0.313264
9633.000000;-0.315430
9632.000000;-0.317543
9631.000000;-0.319649
9630.000000;-0.321804
9629.000000;-0.323930
9628.000000;-0.325950
9627.000000;-0.327984
9626.000000;-0.330186
9625.000000;-0.332503
9624.000000;-0.334769
9623.000000;-0.336948
9622.000000;-0.339068
9621.000000;-0.341062
9620.000000;-0.342895
9619.000000;-0.344745
9618.000000;-0.346828
9617.000000;-0.349123
9616.000000;-0.351466
9615.000000;-0.353807
9614.000000;-0.356148
9613.000000;-0.358377
9612.000000;-0.360422
9611.000000;-0.362461
9610.000000;-0.364699
9609.000000;-0.367039
9608.000000;-0.369209
9607.000000;-0.371166
9606.000000;-0.373098
9605.000000;-0.375137
9604.000000;-0.377297
9603.000000;-0.379635
9602.000000;-0.382178
9601.000000;-0.384740
9600.000000;-0.387073
9599.000000;-0.389173
9598.000000;-0.391247
9597.000000;-0.393418
9596.000000;-0.395655
9595.000000;-0.397935
9594.000000;-0.400263
9593.000000;-0.402565
9592.000000;-0.404775
9591.000000;-0.406963
9590.000000;-0.409214
9589.000000;-0.411453
9588.000000;-0.413566
9587.000000;-0.415605
9586.000000;-0.417694
9585.000000;-0.419847
9584.000000;-0.422064
9583.000000;-0.424447
9582.000000;-0.427027
9581.000000;-0.429594
9580.000000;-0.431916
9579.000000;-0.434029
9578.000000;-0.436111
9577.000000;-0.438235
9576.000000;-0.440426
9575.000000;-0.442786
9574.000000;-0.445307
9573.000000;-0.447730
9572.000000;-0.449860
9571.000000;-0.451867
9570.000000;-0.454030
9569.000000;-0.456334
9568.000000;-0.458611
9567.000000;-0.460878
9566.000000;-0.463210
9565.000000;-0.465442
9564.000000;-0.467361
9563.000000;-0.469129
9562.000000;-0.471138
9561.000000;-0.473502
9560.000000;-0.475980
9559.000000;-0.478382
9558.000000;-0.480727
9557.000000;-0.483039
9556.000000;-0.485274
9555.000000;-0.487447
9554.000000;-0.489619
9553.000000;-0.491767
9552.000000;-0.493878
9551.000000;-0.496088
9550.000000;-0.498479
9549.000000;-0.500860
9548.000000;-0.502991
9547.000000;-0.504952
9546.000000;-0.507018
9545.000000;-0.509242
9544.000000;-0.511434
9543.000000;-0.513500
9542.000000;-0.515525
9541.000000;-0.517574
9540.000000;-0.519641
9539.000000;-0.521778
9538.000000;-0.524024
9537.000000;-0.526274
9536.000000;-0.528420
9535.000000;-0.530537
9534.000000;-0.532722
9533.000000;-0.534865
9532.000000;-0.536821
9531.000000;-0.538691
9530.000000;-0.540659
9529.000000;-0.542659
9528.000000;-0.544511
9527.000000;-0.546281
9526.000000;-0.548209
9525.000000;-0.550317
9524.000000;-0.552411
9523.000000;-0.554415
9522.000000;-0.556414
9521.000000;-0.558395
9520.000000;-0.560240
9519.000000;-0.561986
9518.000000;-0.563810
9517.000000;-0.565738
9516.000000;-0.567613
9515.000000;-0.569354
9514.000000;-0.571024
9513.000000;-0.572664
9512.000000;-0.574272
9511.000000;-0.575948
9510.000000;-0.577814
9509.000000;-0.579805
9508.000000;-0.581731
9507.000000;-0.583517
9506.000000;-0.585223
9505.000000;-0.586875
9504.000000;-0.588473
9503.000000;-0.590108
9502.000000;-0.591850
9501.000000;-0.593572
9500.000000;-0.595111
9499.000000;-0.596528
9498.000000;-0.598005
9497.000000;-0.599541
9496.000000;-0.600995
9495.000000;-0.602367
9494.000000;-0.603794
9493.000000;-0.605291
9492.000000;-0.606731
9491.000000;-0.608069
9490.000000;-0.609376
9489.000000;-0.610667
9488.000000;-0.611895
9487.000000;-0.613084
9486.000000;-0.614292
9485.000000;-0.615472
9484.000000;-0.616555
9483.000000;-0.617619
9482.000000;-0.618797
9481.000000;-0.620038
9480.000000;-0.621156
9479.000000;-0.622077
9478.000000;-0.622878
9477.000000;-0.623650
9476.000000;-0.624468
9475.000000;-0.625429
9474.000000;-0.626547
9473.000000;-0.627653
9472.000000;-0.628576
9471.000000;-0.629369
9470.000000;-0.630199
9469.000000;-0.631114
9468.000000;-0.632056
9467.000000;-0.633009
9466.000000;-0.633949
9465.000000;-0.634727
9464.000000;-0.635222
9463.000000;-0.635528
9462.000000;-0.635844
9461.000000;-0.636238
9460.000000;-0.636672
9459.000000;-0.637164
9458.000000;-0.637746
9457.000000;-0.638363
9456.000000;-0.638950
9455.000000;-0.639511
9454.000000;-0.639991
9453.000000;-0.640216
9452.000000;-0.640136
9451.000000;-0.640004
9450.000000;-0.640102
9449.000000;-0.640414
9448.000000;-0.640736
9447.000000;-0.640970
9446.000000;-0.641121
9445.000000;-0.641133
9444.000000;-0.640979
9443.000000;-0.640816
9442.000000;-0.640838
9441.000000;-0.641027
9440.000000;-0.641204
9439.000000;-0.641242
9438.000000;-0.641110
9437.000000;-0.640829
9436.000000;-0.640518
9435.000000;-0.640342
9434.000000;-0.640267
9433.000000;-0.640043
9432.000000;-0.639571
9431.000000;-0.639079
9430.000000;-0.638773
9429.000000;-0.638529
9428.000000;-0.638156
9427.000000;-0.637731
9426.000000;-0.637406
9425.000000;-0.637064
9424.000000;-0.636490
9423.000000;-0.635745
9422.000000;-0.635072
9421.000000;-0.634534
9420.000000;-0.634004
9419.000000;-0.633428
9418.000000;-0.632832
9417.000000;-0.632158
9416.000000;-0.631358
9415.000000;-0.630564
9414.000000;-0.629955
9413.000000;-0.629508
9412.000000;-0.629084
9411.000000;-0.628623
9410.000000;-0.628072
9409.000000;-0.627284
9408.000000;-0.626237
9407.000000;-0.625208
9406.000000;-0.624469
9405.000000;-0.623906
9404.000000;-0.623196
9403.000000;-0.622246
9402.000000;-0.621196
9401.000000;-0.620107
9400.000000;-0.618958
9399.000000;-0.617858
9398.000000;-0.616980
9397.000000;-0.616289
9396.000000;-0.615577
9395.000000;-0.614742
9394.000000;-0.613824
9393.000000;-0.612839
9392.000000;-0.611782
9391.000000;-0.610735
9390.000000;-0.609759
9389.000000;-0.608758
9388.000000;-0.607624
9387.000000;-0.606428
9386.000000;-0.605291
9385.000000;-0.604173
9384.000000;-0.602986
9383.000000;-0.601795
9382.000000;-0.600700
9381.000000;-0.599631
9380.000000;-0.598484
9379.000000;-0.597345
9378.000000;-0.596338
9377.000000;-0.595368
9376.000000;-0.594256
9375.000000;-0.593028
9374.000000;-0.591834
9373.000000;-0.590669
9372.000000;-0.589407
9371.000000;-0.588054
9370.000000;-0.586724
9369.000000;-0.585450
9368.000000;-0.584208
9367.000000;-0.583048
9366.000000;-0.581989
9365.000000;-0.580903
9364.000000;-0.579688
9363.000000;-0.578451
9362.000000;-0.577314
9361.000000;-0.576164
9360.000000;-0.574836
9359.000000;-0.573398
9358.000000;-0.572041
9357.000000;-0.570771
9356.000000;-0.569480
9355.000000;-0.568184
9354.000000;-0.566938
9353.000000;-0.565643
9352.000000;-0.564199
9351.000000;-0.562750
9350.000000;-0.561523
9349.000000;-0.560493
9348.000000;-0.559470
9347.000000;-0.558396
9346.000000;-0.557292
9345.000000;-0.556036
9344.000000;-0.554502
9343.000000;-0.552847
9342.000000;-0.551372
9341.000000;-0.550132
9340.000000;-0.548960
9339.000000;-0.547792
9338.000000;-0.546690
9337.000000;-0.545603
9336.000000;-0.544407
9335.000000;-0.543123
9334.000000;-0.541869
9333.000000;-0.540609
9332.000000;-0.539235
9331.000000;-0.537843
9330.000000;-0.536634
9329.000000;-0.535575
9328.000000;-0.534430
9327.000000;-0.533117
9326.000000;-0.531770
9325.000000;-0.530461
9324.000000;-0.529117
9323.000000;-0.527741
9322.000000;-0.526459
9321.000000;-0.525315
9320.000000;-0.524215
9319.000000;-0.523086
9318.000000;-0.521928
9317.000000;-0.520705
9316.000000;-0.519388
9315.000000;-0.518080
9314.000000;-0.516905
9313.000000;-0.515801
9312.000000;-0.514619
9311.000000;-0.513370
9310.000000;-0.512181
9309.000000;-0.511056
9308.000000;-0.509879
9307.000000;-0.508634
9306.000000;-0.507408
9305.000000;-0.506183
9304.000000;-0.504855
9303.000000;-0.503446
9302.000000;-0.502132
9301.000000;-0.501011
9300.000000;-0.500023
9299.000000;-0.499056
9298.000000;-0.498005
9297.000000;-0.496767
9296.000000;-0.495341
9295.000000;-0.493916
9294.000000;-0.492686
9293.000000;-0.491619
9292.000000;-0.490532
9291.000000;-0.489345
9290.000000;-0.488114
9289.000000;-0.486884
9288.000000;-0.485689
9287.000000;-0.484623
9286.000000;-0.483729
9285.000000;-0.482861
9284.000000;-0.481825
9283.000000;-0.480619
9282.000000;-0.479376
9281.000000;-0.478144
9280.000000;-0.476886
9279.000000;-0.475635
9278.000000;-0.474476
9277.000000;-0.473405
9276.000000;-0.472358
9275.000000;-0.471319
9274.000000;-0.470277
9273.000000;-0.469170
9272.000000;-0.468001
9271.000000;-0.466899
9270.000000;-0.465927
9269.000000;-0.464944
9268.000000;-0.463824
9267.000000;-0.462687
9266.000000;-0.461715
9265.000000;-0.460864
9264.000000;-0.459961
9263.000000;-0.458969
9262.000000;-0.457935
9261.000000;-0.456804
9260.000000;-0.455534
9259.000000;-0.454311
9258.000000;-0.453365
9257.000000;-0.452634
9256.000000;-0.451837
9255.000000;-0.450848
9254.000000;-0.449781
9253.000000;-0.448737
9252.000000;-0.447693
9251.000000;-0.446624
9250.000000;-0.445547
9249.000000;-0.444459
9248.000000;-0.443374
9247.000000;-0.442403
9246.000000;-0.441612
9245.000000;-0.440883
9244.000000;-0.440058
9243.000000;-0.439156
9242.000000;-0.438277
9241.000000;-0.437376
9240.000000;-0.436353
9239.000000;-0.435273
9238.000000;-0.434296
9237.000000;-0.433425
9236.000000;-0.432524
9235.000000;-0.431550
9234.000000;-0.430584
9233.000000;-0.429662
9232.000000;-0.428750
9231.000000;-0.427843
9230.000000;-0.426933
9229.000000;-0.425953
9228.000000;-0.424885
9227.000000;-0.423869
9226.000000;-0.423037
9225.000000;-0.422308
9224.000000;-0.421502
9223.000000;-0.420585
9222.000000;-0.419642
9221.000000;-0.418705
9220.000000;-0.417779
9219.000000;-0.416933
9218.000000;-0.416204
9217.000000;-0.415471
9216.000000;-0.414611
9215.000000;-0.413691
9214.000000;-0.412830
9213.000000;-0.412001
9212.000000;-0.411130
9211.000000;-0.410294
9210.000000;-0.409589
9209.000000;-0.408924
9208.000000;-0.408136
9207.000000;-0.407249
9206.000000;-0.406405
9205.000000;-0.405626
9204.000000;-0.404838
9203.000000;-0.404046
9202.000000;-0.403292
9201.000000;-0.402515
9200.000000;-0.401655
9199.000000;-0.400797
9198.000000;-0.400019
9197.000000;-0.399204
9196.000000;-0.398213
9195.000000;-0.397166
9194.000000;-0.396307
9193.000000;-0.395657
9192.000000;-0.395027
9191.000000;-0.394325
9190.000000;-0.393608
9189.000000;-0.392897
9188.000000;-0.392146
9187.000000;-0.391372
9186.000000;-0.390626
9185.000000;-0.389860
9184.000000;-0.389016
9183.000000;-0.388191
9182.000000;-0.387521
9181.000000;-0.386945
9180.000000;-0.386278
9179.000000;-0.385490
9178.000000;-0.384711
9177.000000;-0.384007
9176.000000;-0.383331
9175.000000;-0.382666
9174.000000;-0.382040
9173.000000;-0.381427
9172.000000;-0.380778
9171.000000;-0.380118
9170.000000;-0.379488
9169.000000;-0.378835
9168.000000;-0.378115
9167.000000;-0.377410
9166.000000;-0.376799
9165.000000;-0.376198
9164.000000;-0.375489
9163.000000;-0.374720
9162.000000;-0.374005
9161.000000;-0.373337
9160.000000;-0.372660
9159.000000;-0.372024
9158.000000;-0.371483
9157.000000;-0.370937
9156.000000;-0.370273
9155.000000;-0.369575
9154.000000;-0.368999
9153.000000;-0.368514
9152.000000;-0.367976
9151.000000;-0.367363
9150.000000;-0.366741
9149.000000;-0.366094
9148.000000;-0.365386
9147.000000;-0.364710
9146.000000;-0.364162
9145.000000;-0.363634
9144.000000;-0.362950
9143.000000;-0.362136
9142.000000;-0.361362
9141.000000;-0.360688
9140.000000;-0.360061
9139.000000;-0.359492
9138.000000;-0.359023
9137.000000;-0.358579
9136.000000;-0.358051
9135.000000;-0.357479
9134.000000;-0.356971
9133.000000;-0.356498
9132.000000;-0.355963
9131.000000;-0.355396
9130.000000;-0.354893
9129.000000;-0.354412
9128.000000;-0.353851
9127.000000;-0.353245
9126.000000;-0.352693
9125.000000;-0.352155
9124.000000;-0.351515
9123.000000;-0.350805
9122.000000;-0.350169
9121.000000;-0.349653
9120.000000;-0.349213
9119.000000;-0.348858
9118.000000;-0.348593
9117.000000;-0.348290
9116.000000;-0.347809
9115.000000;-0.347199
9114.000000;-0.346593
9113.000000;-0.345989
9112.000000;-0.345309
9111.000000;-0.344613
9110.000000;-0.344029
9109.000000;-0.343545
9108.000000;-0.343057
9107.000000;-0.342566
9106.000000;-0.342123
9105.000000;-0.341669
9104.000000;-0.341121
9103.000000;-0.340557
9102.000000;-0.340109
9101.000000;-0.339742
9100.000000;-0.339331
9099.000000;-0.338895
9098.000000;-0.338531
9097.000000;-0.338192
9096.000000;-0.337747
9095.000000;-0.337209
9094.000000;-0.336711
9093.000000;-0.336276
9092.000000;-0.335829
9091.000000;-0.335381
9090.000000;-0.334992
9089.000000;-0.334600
9088.000000;-0.334104
9087.000000;-0.333570
