Criado como novo conjunto de dados;"0307_DANIEL.spp","38344.0 Secs"
cm-1;Abs
10000.000000;1.054870
9999.000000;1.054177
9998.000000;1.053738
9997.000000;1.053030
9996.000000;1.051778
9995.000000;1.050175
9994.000000;1.048343
9993.000000;1.046349
9992.000000;1.044307
9991.000000;1.042563
9990.000000;1.041406
9989.000000;1.040841
9988.000000;1.040587
9987.000000;1.040272
9986.000000;1.039553
9985.000000;1.038226
9984.000000;1.036390
9983.000000;1.034481
9982.000000;1.032971
9981.000000;1.031945
9980.000000;1.031082
9979.000000;1.030088
9978.000000;1.029031
9977.000000;1.028151
9976.000000;1.027433
9975.000000;1.026521
9974.000000;1.025074
9973.000000;1.023122
9972.000000;1.021030
9971.000000;1.019186
9970.000000;1.017773
9969.000000;1.016772
9968.000000;1.016078
9967.000000;1.015570
9966.000000;1.015083
9965.000000;1.014355
9964.000000;1.013089
9963.000000;1.011179
9962.000000;1.008907
9961.000000;1.006810
9960.000000;1.005277
9959.000000;1.004265
9958.000000;1.003444
9957.000000;1.002544
9956.000000;1.001514
9955.000000;1.000394
9954.000000;0.999197
9953.000000;0.997953
9952.000000;0.996769
9951.000000;0.995763
9950.000000;0.994933
9949.000000;0.994138
9948.000000;0.993219
9947.000000;0.992154
9946.000000;0.991061
9945.000000;0.990071
9944.000000;0.989174
9943.000000;0.988236
9942.000000;0.987102
9941.000000;0.985646
9940.000000;0.983754
9939.000000;0.981440
9938.000000;0.979067
9937.000000;0.977263
9936.000000;0.976381
9935.000000;0.976082
9934.000000;0.975621
9933.000000;0.974547
9932.000000;0.972963
9931.000000;0.971160
9930.000000;0.969314
9929.000000;0.967620
9928.000000;0.966369
9927.000000;0.965619
9926.000000;0.964963
9925.000000;0.963893
9924.000000;0.962344
9923.000000;0.960640
9922.000000;0.959000
9921.000000;0.957372
9920.000000;0.955733
9919.000000;0.954261
9918.000000;0.953103
9917.000000;0.952160
9916.000000;0.951237
9915.000000;0.950271
9914.000000;0.949286
9913.000000;0.948247
9912.000000;0.947070
9911.000000;0.945702
9910.000000;0.944116
9909.000000;0.942307
9908.000000;0.940392
9907.000000;0.938654
9906.000000;0.937324
9905.000000;0.936353
9904.000000;0.935459
9903.000000;0.934360
9902.000000;0.932900
9901.000000;0.931073
9900.000000;0.929121
9899.000000;0.927543
9898.000000;0.926753
9897.000000;0.926613
9896.000000;0.926424
9895.000000;0.925512
9894.000000;0.923780
9893.000000;0.921645
9892.000000;0.919589
9891.000000;0.917847
9890.000000;0.916395
9889.000000;0.915039
9888.000000;0.913539
9887.000000;0.911818
9886.000000;0.910055
9885.000000;0.908491
9884.000000;0.907151
9883.000000;0.905858
9882.000000;0.904502
9881.000000;0.903158
9880.000000;0.901927
9879.000000;0.900783
9878.000000;0.899610
9877.000000;0.898299
9876.000000;0.896792
9875.000000;0.895179
9874.000000;0.893763
9873.000000;0.892843
9872.000000;0.892309
9871.000000;0.891562
9870.000000;0.890021
9869.000000;0.887671
9868.000000;0.885014
9867.000000;0.882598
9866.000000;0.880729
9865.000000;0.879503
9864.000000;0.878835
9863.000000;0.878433
9862.000000;0.877924
9861.000000;0.877123
9860.000000;0.876078
9859.000000;0.874838
9858.000000;0.873307
9857.000000;0.871422
9856.000000;0.869343
9855.000000;0.867365
9854.000000;0.865673
9853.000000;0.864235
9852.000000;0.862888
9851.000000;0.861460
9850.000000;0.859852
9849.000000;0.858086
9848.000000;0.856290
9847.000000;0.854633
9846.000000;0.853235
9845.000000;0.852086
9844.000000;0.851003
9843.000000;0.849709
9842.000000;0.848071
9841.000000;0.846250
9840.000000;0.844543
9839.000000;0.843054
9838.000000;0.841600
9837.000000;0.839976
9836.000000;0.838226
9835.000000;0.836594
9834.000000;0.835268
9833.000000;0.834222
9832.000000;0.833239
9831.000000;0.832064
9830.000000;0.830574
9829.000000;0.828851
9828.000000;0.827067
9827.000000;0.825300
9826.000000;0.823485
9825.000000;0.821597
9824.000000;0.819807
9823.000000;0.818377
9822.000000;0.817384
9821.000000;0.816569
9820.000000;0.815480
9819.000000;0.813820
9818.000000;0.811707
9817.000000;0.809566
9816.000000;0.807770
9815.000000;0.806399
9814.000000;0.805367
9813.000000;0.804613
9812.000000;0.804012
9811.000000;0.803176
9810.000000;0.801639
9809.000000;0.799341
9808.000000;0.796760
9807.000000;0.794460
9806.000000;0.792630
9805.000000;0.791116
9804.000000;0.789711
9803.000000;0.788274
9802.000000;0.786739
9801.000000;0.785186
9800.000000;0.783810
9799.000000;0.782649
9798.000000;0.781407
9797.000000;0.779750
9796.000000;0.777725
9795.000000;0.775725
9794.000000;0.774067
9793.000000;0.772765
9792.000000;0.771682
9791.000000;0.770665
9790.000000;0.769502
9789.000000;0.767963
9788.000000;0.766001
9787.000000;0.763796
9786.000000;0.761543
9785.000000;0.759328
9784.000000;0.757232
9783.000000;0.755429
9782.000000;0.754037
9781.000000;0.752954
9780.000000;0.751907
9779.000000;0.750638
9778.000000;0.749027
9777.000000;0.747124
9776.000000;0.745091
9775.000000;0.743046
9774.000000;0.740958
9773.000000;0.738784
9772.000000;0.736705
9771.000000;0.735057
9770.000000;0.733937
9769.000000;0.732995
9768.000000;0.731749
9767.000000;0.729994
9766.000000;0.727830
9765.000000;0.725429
9764.000000;0.722948
9763.000000;0.720616
9762.000000;0.718674
9761.000000;0.717184
9760.000000;0.715973
9759.000000;0.714776
9758.000000;0.713396
9757.000000;0.711739
9756.000000;0.709843
9755.000000;0.707893
9754.000000;0.706125
9753.000000;0.704658
9752.000000;0.703419
9751.000000;0.702212
9750.000000;0.700809
9749.000000;0.699042
9748.000000;0.696930
9747.000000;0.694724
9746.000000;0.692726
9745.000000;0.691027
9744.000000;0.689459
9743.000000;0.687777
9742.000000;0.685833
9741.000000;0.683614
9740.000000;0.681275
9739.000000;0.679135
9738.000000;0.677472
9737.000000;0.676206
9736.000000;0.674908
9735.000000;0.673232
9734.000000;0.671294
9733.000000;0.669464
9732.000000;0.667860
9731.000000;0.666206
9730.000000;0.664223
9729.000000;0.662012
9728.000000;0.659921
9727.000000;0.658105
9726.000000;0.656371
9725.000000;0.654468
9724.000000;0.652411
9723.000000;0.650432
9722.000000;0.648657
9721.000000;0.646935
9720.000000;0.645049
9719.000000;0.642991
9718.000000;0.640954
9717.000000;0.639081
9716.000000;0.637338
9715.000000;0.635650
9714.000000;0.634051
9713.000000;0.632574
9712.000000;0.631059
9711.000000;0.629205
9710.000000;0.626885
9709.000000;0.624355
9708.000000;0.622041
9707.000000;0.620131
9706.000000;0.618441
9705.000000;0.616708
9704.000000;0.614949
9703.000000;0.613397
9702.000000;0.612067
9701.000000;0.610538
9700.000000;0.608314
9699.000000;0.605406
9698.000000;0.602410
9697.000000;0.599961
9696.000000;0.598174
9695.000000;0.596641
9694.000000;0.594898
9693.000000;0.592838
9692.000000;0.590694
9691.000000;0.588735
9690.000000;0.587002
9689.000000;0.585308
9688.000000;0.583440
9687.000000;0.581337
9686.000000;0.579107
9685.000000;0.576925
9684.000000;0.574924
9683.000000;0.573126
9682.000000;0.571402
9681.000000;0.569519
9680.000000;0.567343
9679.000000;0.565027
9678.000000;0.562907
9677.000000;0.561160
9676.000000;0.559616
9675.000000;0.557959
9674.000000;0.556044
9673.000000;0.553946
9672.000000;0.551780
9671.000000;0.549617
9670.000000;0.547545
9669.000000;0.545636
9668.000000;0.543773
9667.000000;0.541675
9666.000000;0.539214
9665.000000;0.536642
9664.000000;0.534323
9663.000000;0.532264
9662.000000;0.530077
9661.000000;0.527457
9660.000000;0.524601
9659.000000;0.522007
9658.000000;0.519937
9657.000000;0.518205
9656.000000;0.516472
9655.000000;0.514604
9654.000000;0.512665
9653.000000;0.510715
9652.000000;0.508729
9651.000000;0.506696
9650.000000;0.504655
9649.000000;0.502607
9648.000000;0.500489
9647.000000;0.498258
9646.000000;0.495981
9645.000000;0.493812
9644.000000;0.491895
9643.000000;0.490276
9642.000000;0.488814
9641.000000;0.487204
9640.000000;0.485179
9639.000000;0.482737
9638.000000;0.480127
9637.000000;0.477576
9636.000000;0.475120
9635.000000;0.472691
9634.000000;0.470291
9633.000000;0.467975
9632.000000;0.465733
9631.000000;0.463476
9630.000000;0.461150
9629.000000;0.458784
9628.000000;0.456444
9627.000000;0.454177
9626.000000;0.451975
9625.000000;0.449777
9624.000000;0.447529
9623.000000;0.445275
9622.000000;0.443117
9621.000000;0.441054
9620.000000;0.438916
9619.000000;0.436572
9618.000000;0.434105
9617.000000;0.431702
9616.000000;0.429399
9615.000000;0.427094
9614.000000;0.424787
9613.000000;0.422634
9612.000000;0.420703
9611.000000;0.418800
9610.000000;0.416650
9609.000000;0.414184
9608.000000;0.411602
9607.000000;0.409164
9606.000000;0.406967
9605.000000;0.404860
9604.000000;0.402561
9603.000000;0.399887
9602.000000;0.396951
9601.000000;0.394106
9600.000000;0.391692
9599.000000;0.389809
9598.000000;0.388306
9597.000000;0.386874
9596.000000;0.385164
9595.000000;0.382969
9594.000000;0.380388
9593.000000;0.377750
9592.000000;0.375270
9591.000000;0.372846
9590.000000;0.370237
9589.000000;0.367416
9588.000000;0.364630
9587.000000;0.362158
9586.000000;0.360064
9585.000000;0.358192
9584.000000;0.356309
9583.000000;0.354255
9582.000000;0.352010
9581.000000;0.349644
9580.000000;0.347206
9579.000000;0.344687
9578.000000;0.342125
9577.000000;0.339679
9576.000000;0.337491
9575.000000;0.335480
9574.000000;0.333349
9573.000000;0.330877
9572.000000;0.328157
9571.000000;0.325528
9570.000000;0.323254
9569.000000;0.321277
9568.000000;0.319249
9567.000000;0.316844
9566.000000;0.314067
9565.000000;0.311252
9564.000000;0.308741
9563.000000;0.306604
9562.000000;0.304686
9561.000000;0.302829
9560.000000;0.300948
9559.000000;0.298939
9558.000000;0.296676
9557.000000;0.294148
9556.000000;0.291501
9555.000000;0.288869
9554.000000;0.286274
9553.000000;0.283707
9552.000000;0.281219
9551.000000;0.278833
9550.000000;0.276479
9549.000000;0.274111
9548.000000;0.271809
9547.000000;0.269647
9546.000000;0.267524
9545.000000;0.265309
9544.000000;0.263123
9543.000000;0.261255
9542.000000;0.259739
9541.000000;0.258165
9540.000000;0.256062
9539.000000;0.253381
9538.000000;0.250516
9537.000000;0.247907
9536.000000;0.245725
9535.000000;0.243860
9534.000000;0.242065
9533.000000;0.240089
9532.000000;0.237813
9531.000000;0.235335
9530.000000;0.232885
9529.000000;0.230627
9528.000000;0.228560
9527.000000;0.226603
9526.000000;0.224684
9525.000000;0.222753
9524.000000;0.220754
9523.000000;0.218650
9522.000000;0.216441
9521.000000;0.214172
9520.000000;0.211944
9519.000000;0.209893
9518.000000;0.208083
9517.000000;0.206434
9516.000000;0.204787
9515.000000;0.203057
9514.000000;0.201243
9513.000000;0.199318
9512.000000;0.197230
9511.000000;0.195027
9510.000000;0.192869
9509.000000;0.190855
9508.000000;0.188938
9507.000000;0.187082
9506.000000;0.185402
9505.000000;0.184002
9504.000000;0.182734
9503.000000;0.181289
9502.000000;0.179517
9501.000000;0.177579
9500.000000;0.175749
9499.000000;0.174156
9498.000000;0.172730
9497.000000;0.171316
9496.000000;0.169798
9495.000000;0.168178
9494.000000;0.166572
9493.000000;0.165102
9492.000000;0.163777
9491.000000;0.162495
9490.000000;0.161152
9489.000000;0.159730
9488.000000;0.158260
9487.000000;0.156768
9486.000000;0.155283
9485.000000;0.153868
9484.000000;0.152600
9483.000000;0.151500
9482.000000;0.150475
9481.000000;0.149376
9480.000000;0.148137
9479.000000;0.146882
9478.000000;0.145801
9477.000000;0.144920
9476.000000;0.144041
9475.000000;0.142969
9474.000000;0.141750
9473.000000;0.140603
9472.000000;0.139662
9471.000000;0.138859
9470.000000;0.138026
9469.000000;0.137026
9468.000000;0.135830
9467.000000;0.134572
9466.000000;0.133535
9465.000000;0.132956
9464.000000;0.132776
9463.000000;0.132638
9462.000000;0.132196
9461.000000;0.131392
9460.000000;0.130451
9459.000000;0.129662
9458.000000;0.129181
9457.000000;0.128931
9456.000000;0.128641
9455.000000;0.128050
9454.000000;0.127146
9453.000000;0.126178
9452.000000;0.125397
9451.000000;0.124848
9450.000000;0.124440
9449.000000;0.124149
9448.000000;0.124052
9447.000000;0.124192
9446.000000;0.124515
9445.000000;0.124940
9444.000000;0.125396
9443.000000;0.125748
9442.000000;0.125810
9441.000000;0.125518
9440.000000;0.125070
9439.000000;0.124790
9438.000000;0.124828
9437.000000;0.125029
9436.000000;0.125131
9435.000000;0.125044
9434.000000;0.124898
9433.000000;0.124841
9432.000000;0.124846
9431.000000;0.124767
9430.000000;0.124549
9429.000000;0.124352
9428.000000;0.124453
9427.000000;0.125007
9426.000000;0.125916
9425.000000;0.126913
9424.000000;0.127775
9423.000000;0.128420
9422.000000;0.128848
9421.000000;0.129094
9420.000000;0.129285
9419.000000;0.129627
9418.000000;0.130208
9417.000000;0.130858
9416.000000;0.131338
9415.000000;0.131657
9414.000000;0.132063
9413.000000;0.132695
9412.000000;0.133395
9411.000000;0.133938
9410.000000;0.134315
9409.000000;0.134684
9408.000000;0.135150
9407.000000;0.135721
9406.000000;0.136434
9405.000000;0.137364
9404.000000;0.138504
9403.000000;0.139718
9402.000000;0.140849
9401.000000;0.141823
9400.000000;0.142660
9399.000000;0.143412
9398.000000;0.144095
9397.000000;0.144666
9396.000000;0.145132
9395.000000;0.145680
9394.000000;0.146588
9393.000000;0.147916
9392.000000;0.149382
9391.000000;0.150626
9390.000000;0.151568
9389.000000;0.152391
9388.000000;0.153246
9387.000000;0.154114
9386.000000;0.154934
9385.000000;0.155728
9384.000000;0.156571
9383.000000;0.157536
9382.000000;0.158688
9381.000000;0.160037
9380.000000;0.161457
9379.000000;0.162735
9378.000000;0.163743
9377.000000;0.164543
9376.000000;0.165321
9375.000000;0.166252
9374.000000;0.167388
9373.000000;0.168594
9372.000000;0.169641
9371.000000;0.170459
9370.000000;0.171286
9369.000000;0.172451
9368.000000;0.174005
9367.000000;0.175661
9366.000000;0.177111
9365.000000;0.178295
9364.000000;0.179335
9363.000000;0.180365
9362.000000;0.181467
9361.000000;0.182669
9360.000000;0.183905
9359.000000;0.185050
9358.000000;0.186084
9357.000000;0.187130
9356.000000;0.188243
9355.000000;0.189267
9354.000000;0.190049
9353.000000;0.190727
9352.000000;0.191657
9351.000000;0.193017
9350.000000;0.194628
9349.000000;0.196174
9348.000000;0.197496
9347.000000;0.198613
9346.000000;0.199588
9345.000000;0.200513
9344.000000;0.201561
9343.000000;0.202890
9342.000000;0.204454
9341.000000;0.205990
9340.000000;0.207256
9339.000000;0.208249
9338.000000;0.209158
9337.000000;0.210162
9336.000000;0.211336
9335.000000;0.212668
9334.000000;0.214074
9333.000000;0.215385
9332.000000;0.216422
9331.000000;0.217156
9330.000000;0.217756
9329.000000;0.218455
9328.000000;0.219396
9327.000000;0.220618
9326.000000;0.222092
9325.000000;0.223708
9324.000000;0.225267
9323.000000;0.226569
9322.000000;0.227530
9321.000000;0.228234
9320.000000;0.228866
9319.000000;0.229642
9318.000000;0.230732
9317.000000;0.232177
9316.000000;0.233842
9315.000000;0.235473
9314.000000;0.236840
9313.000000;0.237867
9312.000000;0.238672
9311.000000;0.239467
9310.000000;0.240423
9309.000000;0.241581
9308.000000;0.242899
9307.000000;0.244320
9306.000000;0.245780
9305.000000;0.247207
9304.000000;0.248584
9303.000000;0.249962
9302.000000;0.251310
9301.000000;0.252396
9300.000000;0.252985
9299.000000;0.253210
9298.000000;0.253571
9297.000000;0.254453
9296.000000;0.255754
9295.000000;0.257078
9294.000000;0.258176
9293.000000;0.259095
9292.000000;0.259977
9291.000000;0.260929
9290.000000;0.262069
9289.000000;0.263490
9288.000000;0.265111
9287.000000;0.266634
9286.000000;0.267770
9285.000000;0.268492
9284.000000;0.269065
9283.000000;0.269824
9282.000000;0.270909
9281.000000;0.272177
9280.000000;0.273367
9279.000000;0.274355
9278.000000;0.275215
9277.000000;0.276062
9276.000000;0.276931
9275.000000;0.277867
9274.000000;0.278975
9273.000000;0.280262
9272.000000;0.281536
9271.000000;0.282610
9270.000000;0.283541
9269.000000;0.284516
9268.000000;0.285549
9267.000000;0.286479
9266.000000;0.287255
9265.000000;0.288022
9264.000000;0.288876
9263.000000;0.289733
9262.000000;0.290526
9261.000000;0.291368
9260.000000;0.292392
9259.000000;0.293537
9258.000000;0.294626
9257.000000;0.295580
9256.000000;0.296421
9255.000000;0.297139
9254.000000;0.297716
9253.000000;0.298268
9252.000000;0.299039
9251.000000;0.300177
9250.000000;0.301569
9249.000000;0.302927
9248.000000;0.304031
9247.000000;0.304869
9246.000000;0.305590
9245.000000;0.306346
9244.000000;0.307178
9243.000000;0.308018
9242.000000;0.308798
9241.000000;0.309549
9240.000000;0.310372
9239.000000;0.311324
9238.000000;0.312341
9237.000000;0.313283
9236.000000;0.314085
9235.000000;0.314830
9234.000000;0.315664
9233.000000;0.316619
9232.000000;0.317589
9231.000000;0.318488
9230.000000;0.319392
9229.000000;0.320439
9228.000000;0.321613
9227.000000;0.322701
9226.000000;0.323489
9225.000000;0.323956
9224.000000;0.324299
9223.000000;0.324762
9222.000000;0.325480
9221.000000;0.326416
9220.000000;0.327453
9219.000000;0.328496
9218.000000;0.329470
9217.000000;0.330249
9216.000000;0.330697
9215.000000;0.330866
9214.000000;0.331050
9213.000000;0.331558
9212.000000;0.332432
9211.000000;0.333453
9210.000000;0.334382
9209.000000;0.335101
9208.000000;0.335575
9207.000000;0.335853
9206.000000;0.336144
9205.000000;0.336736
9204.000000;0.337754
9203.000000;0.339038
9202.000000;0.340330
9201.000000;0.341503
9200.000000;0.342533
9199.000000;0.343363
9198.000000;0.343935
9197.000000;0.344348
9196.000000;0.344857
9195.000000;0.345637
9194.000000;0.346600
9193.000000;0.347469
9192.000000;0.348043
9191.000000;0.348378
9190.000000;0.348713
9189.000000;0.349240
9188.000000;0.349957
9187.000000;0.350715
9186.000000;0.351391
9185.000000;0.351973
9184.000000;0.352506
9183.000000;0.353010
9182.000000;0.353492
9181.000000;0.354020
9180.000000;0.354715
9179.000000;0.355627
9178.000000;0.356618
9177.000000;0.357451
9176.000000;0.358032
9175.000000;0.358526
9174.000000;0.359163
9173.000000;0.359936
9172.000000;0.360609
9171.000000;0.361042
9170.000000;0.361405
9169.000000;0.361983
9168.000000;0.362855
9167.000000;0.363833
9166.000000;0.364692
9165.000000;0.365347
9164.000000;0.365862
9163.000000;0.366360
9162.000000;0.366914
9161.000000;0.367473
9160.000000;0.367902
9159.000000;0.368170
9158.000000;0.368441
9157.000000;0.368899
9156.000000;0.369518
9155.000000;0.370113
9154.000000;0.370573
9153.000000;0.370933
9152.000000;0.371255
9151.000000;0.371600
9150.000000;0.372096
9149.000000;0.372860
9148.000000;0.373803
9147.000000;0.374643
9146.000000;0.375207
9145.000000;0.375598
9144.000000;0.376014
9143.000000;0.376522
9142.000000;0.377074
9141.000000;0.377632
9140.000000;0.378160
9139.000000;0.378599
9138.000000;0.378966
9137.000000;0.379377
9136.000000;0.379878
9135.000000;0.380341
9134.000000;0.380653
9133.000000;0.380945
9132.000000;0.381459
9131.000000;0.382223
9130.000000;0.383009
9129.000000;0.383625
9128.000000;0.384106
9127.000000;0.384542
9126.000000;0.384897
9125.000000;0.385088
9124.000000;0.385175
9123.000000;0.385348
9122.000000;0.385745
9121.000000;0.386338
9120.000000;0.386969
9119.000000;0.387455
9118.000000;0.387701
9117.000000;0.387797
9116.000000;0.387996
9115.000000;0.388516
9114.000000;0.389325
9113.000000;0.390165
9112.000000;0.390818
9111.000000;0.391267
9110.000000;0.391603
9109.000000;0.391886
9108.000000;0.392183
9107.000000;0.392642
9106.000000;0.393332
9105.000000;0.394050
9104.000000;0.394474
9103.000000;0.394568
9102.000000;0.394665
9101.000000;0.395027
9100.000000;0.395501
9099.000000;0.395777
9098.000000;0.395853
9097.000000;0.396003
9096.000000;0.396345
9095.000000;0.396714
9094.000000;0.397003
9093.000000;0.397353
9092.000000;0.397888
9091.000000;0.398450
9090.000000;0.398799
9089.000000;0.398961
9088.000000;0.399208
9087.000000;0.399723
9086.000000;0.400419
9085.000000;0.401053
9084.000000;0.401416
9083.000000;0.401474
9082.000000;0.401415
9081.000000;0.401550
9080.000000;0.402025
9079.000000;0.402645
9078.000000;0.403061
9077.000000;0.403133
9076.000000;0.403029
9075.000000;0.402992
9074.000000;0.403118
9073.000000;0.403372
9072.000000;0.403690
9071.000000;0.404023
9070.000000;0.404373
9069.000000;0.404830
9068.000000;0.405483
9067.000000;0.406231
9066.000000;0.406779
9065.000000;0.406920
9064.000000;0.406798
9063.000000;0.406814
9062.000000;0.407250
9061.000000;0.408008
9060.000000;0.408723
9059.000000;0.409107
9058.000000;0.409183
9057.000000;0.409202
9056.000000;0.409358
9055.000000;0.409609
9054.000000;0.409801
9053.000000;0.409911
