Criado como novo conjunto de dados;"0307_DANIEL.spp","72725.8 Secs"
cm-1;Abs
10000.000000;0.573686
9999.000000;0.573017
9998.000000;0.572356
9997.000000;0.571681
9996.000000;0.571078
9995.000000;0.570533
9994.000000;0.569931
9993.000000;0.569258
9992.000000;0.568531
9991.000000;0.567749
9990.000000;0.566913
9989.000000;0.566061
9988.000000;0.565192
9987.000000;0.564253
9986.000000;0.563292
9985.000000;0.562505
9984.000000;0.562010
9983.000000;0.561645
9982.000000;0.561139
9981.000000;0.560432
9980.000000;0.559658
9979.000000;0.558871
9978.000000;0.557948
9977.000000;0.556818
9976.000000;0.555632
9975.000000;0.554594
9974.000000;0.553740
9973.000000;0.552944
9972.000000;0.552120
9971.000000;0.551330
9970.000000;0.550702
9969.000000;0.550255
9968.000000;0.549827
9967.000000;0.549180
9966.000000;0.548209
9965.000000;0.547024
9964.000000;0.545830
9963.000000;0.544765
9962.000000;0.543896
9961.000000;0.543259
9960.000000;0.542801
9959.000000;0.542299
9958.000000;0.541488
9957.000000;0.540293
9956.000000;0.538907
9955.000000;0.537621
9954.000000;0.536613
9953.000000;0.535885
9952.000000;0.535296
9951.000000;0.534644
9950.000000;0.533792
9949.000000;0.532764
9948.000000;0.531686
9947.000000;0.530633
9946.000000;0.529612
9945.000000;0.528665
9944.000000;0.527909
9943.000000;0.527405
9942.000000;0.527055
9941.000000;0.526664
9940.000000;0.526065
9939.000000;0.525175
9938.000000;0.524027
9937.000000;0.522799
9936.000000;0.521727
9935.000000;0.520890
9934.000000;0.520119
9933.000000;0.519192
9932.000000;0.518078
9931.000000;0.516901
9930.000000;0.515716
9929.000000;0.514473
9928.000000;0.513221
9927.000000;0.512188
9926.000000;0.511548
9925.000000;0.511207
9924.000000;0.510920
9923.000000;0.510546
9922.000000;0.510082
9921.000000;0.509492
9920.000000;0.508661
9919.000000;0.507567
9918.000000;0.506365
9917.000000;0.505249
9916.000000;0.504261
9915.000000;0.503281
9914.000000;0.502139
9913.000000;0.500751
9912.000000;0.499220
9911.000000;0.497844
9910.000000;0.496890
9909.000000;0.496306
9908.000000;0.495750
9907.000000;0.494984
9906.000000;0.494102
9905.000000;0.493254
9904.000000;0.492304
9903.000000;0.490998
9902.000000;0.489430
9901.000000;0.488072
9900.000000;0.487253
9899.000000;0.486792
9898.000000;0.486257
9897.000000;0.485436
9896.000000;0.484425
9895.000000;0.483370
9894.000000;0.482300
9893.000000;0.481195
9892.000000;0.480081
9891.000000;0.478990
9890.000000;0.477914
9889.000000;0.476835
9888.000000;0.475781
9887.000000;0.474832
9886.000000;0.474040
9885.000000;0.473336
9884.000000;0.472515
9883.000000;0.471397
9882.000000;0.470040
9881.000000;0.468753
9880.000000;0.467823
9879.000000;0.467227
9878.000000;0.466614
9877.000000;0.465593
9876.000000;0.464068
9875.000000;0.462354
9874.000000;0.460943
9873.000000;0.460107
9872.000000;0.459668
9871.000000;0.459187
9870.000000;0.458377
9869.000000;0.457304
9868.000000;0.456182
9867.000000;0.455088
9866.000000;0.453961
9865.000000;0.452819
9864.000000;0.451811
9863.000000;0.451010
9862.000000;0.450219
9861.000000;0.449080
9860.000000;0.447434
9859.000000;0.445543
9858.000000;0.443886
9857.000000;0.442737
9856.000000;0.441966
9855.000000;0.441272
9854.000000;0.440539
9853.000000;0.439859
9852.000000;0.439268
9851.000000;0.438597
9850.000000;0.437601
9849.000000;0.436180
9848.000000;0.434445
9847.000000;0.432643
9846.000000;0.431033
9845.000000;0.429763
9844.000000;0.428791
9843.000000;0.427998
9842.000000;0.427337
9841.000000;0.426813
9840.000000;0.426303
9839.000000;0.425560
9838.000000;0.424453
9837.000000;0.423105
9836.000000;0.421726
9835.000000;0.420380
9834.000000;0.419000
9833.000000;0.417552
9832.000000;0.416091
9831.000000;0.414729
9830.000000;0.413587
9829.000000;0.412713
9828.000000;0.411941
9827.000000;0.410936
9826.000000;0.409519
9825.000000;0.407932
9824.000000;0.406659
9823.000000;0.405965
9822.000000;0.405653
9821.000000;0.405238
9820.000000;0.404288
9819.000000;0.402694
9818.000000;0.400728
9817.000000;0.398846
9816.000000;0.397349
9815.000000;0.396210
9814.000000;0.395232
9813.000000;0.394311
9812.000000;0.393443
9811.000000;0.392575
9810.000000;0.391577
9809.000000;0.390374
9808.000000;0.388984
9807.000000;0.387439
9806.000000;0.385790
9805.000000;0.384180
9804.000000;0.382763
9803.000000;0.381525
9802.000000;0.380325
9801.000000;0.379147
9800.000000;0.378146
9799.000000;0.377350
9798.000000;0.376456
9797.000000;0.375118
9796.000000;0.373378
9795.000000;0.371674
9794.000000;0.370404
9793.000000;0.369593
9792.000000;0.368967
9791.000000;0.368220
9790.000000;0.367192
9789.000000;0.365906
9788.000000;0.364546
9787.000000;0.363306
9786.000000;0.362179
9785.000000;0.360924
9784.000000;0.359330
9783.000000;0.357487
9782.000000;0.355681
9781.000000;0.354060
9780.000000;0.352531
9779.000000;0.351018
9778.000000;0.349642
9777.000000;0.348537
9776.000000;0.347597
9775.000000;0.346580
9774.000000;0.345417
9773.000000;0.344239
9772.000000;0.343087
9771.000000;0.341793
9770.000000;0.340224
9769.000000;0.338511
9768.000000;0.336903
9767.000000;0.335487
9766.000000;0.334172
9765.000000;0.332908
9764.000000;0.331784
9763.000000;0.330899
9762.000000;0.330192
9761.000000;0.329427
9760.000000;0.328316
9759.000000;0.326698
9758.000000;0.324683
9757.000000;0.322599
9756.000000;0.320760
9755.000000;0.319249
9754.000000;0.317944
9753.000000;0.316703
9752.000000;0.315462
9751.000000;0.314196
9750.000000;0.312888
9749.000000;0.311564
9748.000000;0.310285
9747.000000;0.309047
9746.000000;0.307708
9745.000000;0.306087
9744.000000;0.304173
9743.000000;0.302209
9742.000000;0.300489
9741.000000;0.299071
9740.000000;0.297754
9739.000000;0.296360
9738.000000;0.294965
9737.000000;0.293745
9736.000000;0.292675
9735.000000;0.291533
9734.000000;0.290184
9733.000000;0.288687
9732.000000;0.287127
9731.000000;0.285524
9730.000000;0.283972
9729.000000;0.282645
9728.000000;0.281497
9727.000000;0.280139
9726.000000;0.278254
9725.000000;0.276079
9724.000000;0.274217
9723.000000;0.272934
9722.000000;0.271845
9721.000000;0.270368
9720.000000;0.268366
9719.000000;0.266272
9718.000000;0.264626
9717.000000;0.263574
9716.000000;0.262750
9715.000000;0.261617
9714.000000;0.259953
9713.000000;0.258020
9712.000000;0.256245
9711.000000;0.254775
9710.000000;0.253390
9709.000000;0.251795
9708.000000;0.249921
9707.000000;0.247956
9706.000000;0.246176
9705.000000;0.244755
9704.000000;0.243624
9703.000000;0.242498
9702.000000;0.241105
9701.000000;0.239419
9700.000000;0.237638
9699.000000;0.235952
9698.000000;0.234403
9697.000000;0.232930
9696.000000;0.231460
9695.000000;0.229947
9694.000000;0.228411
9693.000000;0.226922
9692.000000;0.225502
9691.000000;0.224048
9690.000000;0.222433
9689.000000;0.220670
9688.000000;0.218867
9687.000000;0.217053
9686.000000;0.215191
9685.000000;0.213351
9684.000000;0.211710
9683.000000;0.210324
9682.000000;0.209022
9681.000000;0.207615
9680.000000;0.206084
9679.000000;0.204478
9678.000000;0.202732
9677.000000;0.200754
9676.000000;0.198654
9675.000000;0.196736
9674.000000;0.195199
9673.000000;0.193878
9672.000000;0.192354
9671.000000;0.190334
9670.000000;0.187947
9669.000000;0.185650
9668.000000;0.183807
9667.000000;0.182382
9666.000000;0.181047
9665.000000;0.179543
9664.000000;0.177867
9663.000000;0.176132
9662.000000;0.174370
9661.000000;0.172524
9660.000000;0.170555
9659.000000;0.168502
9658.000000;0.166480
9657.000000;0.164655
9656.000000;0.163121
9655.000000;0.161754
9654.000000;0.160255
9653.000000;0.158419
9652.000000;0.156360
9651.000000;0.154405
9650.000000;0.152774
9649.000000;0.151393
9648.000000;0.149996
9647.000000;0.148356
9646.000000;0.146430
9645.000000;0.144328
9644.000000;0.142175
9643.000000;0.140040
9642.000000;0.137971
9641.000000;0.136036
9640.000000;0.134274
9639.000000;0.132638
9638.000000;0.131054
9637.000000;0.129483
9636.000000;0.127864
9635.000000;0.126027
9634.000000;0.123803
9633.000000;0.121264
9632.000000;0.118725
9631.000000;0.116431
9630.000000;0.114348
9629.000000;0.112325
9628.000000;0.110359
9627.000000;0.108540
9626.000000;0.106816
9625.000000;0.104971
9624.000000;0.102915
9623.000000;0.100850
9622.000000;0.099046
9621.000000;0.097494
9620.000000;0.095899
9619.000000;0.094040
9618.000000;0.092016
9617.000000;0.090078
9616.000000;0.088295
9615.000000;0.086537
9614.000000;0.084747
9613.000000;0.083063
9612.000000;0.081555
9611.000000;0.080007
9610.000000;0.078098
9609.000000;0.075763
9608.000000;0.073233
9607.000000;0.070769
9606.000000;0.068514
9605.000000;0.066542
9604.000000;0.064839
9603.000000;0.063188
9602.000000;0.061270
9601.000000;0.059009
9600.000000;0.056677
9599.000000;0.054562
9598.000000;0.052616
9597.000000;0.050573
9596.000000;0.048320
9595.000000;0.046039
9594.000000;0.043990
9593.000000;0.042249
9592.000000;0.040659
9591.000000;0.038971
9590.000000;0.037035
9589.000000;0.034916
9588.000000;0.032811
9587.000000;0.030840
9586.000000;0.028957
9585.000000;0.027061
9584.000000;0.025123
9583.000000;0.023161
9582.000000;0.021158
9581.000000;0.019082
9580.000000;0.016962
9579.000000;0.014869
9578.000000;0.012836
9577.000000;0.010832
9576.000000;0.008796
9575.000000;0.006671
9574.000000;0.004455
9573.000000;0.002232
9572.000000;0.000109
9571.000000;-0.001897
9570.000000;-0.003873
9569.000000;-0.005889
9568.000000;-0.007919
9567.000000;-0.009909
9566.000000;-0.011855
9565.000000;-0.013782
9564.000000;-0.015710
9563.000000;-0.017672
9562.000000;-0.019686
9561.000000;-0.021667
9560.000000;-0.023458
9559.000000;-0.025019
9558.000000;-0.026518
9557.000000;-0.028194
9556.000000;-0.030172
9555.000000;-0.032422
9554.000000;-0.034805
9553.000000;-0.037107
9552.000000;-0.039161
9551.000000;-0.041038
9550.000000;-0.042999
9549.000000;-0.045174
9548.000000;-0.047393
9547.000000;-0.049448
9546.000000;-0.051364
9545.000000;-0.053248
9544.000000;-0.055013
9543.000000;-0.056512
9542.000000;-0.057879
9541.000000;-0.059463
9540.000000;-0.061398
9539.000000;-0.063466
9538.000000;-0.065457
9537.000000;-0.067449
9536.000000;-0.069614
9535.000000;-0.071903
9534.000000;-0.074070
9533.000000;-0.075945
9532.000000;-0.077576
9531.000000;-0.079164
9530.000000;-0.080928
9529.000000;-0.082928
9528.000000;-0.084986
9527.000000;-0.086842
9526.000000;-0.088453
9525.000000;-0.090043
9524.000000;-0.091826
9523.000000;-0.093796
9522.000000;-0.095844
9521.000000;-0.097943
9520.000000;-0.100077
9519.000000;-0.102110
9518.000000;-0.103868
9517.000000;-0.105339
9516.000000;-0.106656
9515.000000;-0.107922
9514.000000;-0.109158
9513.000000;-0.110383
9512.000000;-0.111667
9511.000000;-0.113086
9510.000000;-0.114689
9509.000000;-0.116455
9508.000000;-0.118242
9507.000000;-0.119840
9506.000000;-0.121186
9505.000000;-0.122472
9504.000000;-0.123919
9503.000000;-0.125473
9502.000000;-0.126890
9501.000000;-0.128086
9500.000000;-0.129254
9499.000000;-0.130607
9498.000000;-0.132134
9497.000000;-0.133688
9496.000000;-0.135185
9495.000000;-0.136631
9494.000000;-0.138037
9493.000000;-0.139358
9492.000000;-0.140515
9491.000000;-0.141451
9490.000000;-0.142218
9489.000000;-0.142998
9488.000000;-0.143951
9487.000000;-0.145048
9486.000000;-0.146120
9485.000000;-0.147067
9484.000000;-0.147924
9483.000000;-0.148743
9482.000000;-0.149559
9481.000000;-0.150454
9480.000000;-0.151460
9479.000000;-0.152372
9478.000000;-0.152890
9477.000000;-0.153089
9476.000000;-0.153514
9475.000000;-0.154597
9474.000000;-0.156122
9473.000000;-0.157481
9472.000000;-0.158341
9471.000000;-0.158846
9470.000000;-0.159277
9469.000000;-0.159820
9468.000000;-0.160618
9467.000000;-0.161710
9466.000000;-0.162810
9465.000000;-0.163420
9464.000000;-0.163305
9463.000000;-0.162744
9462.000000;-0.162251
9461.000000;-0.162184
9460.000000;-0.162634
9459.000000;-0.163459
9458.000000;-0.164297
9457.000000;-0.164758
9456.000000;-0.164799
9455.000000;-0.164776
9454.000000;-0.165008
9453.000000;-0.165407
9452.000000;-0.165672
9451.000000;-0.165727
9450.000000;-0.165761
9449.000000;-0.165912
9448.000000;-0.166126
9447.000000;-0.166288
9446.000000;-0.166336
9445.000000;-0.166239
9444.000000;-0.166024
9443.000000;-0.165803
9442.000000;-0.165659
9441.000000;-0.165470
9440.000000;-0.164999
9439.000000;-0.164188
9438.000000;-0.163281
9437.000000;-0.162651
9436.000000;-0.162543
9435.000000;-0.162918
9434.000000;-0.163411
9433.000000;-0.163471
9432.000000;-0.162769
9431.000000;-0.161564
9430.000000;-0.160545
9429.000000;-0.160190
9428.000000;-0.160327
9427.000000;-0.160368
9426.000000;-0.159888
9425.000000;-0.158894
9424.000000;-0.157670
9423.000000;-0.156515
9422.000000;-0.155603
9421.000000;-0.154926
9420.000000;-0.154301
9419.000000;-0.153489
9418.000000;-0.152424
9417.000000;-0.151298
9416.000000;-0.150388
9415.000000;-0.149784
9414.000000;-0.149332
9413.000000;-0.148844
9412.000000;-0.148292
9411.000000;-0.147735
9410.000000;-0.147126
9409.000000;-0.146290
9408.000000;-0.145152
9407.000000;-0.143874
9406.000000;-0.142695
9405.000000;-0.141671
9404.000000;-0.140667
9403.000000;-0.139580
9402.000000;-0.138447
9401.000000;-0.137320
9400.000000;-0.136136
9399.000000;-0.134846
9398.000000;-0.133592
9397.000000;-0.132628
9396.000000;-0.131990
9395.000000;-0.131351
9394.000000;-0.130314
9393.000000;-0.128825
9392.000000;-0.127227
9391.000000;-0.125871
9390.000000;-0.124798
9389.000000;-0.123825
9388.000000;-0.122820
9387.000000;-0.121769
9386.000000;-0.120635
9385.000000;-0.119351
9384.000000;-0.117957
9383.000000;-0.116595
9382.000000;-0.115310
9381.000000;-0.113953
9380.000000;-0.112378
9379.000000;-0.110643
9378.000000;-0.108920
9377.000000;-0.107296
9376.000000;-0.105750
9375.000000;-0.104304
9374.000000;-0.103053
9373.000000;-0.102008
9372.000000;-0.100994
9371.000000;-0.099754
9370.000000;-0.098178
9369.000000;-0.096437
9368.000000;-0.094874
9367.000000;-0.093721
9366.000000;-0.092892
9365.000000;-0.092083
9364.000000;-0.091059
9363.000000;-0.089772
9362.000000;-0.088237
9361.000000;-0.086441
9360.000000;-0.084427
9359.000000;-0.082374
9358.000000;-0.080493
9357.000000;-0.078897
9356.000000;-0.077586
9355.000000;-0.076472
9354.000000;-0.075367
9353.000000;-0.074067
9352.000000;-0.072580
9351.000000;-0.071163
9350.000000;-0.070021
9349.000000;-0.069043
9348.000000;-0.067968
9347.000000;-0.066716
9346.000000;-0.065414
9345.000000;-0.064151
9344.000000;-0.062857
9343.000000;-0.061430
9342.000000;-0.059853
9341.000000;-0.058195
9340.000000;-0.056593
9339.000000;-0.055209
9338.000000;-0.054071
9337.000000;-0.052984
9336.000000;-0.051706
9335.000000;-0.050186
9334.000000;-0.048540
9333.000000;-0.046858
9332.000000;-0.045194
9331.000000;-0.043698
9330.000000;-0.042531
9329.000000;-0.041629
9328.000000;-0.040684
9327.000000;-0.039407
9326.000000;-0.037728
9325.000000;-0.035786
9324.000000;-0.033848
9323.000000;-0.032205
9322.000000;-0.030947
9321.000000;-0.029840
9320.000000;-0.028578
9319.000000;-0.027142
9318.000000;-0.025720
9317.000000;-0.024345
9316.000000;-0.022863
9315.000000;-0.021293
9314.000000;-0.019917
9313.000000;-0.018893
9312.000000;-0.018010
9311.000000;-0.016976
9310.000000;-0.015732
9309.000000;-0.014345
9308.000000;-0.012826
9307.000000;-0.011223
9306.000000;-0.009731
9305.000000;-0.008479
9304.000000;-0.007316
9303.000000;-0.006030
9302.000000;-0.004645
9301.000000;-0.003342
9300.000000;-0.002165
9299.000000;-0.001005
9298.000000;0.000218
9297.000000;0.001523
9296.000000;0.002957
9295.000000;0.004517
9294.000000;0.006046
9293.000000;0.007380
9292.000000;0.008570
9291.000000;0.009811
9290.000000;0.011188
9289.000000;0.012631
9288.000000;0.014082
9287.000000;0.015528
9286.000000;0.016883
9285.000000;0.018044
9284.000000;0.019082
9283.000000;0.020227
9282.000000;0.021622
9281.000000;0.023215
9280.000000;0.024872
9279.000000;0.026462
9278.000000;0.027813
9277.000000;0.028773
9276.000000;0.029402
9275.000000;0.030009
9274.000000;0.030922
9273.000000;0.032226
9272.000000;0.033731
9271.000000;0.035150
9270.000000;0.036344
9269.000000;0.037443
9268.000000;0.038718
9267.000000;0.040269
9266.000000;0.041878
9265.000000;0.043230
9264.000000;0.044231
9263.000000;0.045037
9262.000000;0.045845
9261.000000;0.046789
9260.000000;0.047957
9259.000000;0.049329
9258.000000;0.050723
9257.000000;0.051940
9256.000000;0.052974
9255.000000;0.053961
9254.000000;0.054950
9253.000000;0.055885
9252.000000;0.056791
9251.000000;0.057779
9250.000000;0.058843
9249.000000;0.059822
9248.000000;0.060660
9247.000000;0.061523
9246.000000;0.062580
9245.000000;0.063795
9244.000000;0.065041
9243.000000;0.066308
9242.000000;0.067656
9241.000000;0.069058
9240.000000;0.070412
9239.000000;0.071687
9238.000000;0.072949
9237.000000;0.074235
9236.000000;0.075466
9235.000000;0.076490
9234.000000;0.077210
9233.000000;0.077706
9232.000000;0.078244
9231.000000;0.079101
9230.000000;0.080331
9229.000000;0.081715
9228.000000;0.082955
9227.000000;0.083891
9226.000000;0.084542
9225.000000;0.085058
9224.000000;0.085656
9223.000000;0.086543
9222.000000;0.087776
9221.000000;0.089186
9220.000000;0.090472
9219.000000;0.091369
9218.000000;0.091807
9217.000000;0.091986
9216.000000;0.092307
9215.000000;0.093110
9214.000000;0.094386
9213.000000;0.095795
9212.000000;0.097011
9211.000000;0.098033
9210.000000;0.099093
9209.000000;0.100323
9208.000000;0.101601
9207.000000;0.102733
9206.000000;0.103699
9205.000000;0.104646
9204.000000;0.105679
9203.000000;0.106736
9202.000000;0.107684
9201.000000;0.108490
9200.000000;0.109242
9199.000000;0.110016
9198.000000;0.110797
9197.000000;0.111545
9196.000000;0.112285
9195.000000;0.113100
9194.000000;0.114063
9193.000000;0.115160
9192.000000;0.116231
9191.000000;0.117048
9190.000000;0.117569
9189.000000;0.118114
9188.000000;0.119112
9187.000000;0.120591
9186.000000;0.122090
9185.000000;0.123155
9184.000000;0.123796
9183.000000;0.124300
9182.000000;0.124768
9181.000000;0.125123
9180.000000;0.125466
9179.000000;0.126088
9178.000000;0.127064
9177.000000;0.128102
9176.000000;0.128924
9175.000000;0.129609
9174.000000;0.130421
9173.000000;0.131467
9172.000000;0.132659
9171.000000;0.133887
9170.000000;0.135040
9169.000000;0.135939
9168.000000;0.136454
9167.000000;0.136700
9166.000000;0.136998
9165.000000;0.137580
9164.000000;0.138391
9163.000000;0.139182
9162.000000;0.139785
9161.000000;0.140289
9160.000000;0.140965
9159.000000;0.141985
9158.000000;0.143220
9157.000000;0.144345
9156.000000;0.145167
9155.000000;0.145778
9154.000000;0.146356
9153.000000;0.146925
9152.000000;0.147386
9151.000000;0.147754
9150.000000;0.148207
9149.000000;0.148888
9148.000000;0.149716
9147.000000;0.150457
9146.000000;0.150979
9145.000000;0.151415
9144.000000;0.152068
9143.000000;0.153135
9142.000000;0.154500
9141.000000;0.155794
9140.000000;0.156655
9139.000000;0.156982
9138.000000;0.156988
9137.000000;0.157048
9136.000000;0.157461
9135.000000;0.158291
9134.000000;0.159368
9133.000000;0.160436
9132.000000;0.161311
9131.000000;0.161964
9130.000000;0.162520
9129.000000;0.163172
9128.000000;0.164005
9127.000000;0.164864
9126.000000;0.165492
9125.000000;0.165843
9124.000000;0.166173
9123.000000;0.166736
9122.000000;0.167519
9121.000000;0.168365
9120.000000;0.169255
9119.000000;0.170245
9118.000000;0.171210
9117.000000;0.171886
9116.000000;0.172216
9115.000000;0.172459
9114.000000;0.172873
9113.000000;0.173448
9112.000000;0.174044
9111.000000;0.174611
9110.000000;0.175160
9109.000000;0.175635
9108.000000;0.175961
9107.000000;0.176188
9106.000000;0.176488
9105.000000;0.177017
9104.000000;0.177810
9103.000000;0.178724
9102.000000;0.179469
9101.000000;0.179847
9100.000000;0.180037
9099.000000;0.180491
9098.000000;0.181415
9097.000000;0.182477
9096.000000;0.183188
9095.000000;0.183489
9094.000000;0.183773
9093.000000;0.184349
9092.000000;0.185133
9091.000000;0.185866
9090.000000;0.186433
9089.000000;0.186888
9088.000000;0.187311
9087.000000;0.187777
9086.000000;0.188344
9085.000000;0.188935
9084.000000;0.189327
9083.000000;0.189399
9082.000000;0.189387
9081.000000;0.189727
9080.000000;0.190606
9079.000000;0.191728
9078.000000;0.192603
9077.000000;0.193013
9076.000000;0.193158
9075.000000;0.193377
9074.000000;0.193821
9073.000000;0.194408
9072.000000;0.195016
9071.000000;0.195602
9070.000000;0.196158
9069.000000;0.196630
9068.000000;0.196969
9067.000000;0.197240
9066.000000;0.197592
